Wavenumber,Intensity
650.4205,0.372182
651.3523,0.377069
652.2841,0.385859
653.2160,0.385293
654.1478,0.384285
655.0796,0.383650
656.0115,0.377861
656.9433,0.373069
657.8751,0.378481
658.8070,0.384701
659.7388,0.379897
660.6706,0.373717
661.6025,0.370660
662.5343,0.374230
663.4661,0.373594
664.3980,0.365572
665.3298,0.363233
666.2616,0.361178
667.1935,0.353914
668.1253,0.362758
669.0571,0.375602
669.9890,0.364381
670.9208,0.355468
671.8526,0.353459
672.7845,0.357467
673.7163,0.356409
674.6481,0.354779
675.5800,0.355935
676.5118,0.350431
677.4437,0.347981
678.3755,0.349100
679.3073,0.345278
680.2392,0.347021
681.1710,0.353118
682.1028,0.349672
683.0347,0.344356
683.9665,0.347228
684.8983,0.350051
685.8302,0.344767
686.7620,0.339529
687.6938,0.339560
688.6257,0.339880
689.5575,0.335845
690.4893,0.333161
691.4212,0.332571
692.3530,0.332579
693.2848,0.329707
694.2167,0.326360
695.1485,0.325915
696.0803,0.324387
697.0122,0.319300
697.9440,0.319258
698.8758,0.320728
699.8077,0.315941
700.7395,0.315855
701.6713,0.322159
702.6032,0.321241
703.5350,0.316599
704.4669,0.313512
705.3987,0.312981
706.3305,0.312839
707.2624,0.312322
708.1942,0.311516
709.1260,0.311681
710.0579,0.309429
710.9897,0.306806
711.9215,0.305670
712.8534,0.305528
713.7852,0.302027
714.7170,0.301105
715.6489,0.302495
716.5807,0.300152
717.5125,0.296472
718.4444,0.296199
719.3762,0.294260
720.3080,0.290449
721.2399,0.287806
722.1717,0.286364
723.1035,0.285681
724.0354,0.287591
724.9672,0.286751
725.8990,0.284511
726.8309,0.283452
727.7627,0.282001
728.6945,0.279401
729.6264,0.279948
730.5582,0.281518
731.4901,0.280871
732.4219,0.277777
733.3537,0.275540
734.2856,0.275102
735.2174,0.274976
736.1492,0.271718
737.0811,0.268960
738.0129,0.269590
738.9447,0.268864
739.8766,0.265339
740.8084,0.263536
741.7402,0.263129
742.6721,0.261292
743.6039,0.259853
744.5357,0.259090
745.4676,0.257990
746.3994,0.257470
747.3312,0.256153
748.2631,0.253878
749.1949,0.251906
750.1267,0.250590
751.0586,0.249437
751.9904,0.247911
752.9222,0.246186
753.8541,0.246659
754.7859,0.247511
755.7177,0.247469
756.6496,0.244060
757.5814,0.239251
758.5132,0.238521
759.4451,0.240691
760.3769,0.239994
761.3088,0.236522
762.2406,0.233993
763.1724,0.233511
764.1043,0.233832
765.0361,0.233754
765.9679,0.230751
766.8998,0.228003
767.8316,0.226399
768.7634,0.226789
769.6953,0.227292
770.6271,0.224903
771.5589,0.222313
772.4908,0.221841
773.4226,0.221434
774.3544,0.219227
775.2863,0.216901
776.2181,0.216962
777.1499,0.217026
778.0818,0.215529
779.0136,0.212623
779.9454,0.212290
780.8773,0.212917
781.8091,0.211385
782.7409,0.209186
783.6728,0.207491
784.6046,0.205739
785.5364,0.203865
786.4683,0.201456
787.4001,0.200669
788.3320,0.200269
789.2638,0.199523
790.1956,0.198640
791.1275,0.198062
792.0593,0.196587
792.9911,0.194745
793.9230,0.193398
794.8548,0.192228
795.7866,0.190877
796.7185,0.190816
797.6503,0.189145
798.5821,0.187120
799.5140,0.186216
800.4458,0.186154
801.3776,0.185362
802.3095,0.183641
803.2413,0.181762
804.1731,0.180764
805.1050,0.180084
806.0368,0.178761
806.9686,0.176814
807.9005,0.175643
808.8323,0.175095
809.7641,0.173606
810.6960,0.171584
811.6278,0.171116
812.5596,0.170526
813.4915,0.168575
814.4233,0.165842
815.3552,0.164672
816.2870,0.164650
817.2188,0.163920
818.1507,0.162669
819.0825,0.161719
820.0143,0.159802
820.9462,0.158221
821.8780,0.157945
822.8098,0.157528
823.7417,0.156372
824.6735,0.154147
825.6053,0.152075
826.5372,0.151760
827.4690,0.151649
828.4008,0.150788
829.3327,0.149105
830.2645,0.148347
831.1963,0.147718
832.1282,0.146546
833.0600,0.145265
833.9918,0.144143
834.9237,0.143633
835.8555,0.142493
836.7873,0.140438
837.7192,0.139540
838.6510,0.138964
839.5828,0.138124
840.5147,0.137457
841.4465,0.136776
842.3784,0.135465
843.3102,0.134708
844.2420,0.134248
845.1739,0.133400
846.1057,0.131787
847.0375,0.131107
847.9694,0.130203
848.9012,0.128875
849.8330,0.127987
850.7649,0.126920
851.6967,0.126682
852.6285,0.126731
853.5604,0.126189
854.4922,0.125702
855.4240,0.124110
856.3559,0.122577
857.2877,0.122649
858.2195,0.122645
859.1514,0.121513
860.0832,0.120463
861.0150,0.120510
861.9469,0.120521
862.8787,0.120758
863.8105,0.121976
864.7424,0.122398
865.6742,0.122321
866.6060,0.122719
867.5379,0.123588
868.4697,0.124461
869.4016,0.126077
870.3334,0.128913
871.2652,0.131751
872.1971,0.134965
873.1289,0.139093
874.0607,0.143640
874.9926,0.148116
875.9244,0.151867
876.8562,0.154586
877.7881,0.155372
878.7199,0.154370
879.6517,0.151489
880.5836,0.146979
881.5154,0.141412
882.4472,0.135491
883.3791,0.129011
884.3109,0.122628
885.2427,0.116790
886.1746,0.111520
887.1064,0.106905
888.0382,0.102910
888.9701,0.099350
889.9019,0.096930
890.8337,0.095150
891.7656,0.093413
892.6974,0.091664
893.6292,0.090006
894.5611,0.088555
895.4929,0.087749
896.4247,0.086727
897.3566,0.086057
898.2884,0.085131
899.2203,0.083761
900.1521,0.082826
901.0839,0.082223
902.0158,0.081445
902.9476,0.080603
903.8794,0.079852
904.8113,0.079089
905.7431,0.078609
906.6749,0.077865
907.6068,0.076900
908.5386,0.076249
909.4704,0.075835
910.4023,0.075429
911.3341,0.074844
912.2659,0.074784
913.1978,0.074291
914.1296,0.073588
915.0614,0.073136
915.9933,0.072531
916.9251,0.071720
917.8569,0.071201
918.7888,0.070787
919.7206,0.070199
920.6524,0.069619
921.5843,0.069381
922.5161,0.069346
923.4479,0.069072
924.3798,0.068319
925.3116,0.067739
926.2435,0.067740
927.1753,0.067522
928.1071,0.067167
929.0390,0.066646
929.9708,0.066087
930.9026,0.065727
931.8345,0.065138
932.7663,0.064576
933.6981,0.064389
934.6300,0.064616
935.5618,0.064312
936.4936,0.063530
937.4255,0.063261
938.3573,0.063182
939.2891,0.062717
940.2210,0.062432
941.1528,0.062084
942.0846,0.061761
943.0165,0.061677
943.9483,0.061406
944.8801,0.061145
945.8120,0.060889
946.7438,0.060615
947.6756,0.060383
948.6075,0.059900
949.5393,0.059905
950.4711,0.059414
951.4030,0.058594
952.3348,0.058657
953.2667,0.058632
954.1985,0.058459
955.1303,0.058524
956.0622,0.058383
956.9940,0.058023
957.9258,0.057810
958.8577,0.057721
959.7895,0.057419
960.7213,0.057271
961.6532,0.056938
962.5850,0.056613
963.5168,0.056791
964.4487,0.056335
965.3805,0.056186
966.3123,0.056296
967.2442,0.055776
968.1760,0.055357
969.1078,0.055407
970.0397,0.055519
970.9715,0.055328
971.9033,0.054975
972.8352,0.055202
973.7670,0.055722
974.6988,0.055689
975.6307,0.055258
976.5625,0.054809
977.4943,0.054442
978.4262,0.054269
979.3580,0.054521
980.2899,0.054765
981.2217,0.054649
982.1535,0.054592
983.0854,0.054571
984.0172,0.054548
984.9490,0.054298
985.8809,0.054206
986.8127,0.054216
987.7445,0.054201
988.6764,0.054165
989.6082,0.054133
990.5400,0.054365
991.4719,0.054491
992.4037,0.054318
993.3355,0.054357
994.2674,0.054361
995.1992,0.054372
996.1310,0.054463
997.0629,0.054587
997.9947,0.054886
998.9265,0.055221
999.8584,0.055372
1000.7902,0.055367
1001.7220,0.055369
1002.6539,0.055470
1003.5857,0.055886
1004.5175,0.056399
1005.4494,0.056526
1006.3812,0.056653
1007.3131,0.057034
1008.2449,0.057229
1009.1767,0.057634
1010.1086,0.058076
1011.0404,0.058325
1011.9722,0.058588
1012.9041,0.059301
1013.8359,0.060407
1014.7677,0.061093
1015.6996,0.061662
1016.6314,0.062816
1017.5632,0.063736
1018.4951,0.064366
1019.4269,0.065282
1020.3587,0.066413
1021.2906,0.068139
1022.2224,0.070012
1023.1542,0.071446
1024.0861,0.073256
1025.0179,0.075456
1025.9497,0.077884
1026.8816,0.080491
1027.8134,0.083676
1028.7452,0.087087
1029.6771,0.090729
1030.6089,0.094956
1031.5407,0.099892
1032.4726,0.106012
1033.4044,0.112802
1034.3362,0.120283
1035.2681,0.129196
1036.1999,0.139331
1037.1318,0.150410
1038.0636,0.162550
1038.9954,0.175413
1039.9273,0.188702
1040.8591,0.201647
1041.7909,0.213130
1042.7228,0.221967
1043.6546,0.226748
1044.5864,0.227827
1045.5183,0.224838
1046.4501,0.217701
1047.3819,0.207461
1048.3138,0.194837
1049.2456,0.181057
1050.1774,0.166623
1051.1093,0.152522
1052.0411,0.139360
1052.9729,0.126906
1053.9048,0.115517
1054.8366,0.105666
1055.7684,0.097417
1056.7003,0.090496
1057.6321,0.084806
1058.5639,0.080154
1059.4958,0.076263
1060.4276,0.073375
1061.3594,0.071124
1062.2913,0.069413
1063.2231,0.068027
1064.1550,0.067028
1065.0868,0.066727
1066.0186,0.066669
1066.9505,0.066923
1067.8823,0.067159
1068.8141,0.067549
1069.7460,0.068728
1070.6778,0.069999
1071.6096,0.071203
1072.5415,0.072754
1073.4733,0.074355
1074.4051,0.076235
1075.3370,0.078599
1076.2688,0.080862
1077.2006,0.083375
1078.1325,0.086182
1079.0643,0.088843
1079.9961,0.091236
1080.9280,0.093703
1081.8598,0.095968
1082.7916,0.097831
1083.7235,0.099331
1084.6553,0.100209
1085.5871,0.100422
1086.5190,0.099970
1087.4508,0.098649
1088.3826,0.096429
1089.3145,0.093615
1090.2463,0.090514
1091.1782,0.087152
1092.1100,0.083337
1093.0418,0.079468
1093.9737,0.075898
1094.9055,0.072443
1095.8373,0.069082
1096.7692,0.066042
1097.7010,0.063116
1098.6328,0.060569
1099.5647,0.058426
1100.4965,0.056608
1101.4283,0.055070
1102.3602,0.053770
1103.2920,0.052497
1104.2238,0.051214
1105.1557,0.050280
1106.0875,0.049527
1107.0193,0.048842
1107.9512,0.048107
1108.8830,0.047532
1109.8148,0.047172
1110.7467,0.046582
1111.6785,0.046201
1112.6103,0.046212
1113.5422,0.046191
1114.4740,0.046002
1115.4058,0.045617
1116.3377,0.045347
1117.2695,0.045306
1118.2014,0.045348
1119.1332,0.045327
1120.0650,0.045076
1120.9969,0.045226
1121.9287,0.045460
1122.8605,0.045294
1123.7924,0.044834
1124.7242,0.044727
1125.6560,0.044951
1126.5879,0.045005
1127.5197,0.045061
1128.4515,0.044884
1129.3834,0.044544
1130.3152,0.044497
1131.2470,0.044608
1132.1789,0.044343
1133.1107,0.044070
1134.0425,0.043909
1134.9744,0.043767
1135.9062,0.043766
1136.8380,0.043937
1137.7699,0.043794
1138.7017,0.043656
1139.6335,0.043330
1140.5654,0.043075
1141.4972,0.043175
1142.4290,0.043287
1143.3609,0.043047
1144.2927,0.042897
1145.2246,0.042897
1146.1564,0.042881
1147.0882,0.043012
1148.0201,0.042890
1148.9519,0.042613
1149.8837,0.042812
1150.8156,0.042889
1151.7474,0.042847
1152.6792,0.042841
1153.6111,0.042805
1154.5429,0.042778
1155.4747,0.042721
1156.4066,0.042739
1157.3384,0.042681
1158.2702,0.042661
1159.2021,0.042577
1160.1339,0.042385
1161.0657,0.041990
1161.9976,0.041673
1162.9294,0.041592
1163.8612,0.041522
1164.7931,0.041433
1165.7249,0.041294
1166.6567,0.041023
1167.5886,0.040826
1168.5204,0.040833
1169.4522,0.040776
1170.3841,0.040639
1171.3159,0.040575
1172.2477,0.040424
1173.1796,0.040394
1174.1114,0.040374
1175.0433,0.040128
1175.9751,0.040291
1176.9069,0.040653
1177.8388,0.040581
1178.7706,0.040325
1179.7024,0.040237
1180.6343,0.040415
1181.5661,0.040564
1182.4979,0.040308
1183.4298,0.040182
1184.3616,0.040124
1185.2934,0.040194
1186.2253,0.040366
1187.1571,0.040370
1188.0889,0.040208
1189.0208,0.040284
1189.9526,0.040294
1190.8844,0.040302
1191.8163,0.040214
1192.7481,0.040302
1193.6799,0.040526
1194.6118,0.040745
1195.5436,0.040746
1196.4754,0.040615
1197.4073,0.040448
1198.3391,0.040404
1199.2709,0.040312
1200.2028,0.040344
1201.1346,0.040636
1202.0665,0.040680
1202.9983,0.040602
1203.9301,0.040513
1204.8620,0.040477
1205.7938,0.040598
1206.7256,0.040627
1207.6575,0.040369
1208.5893,0.040316
1209.5211,0.040491
1210.4530,0.040585
1211.3848,0.040701
1212.3166,0.041078
1213.2485,0.041286
1214.1803,0.040900
1215.1121,0.040622
1216.0440,0.040932
1216.9758,0.041190
1217.9076,0.041146
1218.8395,0.041080
1219.7713,0.041341
1220.7031,0.041522
1221.6350,0.041466
1222.5668,0.041470
1223.4986,0.041480
1224.4305,0.041435
1225.3623,0.041341
1226.2941,0.041517
1227.2260,0.041686
1228.1578,0.041838
1229.0897,0.041755
1230.0215,0.041701
1230.9533,0.041795
1231.8852,0.041937
1232.8170,0.041999
1233.7488,0.042104
1234.6807,0.042235
1235.6125,0.042304
1236.5443,0.042339
1237.4762,0.042213
1238.4080,0.042229
1239.3398,0.042472
1240.2717,0.042552
1241.2035,0.042590
1242.1353,0.042716
1243.0672,0.042907
1243.9990,0.043101
1244.9308,0.043193
1245.8627,0.043198
1246.7945,0.043203
1247.7263,0.043277
1248.6582,0.043461
1249.5900,0.043742
1250.5218,0.043774
1251.4537,0.043827
1252.3855,0.043941
1253.3173,0.044143
1254.2492,0.044780
1255.1810,0.045138
1256.1129,0.045480
1257.0447,0.045785
1257.9765,0.046061
1258.9084,0.046301
1259.8402,0.046442
1260.7720,0.046838
1261.7039,0.047199
1262.6357,0.047431
1263.5675,0.047863
1264.4994,0.048473
1265.4312,0.048986
1266.3630,0.049517
1267.2949,0.050251
1268.2267,0.050678
1269.1585,0.050652
1270.0904,0.051040
1271.0222,0.051757
1271.9540,0.052415
1272.8859,0.052737
1273.8177,0.052606
1274.7495,0.052430
1275.6814,0.052278
1276.6132,0.052196
1277.5450,0.052105
1278.4769,0.051820
1279.4087,0.051611
1280.3405,0.051368
1281.2724,0.050737
1282.2042,0.050125
1283.1361,0.049735
1284.0679,0.049522
1284.9997,0.049360
1285.9316,0.049280
1286.8634,0.049095
1287.7952,0.048903
1288.7271,0.048981
1289.6589,0.048788
1290.5907,0.048727
1291.5226,0.048971
1292.4544,0.049216
1293.3862,0.049437
1294.3181,0.049551
1295.2499,0.049343
1296.1817,0.049303
1297.1136,0.049700
1298.0454,0.050128
1298.9772,0.050264
1299.9091,0.050415
1300.8409,0.050392
1301.7727,0.050779
1302.7046,0.051080
1303.6364,0.051263
1304.5682,0.051373
1305.5001,0.051667
1306.4319,0.052090
1307.3637,0.052334
1308.2956,0.052361
1309.2274,0.052399
1310.1592,0.052425
1311.0911,0.052500
1312.0229,0.052647
1312.9548,0.053018
1313.8866,0.053660
1314.8184,0.053936
1315.7503,0.053729
1316.6821,0.053599
1317.6139,0.053863
1318.5458,0.054168
1319.4776,0.054279
1320.4094,0.054707
1321.3413,0.055023
1322.2731,0.055171
1323.2049,0.055062
1324.1368,0.054890
1325.0686,0.054600
1326.0004,0.054458
1326.9323,0.054546
1327.8641,0.054609
1328.7959,0.054630
1329.7278,0.054508
1330.6596,0.054244
1331.5914,0.053992
1332.5233,0.053977
1333.4551,0.053993
1334.3869,0.053890
1335.3188,0.053257
1336.2506,0.052391
1337.1824,0.052274
1338.1143,0.052375
1339.0461,0.052154
1339.9780,0.052244
1340.9098,0.052535
1341.8416,0.052465
1342.7735,0.051832
1343.7053,0.051241
1344.6371,0.050961
1345.5690,0.050738
1346.5008,0.050104
1347.4326,0.049596
1348.3645,0.049497
1349.2963,0.049518
1350.2281,0.049453
1351.1600,0.049247
1352.0918,0.048960
1353.0236,0.048917
1353.9555,0.048786
1354.8873,0.048793
1355.8191,0.048916
1356.7510,0.048776
1357.6828,0.048516
1358.6146,0.048338
1359.5465,0.048183
1360.4783,0.048096
1361.4101,0.048332
1362.3420,0.048955
1363.2738,0.049317
1364.2056,0.050103
1365.1375,0.050207
1366.0693,0.049825
1367.0012,0.049942
1367.9330,0.050207
1368.8648,0.050907
1369.7967,0.051836
1370.7285,0.052506
1371.6603,0.052710
1372.5922,0.053382
1373.5240,0.054630
1374.4558,0.056577
1375.3877,0.058848
1376.3195,0.059729
1377.2513,0.059872
1378.1832,0.060198
1379.1150,0.061194
1380.0468,0.061825
1380.9787,0.062013
1381.9105,0.062358
1382.8423,0.062617
1383.7742,0.062550
1384.7060,0.062711
1385.6378,0.062795
1386.5697,0.062820
1387.5015,0.063204
1388.4333,0.064096
1389.3652,0.063524
1390.2970,0.062038
1391.2288,0.060991
1392.1607,0.060174
1393.0925,0.059573
1394.0244,0.059088
1394.9562,0.059584
1395.8880,0.061029
1396.8199,0.061248
1397.7517,0.060620
1398.6835,0.060739
1399.6154,0.061211
1400.5472,0.061544
1401.4790,0.061182
1402.4109,0.060432
1403.3427,0.060082
1404.2745,0.060552
1405.2064,0.061362
1406.1382,0.062098
1407.0700,0.062367
1408.0019,0.061962
1408.9337,0.061569
1409.8655,0.061663
1410.7974,0.062166
1411.7292,0.062429
1412.6610,0.062463
1413.5929,0.062183
1414.5247,0.061563
1415.4565,0.061149
1416.3884,0.060946
1417.3202,0.060974
1418.2520,0.061433
1419.1839,0.061836
1420.1157,0.063578
1421.0476,0.063739
1421.9794,0.061769
1422.9112,0.060905
1423.8431,0.060683
1424.7749,0.061033
1425.7067,0.060783
1426.6386,0.059747
1427.5704,0.058821
1428.5022,0.058339
1429.4341,0.058101
1430.3659,0.057791
1431.2977,0.057654
1432.2296,0.057126
1433.1614,0.056420
1434.0932,0.055753
1435.0251,0.054985
1435.9569,0.054494
1436.8887,0.055200
1437.8206,0.057167
1438.7524,0.056875
1439.6842,0.055282
1440.6161,0.054606
1441.5479,0.054599
1442.4797,0.054789
1443.4116,0.054673
1444.3434,0.054426
1445.2752,0.054714
1446.2071,0.055559
1447.1389,0.056305
1448.0707,0.057216
1449.0026,0.058919
1449.9344,0.059770
1450.8663,0.059712
1451.7981,0.059674
1452.7299,0.059526
1453.6618,0.059307
1454.5936,0.058659
1455.5254,0.057926
1456.4573,0.057794
1457.3891,0.058492
1458.3209,0.059213
1459.2528,0.058020
1460.1846,0.055743
1461.1164,0.053168
1462.0483,0.051299
1462.9801,0.049901
1463.9119,0.049049
1464.8438,0.048848
1465.7756,0.048707
1466.7074,0.048165
1467.6393,0.046985
1468.5711,0.046245
1469.5029,0.045525
1470.4348,0.044460
1471.3666,0.043472
1472.2984,0.043499
1473.2303,0.045558
1474.1621,0.046949
1475.0939,0.046477
1476.0258,0.045644
1476.9576,0.045899
1477.8895,0.046511
1478.8213,0.046015
1479.7531,0.045738
1480.6850,0.045938
1481.6168,0.046242
1482.5486,0.046504
1483.4805,0.046154
1484.4123,0.045506
1485.3441,0.045143
1486.2760,0.044600
1487.2078,0.044153
1488.1396,0.044604
1489.0715,0.045111
1490.0033,0.045130
1490.9351,0.045373
1491.8670,0.044990
1492.7988,0.043554
1493.7306,0.042146
1494.6625,0.041430
1495.5943,0.041266
1496.5261,0.041647
1497.4580,0.042789
1498.3898,0.042731
1499.3216,0.041986
1500.2535,0.042102
1501.1853,0.041723
1502.1171,0.041096
1503.0490,0.040558
1503.9808,0.039873
1504.9127,0.039176
1505.8445,0.039204
1506.7763,0.040780
1507.7082,0.043594
1508.6400,0.044320
1509.5718,0.043374
1510.5037,0.042700
1511.4355,0.042647
1512.3673,0.042286
1513.2992,0.041776
1514.2310,0.040740
1515.1628,0.040106
1516.0947,0.039882
1517.0265,0.040347
1517.9583,0.041601
1518.8902,0.041669
1519.8220,0.039829
1520.7538,0.039550
1521.6857,0.042149
1522.6175,0.044420
1523.5493,0.043345
1524.4812,0.041902
1525.4130,0.041445
1526.3448,0.041995
1527.2767,0.042407
1528.2085,0.042480
1529.1403,0.042497
1530.0722,0.042250
1531.0040,0.041808
1531.9359,0.042017
1532.8677,0.042616
1533.7995,0.043396
1534.7314,0.044513
1535.6632,0.044103
1536.5950,0.042791
1537.5269,0.041543
1538.4587,0.040609
1539.3905,0.041246
1540.3224,0.044307
1541.2542,0.046327
1542.1860,0.045482
1543.1179,0.045538
1544.0497,0.045894
1544.9815,0.045424
1545.9134,0.045364
1546.8452,0.045584
1547.7770,0.045077
1548.7089,0.044254
1549.6407,0.044150
1550.5725,0.045128
1551.5044,0.046049
1552.4362,0.045548
1553.3680,0.044879
1554.2999,0.044725
1555.2317,0.045279
1556.1635,0.046044
1557.0954,0.045007
1558.0272,0.044648
1558.9591,0.048079
1559.8909,0.053440
1560.8227,0.054453
1561.7546,0.052962
1562.6864,0.050060
1563.6182,0.048513
1564.5501,0.048495
1565.4819,0.049488
1566.4137,0.050441
1567.3456,0.050452
1568.2774,0.049962
1569.2092,0.050050
1570.1411,0.051770
1571.0729,0.054267
1572.0047,0.053834
1572.9366,0.052626
1573.8684,0.052325
1574.8002,0.052489
1575.7321,0.053558
1576.6639,0.055947
1577.5957,0.058590
1578.5276,0.058584
1579.4594,0.057914
1580.3912,0.057987
1581.3231,0.058108
1582.2549,0.058438
1583.1867,0.059428
1584.1186,0.060352
1585.0504,0.060914
1585.9822,0.061612
1586.9141,0.062357
1587.8459,0.063160
1588.7778,0.063989
1589.7096,0.064721
1590.6414,0.065834
1591.5733,0.067003
1592.5051,0.067818
1593.4369,0.068529
1594.3688,0.069511
1595.3006,0.070846
1596.2324,0.072562
1597.1643,0.074121
1598.0961,0.075301
1599.0279,0.076587
1599.9598,0.077625
1600.8916,0.078667
1601.8234,0.080180
1602.7553,0.082060
1603.6871,0.083800
1604.6189,0.085230
1605.5508,0.086300
1606.4826,0.087850
1607.4144,0.089839
1608.3463,0.091865
1609.2781,0.093892
1610.2099,0.096301
1611.1418,0.098287
1612.0736,0.098925
1613.0054,0.099578
1613.9373,0.100867
1614.8691,0.102136
1615.8010,0.104099
1616.7328,0.108896
1617.6646,0.116306
1618.5965,0.119271
1619.5283,0.117892
1620.4601,0.117601
1621.3920,0.119136
1622.3238,0.121592
1623.2556,0.124139
1624.1875,0.128134
1625.1193,0.132372
1626.0511,0.132509
1626.9830,0.132861
1627.9148,0.135314
1628.8466,0.138631
1629.7785,0.140355
1630.7103,0.139483
1631.6421,0.138235
1632.5740,0.138168
1633.5058,0.138968
1634.4376,0.139648
1635.3695,0.140886
1636.3013,0.147751
1637.2331,0.155276
1638.1650,0.153722
1639.0968,0.151141
1640.0286,0.148402
1640.9605,0.146161
1641.8923,0.145184
1642.8242,0.144341
1643.7560,0.143479
1644.6878,0.142492
1645.6197,0.141841
1646.5515,0.143390
1647.4833,0.146949
1648.4152,0.146578
1649.3470,0.143192
1650.2788,0.138940
1651.2107,0.135670
1652.1425,0.134280
1653.0743,0.136950
1654.0062,0.145260
1654.9380,0.146083
1655.8698,0.139620
1656.8017,0.133899
1657.7335,0.130103
1658.6653,0.128130
1659.5972,0.126038
1660.5290,0.123503
1661.4608,0.122035
1662.3927,0.121440
1663.3245,0.121145
1664.2563,0.120075
1665.1882,0.116994
1666.1200,0.113990
1667.0518,0.111324
1667.9837,0.109048
1668.9155,0.107722
1669.8474,0.107334
1670.7792,0.106437
1671.7110,0.104076
1672.6429,0.102110
1673.5747,0.099761
1674.5065,0.097147
1675.4384,0.096536
1676.3702,0.097157
1677.3020,0.094975
1678.2339,0.091889
1679.1657,0.089530
1680.0975,0.087110
1681.0294,0.085370
1681.9612,0.083504
1682.8930,0.081131
1683.8249,0.079655
1684.7567,0.079814
1685.6885,0.079587
1686.6204,0.076895
1687.5522,0.074214
1688.4840,0.072484
1689.4159,0.071259
1690.3477,0.070028
1691.2795,0.068586
1692.2114,0.066528
1693.1432,0.064397
1694.0750,0.062707
1695.0069,0.061261
1695.9387,0.060491
1696.8706,0.060405
1697.8024,0.059553
1698.7342,0.057010
1699.6661,0.054879
1700.5979,0.054420
1701.5297,0.054018
1702.4616,0.052275
1703.3934,0.050696
1704.3252,0.049249
1705.2571,0.048463
1706.1889,0.047668
1707.1207,0.046295
1708.0526,0.044959
1708.9844,0.043836
1709.9162,0.042977
1710.8481,0.042254
1711.7799,0.041380
1712.7117,0.039847
1713.6436,0.038472
1714.5754,0.038151
1715.5072,0.038088
1716.4391,0.036814
1717.3709,0.035379
1718.3027,0.035384
1719.2346,0.035729
1720.1664,0.035049
1721.0982,0.034011
1722.0301,0.032976
1722.9619,0.032057
1723.8937,0.031716
1724.8256,0.031398
1725.7574,0.030874
1726.6893,0.030257
1727.6211,0.029244
1728.5529,0.028333
1729.4848,0.028104
1730.4166,0.028256
1731.3484,0.028111
1732.2803,0.027341
1733.2121,0.026697
1734.1439,0.026295
1735.0758,0.026352
1736.0076,0.026235
1736.9394,0.025061
1737.8713,0.024323
1738.8031,0.024061
1739.7349,0.024033
1740.6668,0.023981
1741.5986,0.023733
1742.5304,0.023624
1743.4623,0.022953
1744.3941,0.022082
1745.3259,0.021726
1746.2578,0.021489
1747.1896,0.021071
1748.1214,0.020977
1749.0533,0.021623
1749.9851,0.021611
1750.9169,0.020433
1751.8488,0.019703
1752.7806,0.019768
1753.7125,0.019870
1754.6443,0.019560
1755.5761,0.019337
1756.5080,0.019173
1757.4398,0.018753
1758.3716,0.018493
1759.3035,0.018472
1760.2353,0.018665
1761.1671,0.018605
1762.0990,0.018178
1763.0308,0.017825
1763.9626,0.017514
1764.8945,0.017338
1765.8263,0.016830
1766.7581,0.016047
1767.6900,0.015768
1768.6218,0.015933
1769.5536,0.016348
1770.4855,0.016502
1771.4173,0.016312
1772.3491,0.016399
1773.2810,0.016497
1774.2128,0.016008
1775.1446,0.015503
1776.0765,0.015465
1777.0083,0.015459
1777.9401,0.015398
1778.8720,0.015173
1779.8038,0.014766
1780.7357,0.014679
1781.6675,0.014653
1782.5993,0.014458
1783.5312,0.014330
1784.4630,0.014166
1785.3948,0.014285
1786.3267,0.014822
1787.2585,0.014511
1788.1903,0.013558
1789.1222,0.013338
1790.0540,0.013550
1790.9858,0.013670
1791.9177,0.013968
1792.8495,0.014058
1793.7813,0.013424
1794.7132,0.012713
1795.6450,0.012541
1796.5768,0.012422
1797.5087,0.012331
1798.4405,0.012460
1799.3723,0.012637
1800.3042,0.013041
1801.2360,0.013029
1802.1678,0.012423
1803.0997,0.012194
1804.0315,0.011888
1804.9633,0.011741
1805.8952,0.011979
1806.8270,0.011888
1807.7589,0.011639
1808.6907,0.011492
1809.6225,0.011557
1810.5544,0.011807
1811.4862,0.011777
1812.4180,0.011523
1813.3499,0.011806
1814.2817,0.012137
1815.2135,0.011718
1816.1454,0.011104
1817.0772,0.011244
1818.0090,0.011961
1818.9409,0.011624
1819.8727,0.010846
1820.8045,0.010785
1821.7364,0.010670
1822.6682,0.010468
1823.6000,0.010643
1824.5319,0.011008
1825.4637,0.011242
1826.3955,0.011355
1827.3274,0.011210
1828.2592,0.011093
1829.1910,0.011279
1830.1229,0.010615
1831.0547,0.009354
1831.9865,0.009860
1832.9184,0.010611
1833.8502,0.010455
1834.7821,0.010201
1835.7139,0.010416
1836.6457,0.010774
1837.5776,0.010350
1838.5094,0.010172
1839.4412,0.010594
1840.3731,0.010796
1841.3049,0.010637
1842.2367,0.010654
1843.1686,0.010681
1844.1004,0.010065
1845.0322,0.009957
1845.9641,0.010087
1846.8959,0.009192
1847.8277,0.008332
1848.7596,0.008379
1849.6914,0.009263
1850.6232,0.009530
1851.5551,0.009125
1852.4869,0.008731
1853.4187,0.008729
1854.3506,0.008819
1855.2824,0.008764
1856.2142,0.009229
1857.1461,0.009409
1858.0779,0.009177
1859.0097,0.008922
1859.9416,0.009130
1860.8734,0.009850
1861.8052,0.010341
1862.7371,0.010321
1863.6689,0.009840
1864.6008,0.009486
1865.5326,0.009733
1866.4644,0.010079
1867.3963,0.009728
1868.3281,0.008886
1869.2599,0.009276
1870.1918,0.010154
1871.1236,0.009605
1872.0554,0.009086
1872.9873,0.008232
1873.9191,0.008221
1874.8509,0.008961
1875.7828,0.008497
1876.7146,0.008245
1877.6464,0.008686
1878.5783,0.008951
1879.5101,0.009407
1880.4419,0.009573
1881.3738,0.009432
1882.3056,0.009263
1883.2374,0.008448
1884.1693,0.008107
1885.1011,0.009387
1886.0329,0.009465
1886.9648,0.007946
1887.8966,0.008091
1888.8284,0.008532
1889.7603,0.008453
1890.6921,0.008289
1891.6240,0.007852
1892.5558,0.007705
1893.4876,0.008310
1894.4195,0.008576
1895.3513,0.008458
1896.2831,0.008578
1897.2150,0.008178
1898.1468,0.008131
1899.0786,0.008557
1900.0105,0.009438
1900.9423,0.010241
1901.8741,0.009992
1902.8060,0.010243
1903.7378,0.010513
1904.6696,0.009512
1905.6015,0.009241
1906.5333,0.010488
1907.4651,0.010763
1908.3970,0.009682
1909.3288,0.009407
1910.2606,0.009347
1911.1925,0.008601
1912.1243,0.007677
1913.0561,0.007963
1913.9880,0.008909
1914.9198,0.009196
1915.8516,0.009647
1916.7835,0.010176
1917.7153,0.010621
1918.6472,0.009775
1919.5790,0.008947
1920.5108,0.008601
1921.4427,0.008033
1922.3745,0.007937
1923.3063,0.007922
1924.2382,0.007938
1925.1700,0.007114
1926.1018,0.006644
1927.0337,0.007925
1927.9655,0.009040
1928.8973,0.009116
1929.8292,0.008066
1930.7610,0.007475
1931.6928,0.007757
1932.6247,0.007273
1933.5565,0.007066
1934.4883,0.007653
1935.4202,0.007779
1936.3520,0.007357
1937.2838,0.006928
1938.2157,0.007881
1939.1475,0.008323
1940.0793,0.006910
1941.0112,0.006737
1941.9430,0.007347
1942.8748,0.006532
1943.8067,0.008179
1944.7385,0.010106
1945.6704,0.008997
1946.6022,0.007682
1947.5340,0.007260
1948.4659,0.008354
1949.3977,0.008232
1950.3295,0.008206
1951.2614,0.008440
1952.1932,0.006890
1953.1250,0.006858
1954.0569,0.006959
1954.9887,0.005850
1955.9205,0.005235
1956.8524,0.006633
1957.7842,0.006482
1958.7160,0.005634
1959.6479,0.007826
1960.5797,0.007571
1961.5115,0.006704
1962.4434,0.007190
1963.3752,0.005994
1964.3070,0.005024
1965.2389,0.006047
1966.1707,0.005327
1967.1025,0.003769
1968.0344,0.005770
1968.9662,0.005423
1969.8980,0.004637
1970.8299,0.006428
1971.7617,0.005131
1972.6936,0.004632
1973.6254,0.007195
1974.5572,0.007848
1975.4891,0.006736
1976.4209,0.004175
1977.3527,0.000411
1978.2846,-0.000589
1979.2164,0.000089
1980.1482,0.001430
1981.0801,0.003576
1982.0119,0.002802
1982.9437,0.004283
1983.8756,0.006925
1984.8074,0.007553
1985.7392,0.009212
1986.6711,0.009930
1987.6029,0.008427
1988.5347,0.008603
1989.4666,0.008722
1990.3984,0.006528
1991.3302,0.005270
1992.2621,0.005311
1993.1939,0.007214
1994.1257,0.006560
1995.0576,0.004809
1995.9894,0.007668
1996.9212,0.010571
1997.8531,0.007880
1998.7849,0.004888
1999.7167,0.005634
2000.6486,0.007709
2001.5804,0.006792
2002.5123,0.006435
2003.4441,0.006832
2004.3759,0.005796
2005.3078,0.005264
2006.2396,0.004526
2007.1714,0.004928
2008.1033,0.004498
2009.0351,0.004163
2009.9669,0.006655
2010.8988,0.008687
2011.8306,0.005575
2012.7624,0.004458
2013.6943,0.005237
2014.6261,0.003876
2015.5579,0.003868
2016.4898,0.004704
2017.4216,0.005825
2018.3534,0.006370
2019.2853,0.004276
2020.2171,0.003382
2021.1489,0.006292
2022.0808,0.007500
2023.0126,0.004651
2023.9444,0.003452
2024.8763,0.006142
2025.8081,0.006629
2026.7399,0.005672
2027.6718,0.005041
2028.6036,0.003791
2029.5355,0.004242
2030.4673,0.005731
2031.3991,0.006124
2032.3310,0.005445
2033.2628,0.004369
2034.1946,0.003997
2035.1265,0.002447
2036.0583,0.003943
2036.9901,0.008164
2037.9220,0.008129
2038.8538,0.007781
2039.7856,0.007649
2040.7175,0.006745
2041.6493,0.007913
2042.5811,0.008077
2043.5130,0.008086
2044.4448,0.009543
2045.3766,0.010150
2046.3085,0.008077
2047.2403,0.006883
2048.1721,0.009280
2049.1040,0.012396
2050.0358,0.010288
2050.9676,0.007893
2051.8995,0.009443
2052.8313,0.009261
2053.7631,0.009214
2054.6950,0.010511
2055.6268,0.010834
2056.5587,0.010722
2057.4905,0.010288
2058.4223,0.009930
2059.3542,0.008310
2060.2860,0.007437
2061.2178,0.009111
2062.1497,0.010831
2063.0815,0.011664
2064.0133,0.011775
2064.9452,0.010295
2065.8770,0.007774
2066.8088,0.007528
2067.7407,0.008618
2068.6725,0.010562
2069.6043,0.012747
2070.5362,0.012323
2071.4680,0.012358
2072.3998,0.015127
2073.3317,0.015790
2074.2635,0.014938
2075.1953,0.014637
2076.1272,0.013114
2077.0590,0.013674
2077.9908,0.014553
2078.9227,0.013886
2079.8545,0.013883
2080.7863,0.012528
2081.7182,0.012155
2082.6500,0.013538
2083.5819,0.014742
2084.5137,0.014774
2085.4455,0.013742
2086.3774,0.014743
2087.3092,0.014623
2088.2410,0.013196
2089.1729,0.012603
2090.1047,0.011493
2091.0365,0.011145
2091.9684,0.012846
2092.9002,0.013261
2093.8320,0.012726
2094.7639,0.013440
2095.6957,0.013205
2096.6275,0.012759
2097.5594,0.012812
2098.4912,0.010986
2099.4230,0.010274
2100.3549,0.012089
2101.2867,0.011406
2102.2185,0.011772
2103.1504,0.014555
2104.0822,0.015066
2105.0140,0.014836
2105.9459,0.014382
2106.8777,0.012734
2107.8095,0.012396
2108.7414,0.013662
2109.6732,0.013625
2110.6051,0.013507
2111.5369,0.014057
2112.4687,0.014638
2113.4006,0.014494
2114.3324,0.013173
2115.2642,0.013133
2116.1961,0.015201
2117.1279,0.015678
2118.0597,0.013995
2118.9916,0.013864
2119.9234,0.014177
2120.8552,0.014603
2121.7871,0.014840
2122.7189,0.015407
2123.6507,0.015117
2124.5826,0.013386
2125.5144,0.013951
2126.4462,0.015545
2127.3781,0.015162
2128.3099,0.014738
2129.2417,0.015755
2130.1736,0.014363
2131.1054,0.012298
2132.0372,0.012957
2132.9691,0.013227
2133.9009,0.013246
2134.8327,0.014182
2135.7646,0.013206
2136.6964,0.012948
2137.6282,0.013840
2138.5601,0.010789
2139.4919,0.009952
2140.4238,0.011207
2141.3556,0.011145
2142.2874,0.011993
2143.2193,0.012507
2144.1511,0.011394
2145.0829,0.012726
2146.0148,0.012954
2146.9466,0.010664
2147.8784,0.010556
2148.8103,0.011354
2149.7421,0.010521
2150.6739,0.009683
2151.6058,0.010181
2152.5376,0.009147
2153.4694,0.007943
2154.4013,0.005050
2155.3331,0.001949
2156.2649,0.005679
2157.1968,0.007954
2158.1286,0.006739
2159.0604,0.004446
2159.9923,0.005372
2160.9241,0.005020
2161.8559,0.003723
2162.7878,0.004753
2163.7196,0.007562
2164.6514,0.007776
2165.5833,0.006612
2166.5151,0.008701
2167.4470,0.009940
2168.3788,0.007070
2169.3106,0.008472
2170.2425,0.010900
2171.1743,0.010813
2172.1061,0.008794
2173.0380,0.006601
2173.9698,0.005608
2174.9016,0.006256
2175.8335,0.007771
2176.7653,0.006216
2177.6971,0.006568
2178.6290,0.009294
2179.5608,0.010258
2180.4926,0.009940
2181.4245,0.006510
2182.3563,0.006682
2183.2881,0.007239
2184.2200,0.007162
2185.1518,0.007809
2186.0836,0.011242
2187.0155,0.012379
2187.9473,0.009013
2188.8791,0.007575
2189.8110,0.008886
2190.7428,0.010428
2191.6746,0.009347
2192.6065,0.007961
2193.5383,0.008093
2194.4702,0.009059
2195.4020,0.010415
2196.3338,0.009992
2197.2657,0.009069
2198.1975,0.007227
2199.1293,0.007684
2200.0612,0.007158
2200.9930,0.008249
2201.9248,0.010155
2202.8567,0.009337
2203.7885,0.007670
2204.7203,0.008213
2205.6522,0.011512
2206.5840,0.011326
2207.5158,0.007376
2208.4477,0.007320
2209.3795,0.010102
2210.3113,0.010336
2211.2432,0.010165
2212.1750,0.009708
2213.1068,0.008075
2214.0387,0.009228
2214.9705,0.011158
2215.9023,0.011251
2216.8342,0.010135
2217.7660,0.008132
2218.6978,0.008242
2219.6297,0.009698
2220.5615,0.009474
2221.4934,0.009392
2222.4252,0.011061
2223.3570,0.010990
2224.2889,0.010304
2225.2207,0.010584
2226.1525,0.009863
2227.0844,0.008831
2228.0162,0.008446
2228.9480,0.009986
2229.8799,0.010325
2230.8117,0.009758
2231.7435,0.010160
2232.6754,0.010554
2233.6072,0.009534
2234.5390,0.009330
2235.4709,0.009428
2236.4027,0.009990
2237.3345,0.009964
2238.2664,0.008864
2239.1982,0.007936
2240.1300,0.007887
2241.0619,0.009031
2241.9937,0.009832
2242.9255,0.010032
2243.8574,0.008956
2244.7892,0.009885
2245.7210,0.009973
2246.6529,0.009759
2247.5847,0.009298
2248.5166,0.008991
2249.4484,0.009458
2250.3802,0.010073
2251.3121,0.010013
2252.2439,0.009885
2253.1757,0.010088
2254.1076,0.009982
2255.0394,0.010027
2255.9712,0.009209
2256.9031,0.009824
2257.8349,0.010951
2258.7667,0.011478
2259.6986,0.009301
2260.6304,0.008246
2261.5622,0.008908
2262.4941,0.009028
2263.4259,0.008839
2264.3577,0.009326
2265.2896,0.010342
2266.2214,0.009952
2267.1532,0.008837
2268.0851,0.007992
2269.0169,0.007888
2269.9487,0.007887
2270.8806,0.009341
2271.8124,0.009273
2272.7442,0.008912
2273.6761,0.008956
2274.6079,0.008303
2275.5397,0.009509
2276.4716,0.009543
2277.4034,0.009756
2278.3353,0.010728
2279.2671,0.010706
2280.1989,0.010227
2281.1308,0.010278
2282.0626,0.009560
2282.9944,0.009284
2283.9263,0.009911
2284.8581,0.009528
2285.7899,0.008724
2286.7218,0.009177
2287.6536,0.011335
2288.5854,0.011733
2289.5173,0.011376
2290.4491,0.010429
2291.3809,0.008993
2292.3128,0.008495
2293.2446,0.008509
2294.1764,0.008345
2295.1083,0.008784
2296.0401,0.008441
2296.9719,0.008345
2297.9038,0.008998
2298.8356,0.009790
2299.7674,0.009393
2300.6993,0.008920
2301.6311,0.009498
2302.5629,0.009553
2303.4948,0.009267
2304.4266,0.009501
2305.3585,0.009603
2306.2903,0.009456
2307.2221,0.009089
2308.1540,0.008656
2309.0858,0.008661
2310.0176,0.009356
2310.9495,0.009683
2311.8813,0.009310
2312.8131,0.008022
2313.7450,0.008106
2314.6768,0.009271
2315.6086,0.009554
2316.5405,0.009335
2317.4723,0.009061
2318.4041,0.009092
2319.3360,0.008838
2320.2678,0.008606
2321.1996,0.008481
2322.1315,0.008372
2323.0633,0.009216
2323.9951,0.009756
2324.9270,0.009479
2325.8588,0.009690
2326.7906,0.009542
2327.7225,0.009601
2328.6543,0.009723
2329.5861,0.009418
2330.5180,0.009043
2331.4498,0.009155
2332.3817,0.009580
2333.3135,0.009419
2334.2453,0.009089
2335.1772,0.009058
2336.1090,0.009081
2337.0408,0.008814
2337.9727,0.008221
2338.9045,0.007685
2339.8363,0.008343
2340.7682,0.009243
2341.7000,0.009123
2342.6318,0.009036
2343.5637,0.008251
2344.4955,0.007370
2345.4273,0.008282
2346.3592,0.008704
2347.2910,0.008571
2348.2228,0.008041
2349.1547,0.007379
2350.0865,0.007052
2351.0183,0.007580
2351.9502,0.008628
2352.8820,0.008290
2353.8138,0.007767
2354.7457,0.007694
2355.6775,0.007671
2356.6093,0.007662
2357.5412,0.006564
2358.4730,0.007484
2359.4049,0.008467
2360.3367,0.008789
2361.2685,0.008372
2362.2004,0.008427
2363.1322,0.007903
2364.0640,0.007115
2364.9959,0.007548
2365.9277,0.007979
2366.8595,0.007786
2367.7914,0.006804
2368.7232,0.006652
2369.6550,0.007024
2370.5869,0.007593
2371.5187,0.007799
2372.4505,0.007542
2373.3824,0.006696
2374.3142,0.006273
2375.2460,0.007336
2376.1779,0.007246
2377.1097,0.006683
2378.0415,0.006918
2378.9734,0.007064
2379.9052,0.007758
2380.8370,0.007811
2381.7689,0.006726
2382.7007,0.006161
2383.6325,0.006662
2384.5644,0.007181
2385.4962,0.007548
2386.4281,0.007079
2387.3599,0.006775
2388.2917,0.007079
2389.2236,0.007709
2390.1554,0.007847
2391.0872,0.007210
2392.0191,0.007393
2392.9509,0.007269
2393.8827,0.007215
2394.8146,0.007270
2395.7464,0.008315
2396.6782,0.008211
2397.6101,0.007002
2398.5419,0.006885
2399.4737,0.007079
2400.4056,0.007097
2401.3374,0.006055
2402.2692,0.005625
2403.2011,0.006962
2404.1329,0.006544
2405.0647,0.005945
2405.9966,0.005959
2406.9284,0.006263
2407.8602,0.006774
2408.7921,0.006958
2409.7239,0.006926
2410.6557,0.006775
2411.5876,0.006761
2412.5194,0.006408
2413.4512,0.005813
2414.3831,0.006268
2415.3149,0.006431
2416.2468,0.006432
2417.1786,0.006248
2418.1104,0.006124
2419.0423,0.006784
2419.9741,0.006738
2420.9059,0.005722
2421.8378,0.006137
2422.7696,0.007026
2423.7014,0.006460
2424.6333,0.005783
2425.5651,0.005922
2426.4969,0.006693
2427.4288,0.007690
2428.3606,0.007292
2429.2924,0.006381
2430.2243,0.006174
2431.1561,0.005897
2432.0879,0.005842
2433.0198,0.005872
2433.9516,0.005733
2434.8834,0.005767
2435.8153,0.005908
2436.7471,0.005707
2437.6789,0.005204
2438.6108,0.004957
2439.5426,0.005141
2440.4744,0.006016
2441.4063,0.005531
2442.3381,0.005415
2443.2700,0.005858
2444.2018,0.006273
2445.1336,0.006476
2446.0655,0.006374
2446.9973,0.005830
2447.9291,0.005518
2448.8610,0.005565
2449.7928,0.004882
2450.7246,0.004859
2451.6565,0.005593
2452.5883,0.005982
2453.5201,0.005613
2454.4520,0.005308
2455.3838,0.005295
2456.3156,0.005368
2457.2475,0.004689
2458.1793,0.004084
2459.1111,0.005361
2460.0430,0.006525
2460.9748,0.006247
2461.9066,0.005769
2462.8385,0.005859
2463.7703,0.005565
2464.7021,0.004590
2465.6340,0.004029
2466.5658,0.004909
2467.4976,0.005169
2468.4295,0.005229
2469.3613,0.005354
2470.2932,0.005314
2471.2250,0.005703
2472.1568,0.005852
2473.0887,0.005663
2474.0205,0.005277
2474.9523,0.005645
2475.8842,0.006046
2476.8160,0.005826
2477.7478,0.006236
2478.6797,0.006029
2479.6115,0.004877
2480.5433,0.003534
2481.4752,0.004360
2482.4070,0.005253
2483.3388,0.004888
2484.2707,0.005302
2485.2025,0.005938
2486.1343,0.004974
2487.0662,0.004302
2487.9980,0.004492
2488.9298,0.004990
2489.8617,0.005796
2490.7935,0.005721
2491.7253,0.006551
2492.6572,0.007404
2493.5890,0.006392
2494.5208,0.006093
2495.4527,0.005945
2496.3845,0.005330
2497.3164,0.004873
2498.2482,0.003994
2499.1800,0.004456
2500.1119,0.005479
2501.0437,0.005593
2501.9755,0.005988
2502.9074,0.005885
2503.8392,0.005814
2504.7710,0.005614
2505.7029,0.005487
2506.6347,0.006583
2507.5665,0.006502
2508.4984,0.005616
2509.4302,0.005041
2510.3620,0.005235
2511.2939,0.005405
2512.2257,0.005072
2513.1575,0.004942
2514.0894,0.005373
2515.0212,0.005768
2515.9530,0.005264
2516.8849,0.004539
2517.8167,0.004905
2518.7485,0.005770
2519.6804,0.005606
2520.6122,0.005270
2521.5440,0.004873
2522.4759,0.004880
2523.4077,0.004317
2524.3396,0.004097
2525.2714,0.005265
2526.2032,0.005310
2527.1351,0.004928
2528.0669,0.005113
2528.9987,0.004943
2529.9306,0.004986
2530.8624,0.005601
2531.7942,0.005082
2532.7261,0.004488
2533.6579,0.005087
2534.5897,0.005217
2535.5216,0.005460
2536.4534,0.005983
2537.3852,0.005232
2538.3171,0.004655
2539.2489,0.005097
2540.1807,0.005331
2541.1126,0.005314
2542.0444,0.004848
2542.9762,0.004538
2543.9081,0.004185
2544.8399,0.004040
2545.7717,0.004633
2546.7036,0.005308
2547.6354,0.005421
2548.5672,0.004744
2549.4991,0.004158
2550.4309,0.004809
2551.3627,0.005157
2552.2946,0.005132
2553.2264,0.004899
2554.1583,0.004287
2555.0901,0.004576
2556.0219,0.005271
2556.9538,0.004977
2557.8856,0.004277
2558.8174,0.005125
2559.7493,0.005930
2560.6811,0.004772
2561.6129,0.004357
2562.5448,0.005230
2563.4766,0.005607
2564.4084,0.005074
2565.3403,0.003669
2566.2721,0.004211
2567.2039,0.004804
2568.1358,0.004137
2569.0676,0.004435
2569.9994,0.004429
2570.9313,0.004213
2571.8631,0.004550
2572.7949,0.004737
2573.7268,0.004033
2574.6586,0.003972
2575.5904,0.004542
2576.5223,0.004847
2577.4541,0.006016
2578.3859,0.006539
2579.3178,0.005316
2580.2496,0.004704
2581.1815,0.004414
2582.1133,0.004779
2583.0451,0.005149
2583.9770,0.004852
2584.9088,0.004622
2585.8406,0.004457
2586.7725,0.005016
2587.7043,0.005059
2588.6361,0.004777
2589.5680,0.004701
2590.4998,0.005332
2591.4316,0.005825
2592.3635,0.005051
2593.2953,0.003756
2594.2271,0.003024
2595.1590,0.003742
2596.0908,0.004537
2597.0226,0.005144
2597.9545,0.005480
2598.8863,0.004825
2599.8181,0.004664
2600.7500,0.004743
2601.6818,0.004694
2602.6136,0.004602
2603.5455,0.004194
2604.4773,0.003812
2605.4091,0.004629
2606.3410,0.005217
2607.2728,0.004809
2608.2047,0.004948
2609.1365,0.004941
2610.0683,0.005069
2611.0002,0.004808
2611.9320,0.004188
2612.8638,0.004145
2613.7957,0.004516
2614.7275,0.005039
2615.6593,0.005330
2616.5912,0.004938
2617.5230,0.005040
2618.4548,0.005416
2619.3867,0.005241
2620.3185,0.004623
2621.2503,0.004096
2622.1822,0.004844
2623.1140,0.006116
2624.0458,0.006096
2624.9777,0.005368
2625.9095,0.005740
2626.8413,0.005929
2627.7732,0.005394
2628.7050,0.005574
2629.6368,0.005649
2630.5687,0.005475
2631.5005,0.005142
2632.4323,0.005311
2633.3642,0.005347
2634.2960,0.005343
2635.2279,0.005350
2636.1597,0.005214
2637.0915,0.005616
2638.0234,0.005305
2638.9552,0.005573
2639.8870,0.005980
2640.8189,0.006041
2641.7507,0.006556
2642.6825,0.006173
2643.6144,0.005574
2644.5462,0.005507
2645.4780,0.005258
2646.4099,0.005859
2647.3417,0.006158
2648.2735,0.005545
2649.2054,0.005257
2650.1372,0.005526
2651.0690,0.005896
2652.0009,0.005865
2652.9327,0.006214
2653.8645,0.006552
2654.7964,0.006207
2655.7282,0.006089
2656.6600,0.006549
2657.5919,0.006322
2658.5237,0.005760
2659.4555,0.006104
2660.3874,0.006717
2661.3192,0.006817
2662.2511,0.006686
2663.1829,0.006896
2664.1147,0.006880
2665.0466,0.006465
2665.9784,0.006563
2666.9102,0.006267
2667.8421,0.005549
2668.7739,0.005898
2669.7057,0.006581
2670.6376,0.006507
2671.5694,0.006641
2672.5012,0.007018
2673.4331,0.007194
2674.3649,0.007324
2675.2967,0.007211
2676.2286,0.006934
2677.1604,0.006607
2678.0922,0.006809
2679.0241,0.007119
2679.9559,0.007062
2680.8877,0.007055
2681.8196,0.007007
2682.7514,0.006917
2683.6832,0.007175
2684.6151,0.007401
2685.5469,0.007301
2686.4787,0.006755
2687.4106,0.007034
2688.3424,0.007432
2689.2742,0.007306
2690.2061,0.007412
2691.1379,0.007909
2692.0698,0.008036
2693.0016,0.007937
2693.9334,0.008185
2694.8653,0.008369
2695.7971,0.007791
2696.7289,0.007370
2697.6608,0.006899
2698.5926,0.007101
2699.5244,0.008429
2700.4563,0.008540
2701.3881,0.007816
2702.3199,0.007946
2703.2518,0.008099
2704.1836,0.008075
2705.1154,0.008270
2706.0473,0.008649
2706.9791,0.008732
2707.9109,0.008581
2708.8428,0.008653
2709.7746,0.008786
2710.7064,0.008996
2711.6383,0.009029
2712.5701,0.008756
2713.5019,0.008723
2714.4338,0.009166
2715.3656,0.009253
2716.2974,0.008987
2717.2293,0.009096
2718.1611,0.009095
2719.0930,0.008844
2720.0248,0.008982
2720.9566,0.009181
2721.8885,0.009564
2722.8203,0.009795
2723.7521,0.009215
2724.6840,0.009305
2725.6158,0.009680
2726.5476,0.009409
2727.4795,0.009564
2728.4113,0.009993
2729.3431,0.010158
2730.2750,0.009874
2731.2068,0.009756
2732.1386,0.009791
2733.0705,0.009908
2734.0023,0.010176
2734.9341,0.010006
2735.8660,0.009886
2736.7978,0.010109
2737.7296,0.009999
2738.6615,0.010480
2739.5933,0.011438
2740.5251,0.011503
2741.4570,0.010691
2742.3888,0.010272
2743.3206,0.010225
2744.2525,0.010406
2745.1843,0.010437
2746.1162,0.010075
2747.0480,0.010592
2747.9798,0.011264
2748.9117,0.010854
2749.8435,0.010672
2750.7753,0.011135
2751.7072,0.011052
2752.6390,0.010780
2753.5708,0.011124
2754.5027,0.011296
2755.4345,0.011372
2756.3663,0.011448
2757.2982,0.011306
2758.2300,0.011188
2759.1618,0.011055
2760.0937,0.010819
2761.0255,0.011024
2761.9573,0.011122
2762.8892,0.011298
2763.8210,0.011402
2764.7528,0.011336
2765.6847,0.011224
2766.6165,0.011273
2767.5483,0.011424
2768.4802,0.011547
2769.4120,0.011763
2770.3438,0.011756
2771.2757,0.011641
2772.2075,0.011649
2773.1394,0.011900
2774.0712,0.012039
2775.0030,0.011915
2775.9349,0.011775
2776.8667,0.011627
2777.7985,0.012062
2778.7304,0.012536
2779.6622,0.012357
2780.5940,0.012538
2781.5259,0.012837
2782.4577,0.012583
2783.3895,0.012411
2784.3214,0.012231
2785.2532,0.012265
2786.1850,0.012479
2787.1169,0.012427
2788.0487,0.012710
2788.9805,0.013460
2789.9124,0.013658
2790.8442,0.013294
2791.7760,0.013397
2792.7079,0.013497
2793.6397,0.013241
2794.5715,0.013401
2795.5034,0.013997
2796.4352,0.014243
2797.3670,0.014215
2798.2989,0.014585
2799.2307,0.014761
2800.1626,0.014841
2801.0944,0.015127
2802.0262,0.014883
2802.9581,0.014525
2803.8899,0.015097
2804.8217,0.015721
2805.7536,0.015677
2806.6854,0.015119
2807.6172,0.015015
2808.5491,0.015441
2809.4809,0.015718
2810.4127,0.016239
2811.3446,0.017174
2812.2764,0.017394
2813.2082,0.017170
2814.1401,0.017125
2815.0719,0.017122
2816.0037,0.017151
2816.9356,0.017570
2817.8674,0.017877
2818.7992,0.017767
2819.7311,0.018299
2820.6629,0.018820
2821.5947,0.018500
2822.5266,0.018176
2823.4584,0.018210
2824.3902,0.018311
2825.3221,0.019100
2826.2539,0.019578
2827.1857,0.019141
2828.1176,0.019128
2829.0494,0.019089
2829.9813,0.019070
2830.9131,0.019615
2831.8449,0.019536
2832.7768,0.019688
2833.7086,0.020632
2834.6404,0.020983
2835.5723,0.020579
2836.5041,0.020484
2837.4359,0.020620
2838.3678,0.020676
2839.2996,0.021538
2840.2314,0.022215
2841.1633,0.022117
2842.0951,0.022236
2843.0269,0.022351
2843.9588,0.022443
2844.8906,0.023032
2845.8224,0.023825
2846.7543,0.023541
2847.6861,0.022671
2848.6179,0.022685
2849.5498,0.023238
2850.4816,0.023776
2851.4134,0.023850
2852.3453,0.023956
2853.2771,0.024024
2854.2089,0.024335
2855.1408,0.025019
2856.0726,0.025425
2857.0045,0.025813
2857.9363,0.026116
2858.8681,0.026003
2859.8000,0.026210
2860.7318,0.027048
2861.6636,0.027300
2862.5955,0.026808
2863.5273,0.027028
2864.4591,0.027579
2865.3910,0.028112
2866.3228,0.029006
2867.2546,0.029773
2868.1865,0.029859
2869.1183,0.029922
2870.0501,0.030740
2870.9820,0.031262
2871.9138,0.031269
2872.8456,0.031835
2873.7775,0.032634
2874.7093,0.033437
2875.6411,0.034580
2876.5730,0.035051
2877.5048,0.035290
2878.4366,0.036218
2879.3685,0.036901
2880.3003,0.037232
2881.2321,0.037545
2882.1640,0.037179
2883.0958,0.036970
2884.0277,0.037779
2884.9595,0.038650
2885.8913,0.038700
2886.8232,0.038874
2887.7550,0.039900
2888.6868,0.040713
2889.6187,0.040935
2890.5505,0.041348
2891.4823,0.041932
2892.4142,0.041742
2893.3460,0.041639
2894.2778,0.042293
2895.2097,0.042885
2896.1415,0.043480
2897.0733,0.044352
2898.0052,0.044867
2898.9370,0.044782
2899.8688,0.044383
2900.8007,0.044454
2901.7325,0.044984
2902.6643,0.045732
2903.5962,0.046341
2904.5280,0.046390
2905.4598,0.046120
2906.3917,0.046021
2907.3235,0.045796
2908.2553,0.045304
2909.1872,0.045314
2910.1190,0.045437
2911.0509,0.044847
2911.9827,0.043990
2912.9145,0.044159
2913.8464,0.044554
2914.7782,0.044128
2915.7100,0.043417
2916.6419,0.042778
2917.5737,0.042788
2918.5055,0.043290
2919.4374,0.042977
2920.3692,0.042786
2921.3010,0.043070
2922.2329,0.043223
2923.1647,0.043415
2924.0965,0.043564
2925.0284,0.043755
2925.9602,0.044041
2926.8920,0.044291
2927.8239,0.044793
2928.7557,0.045572
2929.6875,0.045923
2930.6194,0.045936
2931.5512,0.046321
2932.4830,0.047038
2933.4149,0.046989
2934.3467,0.046625
2935.2785,0.046553
2936.2104,0.046791
2937.1422,0.046600
2938.0741,0.045897
2939.0059,0.046137
2939.9377,0.047204
2940.8696,0.047372
2941.8014,0.046602
2942.7332,0.046875
2943.6651,0.048131
2944.5969,0.048417
2945.5287,0.047755
2946.4606,0.047864
2947.3924,0.048193
2948.3242,0.048185
2949.2561,0.048847
2950.1879,0.049471
2951.1197,0.048593
2952.0516,0.047614
2952.9834,0.048358
2953.9152,0.049148
2954.8471,0.049623
2955.7789,0.050248
2956.7107,0.050526
2957.6426,0.050248
2958.5744,0.050122
2959.5062,0.050963
2960.4381,0.052122
2961.3699,0.052761
2962.3017,0.053271
2963.2336,0.054505
2964.1654,0.056370
2965.0972,0.058412
2966.0291,0.059988
2966.9609,0.061388
2967.8928,0.062963
2968.8246,0.064470
2969.7564,0.066243
2970.6883,0.068689
2971.6201,0.071187
2972.5519,0.074203
2973.4838,0.077375
2974.4156,0.079252
2975.3474,0.080582
2976.2793,0.082377
2977.2111,0.083730
2978.1429,0.085346
2979.0748,0.087298
2980.0066,0.088649
2980.9384,0.089485
2981.8703,0.088984
2982.8021,0.087886
2983.7339,0.087219
2984.6658,0.086219
2985.5976,0.084546
2986.5294,0.082736
2987.4613,0.081336
2988.3931,0.079287
2989.3249,0.075850
2990.2568,0.073135
2991.1886,0.071711
2992.1204,0.069851
2993.0523,0.067384
2993.9841,0.065475
2994.9160,0.064219
2995.8478,0.063619
2996.7796,0.062782
2997.7115,0.061213
2998.6433,0.060628
2999.5751,0.060150
3000.5070,0.059302
3001.4388,0.058840
3002.3706,0.058587
3003.3025,0.058278
3004.2343,0.057414
3005.1661,0.056653
3006.0980,0.057389
3007.0298,0.058088
3007.9616,0.058273
3008.8935,0.058205
3009.8253,0.057553
3010.7571,0.057888
3011.6890,0.058406
3012.6208,0.058414
3013.5526,0.058906
3014.4845,0.059376
3015.4163,0.059736
3016.3481,0.059513
3017.2800,0.059627
3018.2118,0.060638
3019.1436,0.060821
3020.0755,0.060665
3021.0073,0.061543
3021.9392,0.062376
3022.8710,0.062458
3023.8028,0.062897
3024.7347,0.063139
3025.6665,0.062974
3026.5983,0.063476
3027.5302,0.064439
3028.4620,0.064803
3029.3938,0.064977
3030.3257,0.065826
3031.2575,0.066313
3032.1893,0.066725
3033.1212,0.067773
3034.0530,0.068823
3034.9848,0.069443
3035.9167,0.069974
3036.8485,0.069855
3037.7803,0.069122
3038.7122,0.069237
3039.6440,0.070235
3040.5758,0.071499
3041.5077,0.072633
3042.4395,0.073034
3043.3713,0.073149
3044.3032,0.073552
3045.2350,0.074860
3046.1668,0.076175
3047.0987,0.076487
3048.0305,0.077025
3048.9624,0.077956
3049.8942,0.078729
3050.8260,0.079229
3051.7579,0.079825
3052.6897,0.081025
3053.6215,0.081882
3054.5534,0.082251
3055.4852,0.082579
3056.4170,0.083163
3057.3489,0.084056
3058.2807,0.084754
3059.2125,0.085403
3060.1444,0.086132
3061.0762,0.087050
3062.0080,0.087817
3062.9399,0.088214
3063.8717,0.088730
3064.8035,0.089386
3065.7354,0.090801
3066.6672,0.092136
3067.5990,0.093005
3068.5309,0.092962
3069.4627,0.093560
3070.3945,0.094732
3071.3264,0.094788
3072.2582,0.095465
3073.1900,0.096844
3074.1219,0.097686
3075.0537,0.098482
3075.9856,0.099486
3076.9174,0.099615
3077.8492,0.100020
3078.7811,0.101880
3079.7129,0.103674
3080.6447,0.104274
3081.5766,0.104447
3082.5084,0.105272
3083.4402,0.106148
3084.3721,0.107400
3085.3039,0.109327
3086.2357,0.110594
3087.1676,0.110933
3088.0994,0.111743
3089.0312,0.113371
3089.9631,0.114438
3090.8949,0.114629
3091.8267,0.115495
3092.7586,0.116757
3093.6904,0.117591
3094.6222,0.117958
3095.5541,0.118773
3096.4859,0.119485
3097.4177,0.121008
3098.3496,0.123247
3099.2814,0.124539
3100.2132,0.124891
3101.1451,0.125250
3102.0769,0.126837
3103.0087,0.127983
3103.9406,0.127522
3104.8724,0.129040
3105.8043,0.131505
3106.7361,0.132762
3107.6679,0.133312
3108.5998,0.134012
3109.5316,0.135320
3110.4634,0.135690
3111.3953,0.135528
3112.3271,0.137051
3113.2589,0.139501
3114.1908,0.141146
3115.1226,0.141800
3116.0544,0.142986
3116.9863,0.144624
3117.9181,0.145293
3118.8499,0.145873
3119.7818,0.147067
3120.7136,0.147891
3121.6454,0.148998
3122.5773,0.149960
3123.5091,0.150831
3124.4409,0.153115
3125.3728,0.155896
3126.3046,0.156481
3127.2364,0.156848
3128.1683,0.157746
3129.1001,0.158420
3130.0319,0.159917
3130.9638,0.162064
3131.8956,0.163123
3132.8275,0.163754
3133.7593,0.164838
3134.6911,0.165982
3135.6230,0.166864
3136.5548,0.167971
3137.4866,0.170283
3138.4185,0.172419
3139.3503,0.172965
3140.2821,0.173843
3141.2140,0.174889
3142.1458,0.176599
3143.0776,0.177658
3144.0095,0.178560
3144.9413,0.179993
3145.8731,0.181261
3146.8050,0.182422
3147.7368,0.183643
3148.6686,0.184368
3149.6005,0.187137
3150.5323,0.190082
3151.4641,0.190742
3152.3960,0.190733
3153.3278,0.191976
3154.2596,0.193574
3155.1915,0.194388
3156.1233,0.194460
3157.0551,0.196464
3157.9870,0.198368
3158.9188,0.199063
3159.8507,0.199394
3160.7825,0.200403
3161.7143,0.202147
3162.6462,0.205190
3163.5780,0.207189
3164.5098,0.207435
3165.4417,0.208623
3166.3735,0.211111
3167.3053,0.212949
3168.2372,0.213558
3169.1690,0.214405
3170.1008,0.215325
3171.0327,0.215358
3171.9645,0.217145
3172.8963,0.219471
3173.8282,0.220921
3174.7600,0.221802
3175.6918,0.223921
3176.6237,0.224781
3177.5555,0.225137
3178.4873,0.226804
3179.4192,0.228987
3180.3510,0.230993
3181.2828,0.232790
3182.2147,0.231835
3183.1465,0.232027
3184.0783,0.235072
3185.0102,0.236858
3185.9420,0.236126
3186.8739,0.236832
3187.8057,0.238784
3188.7375,0.240394
3189.6694,0.240753
3190.6012,0.241881
3191.5330,0.242866
3192.4649,0.244355
3193.3967,0.245712
3194.3285,0.246917
3195.2604,0.247452
3196.1922,0.248893
3197.1240,0.250532
3198.0559,0.253026
3198.9877,0.253967
3199.9195,0.255808
3200.8514,0.256539
3201.7832,0.255907
3202.7150,0.256812
3203.6469,0.259331
3204.5787,0.260299
3205.5105,0.261391
3206.4424,0.261012
3207.3742,0.260253
3208.3060,0.261187
3209.2379,0.263251
3210.1697,0.265799
3211.1015,0.269207
3212.0334,0.270302
3212.9652,0.270836
3213.8971,0.271427
3214.8289,0.272074
3215.7607,0.271471
3216.6926,0.271769
3217.6244,0.271570
3218.5562,0.272973
3219.4881,0.275135
3220.4199,0.275748
3221.3517,0.274959
3222.2836,0.275039
3223.2154,0.276387
3224.1472,0.277944
3225.0791,0.278629
3226.0109,0.279825
3226.9427,0.279568
3227.8746,0.280014
3228.8064,0.281414
3229.7382,0.283562
3230.6701,0.284764
3231.6019,0.284953
3232.5337,0.284980
3233.4656,0.285104
3234.3974,0.284773
3235.3292,0.284642
3236.2611,0.285206
3237.1929,0.286336
3238.1247,0.286352
3239.0566,0.284920
3239.9884,0.283672
3240.9202,0.284719
3241.8521,0.286710
3242.7839,0.288938
3243.7158,0.288436
3244.6476,0.288582
3245.5794,0.290295
3246.5113,0.290341
3247.4431,0.290638
3248.3749,0.292468
3249.3068,0.293086
3250.2386,0.292731
3251.1704,0.291924
3252.1023,0.292403
3253.0341,0.292886
3253.9659,0.292422
3254.8978,0.291796
3255.8296,0.293603
3256.7614,0.295355
3257.6933,0.295234
3258.6251,0.292822
3259.5569,0.293701
3260.4888,0.293755
3261.4206,0.293665
3262.3524,0.294365
3263.2843,0.294982
3264.2161,0.293463
3265.1479,0.293494
3266.0798,0.294694
3267.0116,0.296141
3267.9434,0.294643
3268.8753,0.293169
3269.8071,0.293128
3270.7390,0.293927
3271.6708,0.295879
3272.6026,0.297068
3273.5345,0.295905
3274.4663,0.295093
3275.3981,0.295428
3276.3300,0.296837
3277.2618,0.298659
3278.1936,0.297987
3279.1255,0.294360
3280.0573,0.293939
3280.9891,0.295380
3281.9210,0.298727
3282.8528,0.299653
3283.7846,0.297791
3284.7165,0.296669
3285.6483,0.298400
3286.5801,0.300223
3287.5120,0.300476
3288.4438,0.297346
3289.3756,0.296824
3290.3075,0.297164
3291.2393,0.296981
3292.1711,0.297487
3293.1030,0.300411
3294.0348,0.301910
3294.9666,0.299984
3295.8985,0.298475
3296.8303,0.298557
3297.7622,0.297622
3298.6940,0.298227
3299.6258,0.298379
3300.5577,0.299336
3301.4895,0.298074
3302.4213,0.298541
3303.3532,0.298720
3304.2850,0.299974
3305.2168,0.301466
3306.1487,0.301366
3307.0805,0.298110
3308.0123,0.299159
3308.9442,0.300189
3309.8760,0.299648
3310.8078,0.297457
3311.7397,0.298756
3312.6715,0.300736
3313.6033,0.300604
3314.5352,0.299337
3315.4670,0.299976
3316.3988,0.299709
3317.3307,0.299963
3318.2625,0.299938
3319.1943,0.301366
3320.1262,0.301119
3321.0580,0.302176
3321.9898,0.300451
3322.9217,0.298576
3323.8535,0.299447
3324.7854,0.302022
3325.7172,0.300167
3326.6490,0.299595
3327.5809,0.299668
3328.5127,0.300346
3329.4445,0.302045
3330.3764,0.302815
3331.3082,0.300405
3332.2400,0.301654
3333.1719,0.304146
3334.1037,0.304081
3335.0355,0.301667
3335.9674,0.301210
3336.8992,0.301870
3337.8310,0.303970
3338.7629,0.303250
3339.6947,0.300007
3340.6265,0.298800
3341.5584,0.300931
3342.4902,0.299293
3343.4220,0.298407
3344.3539,0.299342
3345.2857,0.301276
3346.2175,0.300246
3347.1494,0.301685
3348.0812,0.302473
3349.0130,0.302490
3349.9449,0.300483
3350.8767,0.300034
3351.8086,0.300413
3352.7404,0.302126
3353.6722,0.302250
3354.6041,0.301305
3355.5359,0.300031
3356.4677,0.300732
3357.3996,0.302112
3358.3314,0.304004
3359.2632,0.303677
3360.1951,0.304748
3361.1269,0.303043
3362.0587,0.301220
3362.9906,0.301317
3363.9224,0.301283
3364.8542,0.298879
3365.7861,0.300060
3366.7179,0.300198
3367.6497,0.301003
3368.5816,0.296534
3369.5134,0.294139
3370.4452,0.298640
3371.3771,0.300910
3372.3089,0.296940
3373.2407,0.295518
3374.1726,0.294846
3375.1044,0.295718
3376.0362,0.295545
3376.9681,0.295374
3377.8999,0.295555
3378.8317,0.294298
3379.7636,0.292824
3380.6954,0.295131
3381.6273,0.294940
3382.5591,0.293271
3383.4909,0.291877
3384.4228,0.290254
3385.3546,0.290819
3386.2864,0.291329
3387.2183,0.288447
3388.1501,0.289832
3389.0819,0.288691
3390.0138,0.288078
3390.9456,0.291363
3391.8774,0.291766
3392.8093,0.290009
3393.7411,0.290367
3394.6729,0.287892
3395.6048,0.288267
3396.5366,0.288354
3397.4684,0.284537
3398.4003,0.280788
3399.3321,0.280765
3400.2639,0.282078
3401.1958,0.281255
3402.1276,0.279268
3403.0594,0.279933
3403.9913,0.279270
3404.9231,0.279860
3405.8549,0.277647
3406.7868,0.276324
3407.7186,0.275022
3408.6505,0.273835
3409.5823,0.273065
3410.5141,0.273038
3411.4460,0.271390
3412.3778,0.269917
3413.3096,0.269010
3414.2415,0.267583
3415.1733,0.267124
3416.1051,0.267400
3417.0370,0.265848
3417.9688,0.264588
3418.9006,0.263393
3419.8325,0.266539
3420.7643,0.265102
3421.6961,0.261102
3422.6280,0.261770
3423.5598,0.263544
3424.4916,0.262343
3425.4235,0.262450
3426.3553,0.257331
3427.2871,0.256331
3428.2190,0.256967
3429.1508,0.256810
3430.0826,0.258415
3431.0145,0.257530
3431.9463,0.253054
3432.8781,0.253151
3433.8100,0.253638
3434.7418,0.251257
3435.6737,0.249000
3436.6055,0.247630
3437.5373,0.244583
3438.4692,0.243483
3439.4010,0.241154
3440.3328,0.239809
3441.2647,0.237213
3442.1965,0.236637
3443.1283,0.236943
3444.0602,0.239837
3444.9920,0.240435
3445.9238,0.238041
3446.8557,0.236887
3447.7875,0.237754
3448.7193,0.236164
3449.6512,0.234394
3450.5830,0.233980
3451.5148,0.232612
3452.4467,0.231300
3453.3785,0.229477
3454.3103,0.226043
3455.2422,0.223760
3456.1740,0.223296
3457.1058,0.224939
3458.0377,0.224175
3458.9695,0.221317
3459.9013,0.219519
3460.8332,0.218212
3461.7650,0.217183
3462.6969,0.219761
3463.6287,0.217717
3464.5605,0.216008
3465.4924,0.215808
3466.4242,0.217304
3467.3560,0.216180
3468.2879,0.214896
3469.2197,0.212090
3470.1515,0.210882
3471.0834,0.209305
3472.0152,0.205754
3472.9470,0.203390
3473.8789,0.205068
3474.8107,0.204324
3475.7425,0.203763
3476.6744,0.203886
3477.6062,0.203122
3478.5380,0.200935
3479.4699,0.202948
3480.4017,0.199530
3481.3335,0.198110
3482.2654,0.196149
3483.1972,0.192563
3484.1290,0.189618
3485.0609,0.189677
3485.9927,0.190026
3486.9245,0.189318
3487.8564,0.187908
3488.7882,0.185723
3489.7201,0.183985
3490.6519,0.184970
3491.5837,0.182648
3492.5156,0.181549
3493.4474,0.183926
3494.3792,0.183121
3495.3111,0.181266
3496.2429,0.180495
3497.1747,0.179436
3498.1066,0.177981
3499.0384,0.175476
3499.9702,0.174138
3500.9021,0.172062
3501.8339,0.170879
3502.7657,0.170832
3503.6976,0.171415
3504.6294,0.175059
3505.5612,0.174859
3506.4931,0.168378
3507.4249,0.169919
3508.3567,0.170374
3509.2886,0.165980
3510.2204,0.165955
3511.1522,0.168200
3512.0841,0.164565
3513.0159,0.160234
3513.9477,0.159170
3514.8796,0.159398
3515.8114,0.159799
3516.7432,0.157250
3517.6751,0.153417
3518.6069,0.155759
3519.5388,0.155843
3520.4706,0.154091
3521.4024,0.154081
3522.3343,0.153630
3523.2661,0.149607
3524.1979,0.148677
3525.1298,0.149058
3526.0616,0.151153
3526.9934,0.149906
3527.9253,0.146617
3528.8571,0.144887
3529.7889,0.141850
3530.7208,0.141001
3531.6526,0.141997
3532.5844,0.143102
3533.5163,0.143817
3534.4481,0.140415
3535.3799,0.138277
3536.3118,0.135228
3537.2436,0.132260
3538.1754,0.133202
3539.1073,0.136621
3540.0391,0.135416
3540.9709,0.134434
3541.9028,0.132696
3542.8346,0.131684
3543.7664,0.131200
3544.6983,0.130418
3545.6301,0.130622
3546.5620,0.130884
3547.4938,0.126555
3548.4256,0.123211
3549.3575,0.122789
3550.2893,0.123198
3551.2211,0.122138
3552.1530,0.120439
3553.0848,0.118475
3554.0166,0.120434
3554.9485,0.120035
3555.8803,0.116454
3556.8121,0.114612
3557.7440,0.115055
3558.6758,0.113166
3559.6076,0.113682
3560.5395,0.112993
3561.4713,0.112280
3562.4031,0.113357
3563.3350,0.111337
3564.2668,0.109185
3565.1986,0.109416
3566.1305,0.108810
3567.0623,0.108310
3567.9941,0.107282
3568.9260,0.106768
3569.8578,0.107082
3570.7896,0.106340
3571.7215,0.105619
3572.6533,0.102087
3573.5852,0.098492
3574.5170,0.098337
3575.4488,0.097198
3576.3807,0.097292
3577.3125,0.096703
3578.2443,0.094782
3579.1762,0.094877
3580.1080,0.096281
3581.0398,0.094069
3581.9717,0.092641
3582.9035,0.093553
3583.8353,0.093064
3584.7672,0.090724
3585.6990,0.089262
3586.6308,0.086692
3587.5627,0.086424
3588.4945,0.086099
3589.4263,0.085118
3590.3582,0.085835
3591.2900,0.083995
3592.2218,0.081030
3593.1537,0.079700
3594.0855,0.080241
3595.0173,0.081422
3595.9492,0.079440
3596.8810,0.076912
3597.8128,0.076902
3598.7447,0.079163
3599.6765,0.079815
3600.6084,0.077298
3601.5402,0.074720
3602.4720,0.076425
3603.4039,0.074761
3604.3357,0.071739
3605.2675,0.071523
3606.1994,0.073383
3607.1312,0.073324
3608.0630,0.072514
3608.9949,0.073159
3609.9267,0.071110
3610.8585,0.069204
3611.7904,0.068038
3612.7222,0.065830
3613.6540,0.065229
3614.5859,0.068185
3615.5177,0.069156
3616.4495,0.068457
3617.3814,0.065808
3618.3132,0.062355
3619.2450,0.061604
3620.1769,0.061733
3621.1087,0.062733
3622.0405,0.062023
3622.9724,0.060185
3623.9042,0.059323
3624.8360,0.057908
3625.7679,0.056000
3626.6997,0.056243
3627.6316,0.055453
3628.5634,0.055538
3629.4952,0.055531
3630.4271,0.053382
3631.3589,0.052362
3632.2907,0.054190
3633.2226,0.055530
3634.1544,0.055412
3635.0862,0.053932
3636.0181,0.053274
3636.9499,0.050672
3637.8817,0.048699
3638.8136,0.049067
3639.7454,0.049237
3640.6772,0.047844
3641.6091,0.045971
3642.5409,0.046023
3643.4727,0.045831
3644.4046,0.044523
3645.3364,0.044196
3646.2682,0.043997
3647.2001,0.043414
3648.1319,0.042482
3649.0637,0.042608
3649.9956,0.042668
3650.9274,0.043456
3651.8592,0.040228
3652.7911,0.035630
3653.7229,0.034513
3654.6547,0.035629
3655.5866,0.035050
3656.5184,0.033674
3657.4503,0.032618
3658.3821,0.033400
3659.3139,0.034349
3660.2458,0.033091
3661.1776,0.031441
3662.1094,0.031973
3663.0413,0.031150
3663.9731,0.029982
3664.9049,0.028494
3665.8368,0.027912
3666.7686,0.028529
3667.7004,0.028737
3668.6323,0.027707
3669.5641,0.026838
3670.4959,0.024488
3671.4278,0.020123
3672.3596,0.020341
3673.2914,0.024461
3674.2233,0.024617
3675.1551,0.022052
3676.0869,0.021620
3677.0188,0.022032
3677.9506,0.019049
3678.8824,0.016065
3679.8143,0.016536
3680.7461,0.017255
3681.6779,0.016801
3682.6098,0.016523
3683.5416,0.016951
3684.4735,0.015945
3685.4053,0.013999
3686.3371,0.013450
3687.2690,0.014605
3688.2008,0.015674
3689.1326,0.014899
3690.0645,0.013524
3690.9963,0.011966
3691.9281,0.010774
3692.8600,0.010198
3693.7918,0.009793
3694.7236,0.009935
3695.6555,0.010549
3696.5873,0.010620
3697.5191,0.009999
3698.4510,0.009342
3699.3828,0.009321
3700.3146,0.008604
3701.2465,0.008571
3702.1783,0.009473
3703.1101,0.009734
3704.0420,0.008923
3704.9738,0.007752
3705.9056,0.006758
3706.8375,0.006888
3707.7693,0.007216
3708.7011,0.006484
3709.6330,0.005160
3710.5648,0.003581
3711.4967,0.003555
3712.4285,0.004495
3713.3603,0.004730
3714.2922,0.002733
3715.2240,0.002285
3716.1558,0.005239
3717.0877,0.006407
3718.0195,0.005079
3718.9513,0.003834
3719.8832,0.002515
3720.8150,0.002349
3721.7468,0.003783
3722.6787,0.004644
3723.6105,0.004307
3724.5423,0.003215
3725.4742,0.002538
3726.4060,0.004168
3727.3378,0.004162
3728.2697,0.003146
3729.2015,0.001320
3730.1333,0.000981
3731.0652,0.001645
3731.9970,0.001745
3732.9288,0.003312
3733.8607,0.003978
3734.7925,0.002907
3735.7243,0.001808
3736.6562,0.000156
3737.5880,-0.000216
3738.5199,0.000070
3739.4517,0.001663
3740.3835,0.001799
3741.3154,0.000625
3742.2472,0.000342
3743.1790,0.002256
3744.1109,0.002135
3745.0427,0.000686
3745.9745,0.000135
3746.9064,-0.000934
3747.8382,-0.002669
3748.7700,-0.000737
3749.7019,0.002256
3750.6337,0.002211
3751.5655,0.000408
3752.4974,-0.000737
3753.4292,-0.000093
3754.3610,0.000052
3755.2929,-0.000211
3756.2247,0.001429
3757.1565,0.001538
3758.0884,0.000554
3759.0202,-0.000020
3759.9520,0.000054
3760.8839,0.001755
3761.8157,0.003117
3762.7475,0.003880
3763.6794,0.003446
3764.6112,0.002505
3765.5431,0.001595
3766.4749,0.000353
3767.4067,0.001491
3768.3386,0.002057
3769.2704,0.001625
3770.2022,0.002275
3771.1341,0.002295
3772.0659,0.002183
3772.9977,0.002425
3773.9296,0.002186
3774.8614,0.002621
3775.7932,0.002622
3776.7251,0.001295
3777.6569,0.001520
3778.5887,0.002236
3779.5206,0.002249
3780.4524,0.001557
3781.3842,0.001196
3782.3161,0.001224
3783.2479,0.001768
3784.1797,0.001537
3785.1116,0.001050
3786.0434,0.001091
3786.9752,0.001780
3787.9071,0.002477
3788.8389,0.002465
3789.7707,0.001779
3790.7026,0.001767
3791.6344,0.002345
3792.5662,0.001795
3793.4981,0.001521
3794.4299,0.001727
3795.3618,0.002042
3796.2936,0.001331
3797.2254,0.000681
3798.1573,0.001041
3799.0891,0.000813
3800.0209,0.001112
3800.9528,0.000280
3801.8846,0.000143
3802.8164,0.001641
3803.7483,0.001330
3804.6801,0.001043
3805.6119,0.002084
3806.5438,0.001570
3807.4756,0.000776
3808.4074,-0.000246
3809.3393,-0.000955
3810.2711,-0.000536
3811.2029,0.000323
3812.1348,0.001218
3813.0666,0.002429
3813.9984,0.001796
3814.9303,0.000316
3815.8621,0.000355
3816.7939,0.001522
3817.7258,0.001642
3818.6576,0.000459
3819.5894,-0.000500
3820.5213,-0.000344
3821.4531,0.001289
3822.3850,0.000399
3823.3168,-0.001573
3824.2486,-0.001453
3825.1805,-0.001278
3826.1123,-0.000874
3827.0441,0.000815
3827.9760,0.002224
3828.9078,0.001484
3829.8396,0.000842
3830.7715,0.000860
3831.7033,0.001258
3832.6351,0.002618
3833.5670,0.001822
3834.4988,0.000446
3835.4306,0.000951
3836.3625,0.001166
3837.2943,0.000568
3838.2261,-0.000805
3839.1580,-0.000260
3840.0898,-0.000326
3841.0216,0.000516
3841.9535,0.001730
3842.8853,0.000812
3843.8171,-0.000612
3844.7490,-0.000340
3845.6808,0.000035
3846.6126,0.000347
3847.5445,0.000744
3848.4763,0.001346
3849.4082,0.001173
3850.3400,0.001210
3851.2718,0.002027
3852.2037,0.000342
3853.1355,-0.001314
3854.0673,-0.001407
3854.9992,-0.000915
3855.9310,0.000311
3856.8628,0.000242
3857.7947,-0.000806
3858.7265,-0.001345
3859.6583,-0.000774
3860.5902,0.000575
3861.5220,0.000961
3862.4538,0.000337
3863.3857,0.000663
3864.3175,0.001818
3865.2493,0.001851
3866.1812,0.001729
3867.1130,0.000877
3868.0448,0.000700
3868.9767,0.001371
3869.9085,0.000898
3870.8403,0.000337
3871.7722,0.000946
3872.7040,0.002262
3873.6358,0.001385
3874.5677,-0.000806
3875.4995,-0.000969
3876.4314,-0.000798
3877.3632,-0.000554
3878.2950,0.000076
3879.2269,0.000831
3880.1587,0.000668
3881.0905,0.000101
3882.0224,0.000107
3882.9542,-0.000407
3883.8860,0.000116
3884.8179,0.001324
3885.7497,0.001436
3886.6815,0.000865
3887.6134,0.000842
3888.5452,0.001352
3889.4770,0.001657
3890.4089,0.002219
3891.3407,0.002435
3892.2725,0.001406
3893.2044,-0.000111
3894.1362,-0.000541
3895.0680,-0.000602
3895.9999,0.000122
3896.9317,0.000590
3897.8635,0.000027
3898.7954,0.000383
3899.7272,0.000979
3900.6590,0.000986
3901.5909,0.000679
3902.5227,0.000192
3903.4546,-0.000037
3904.3864,-0.000309
3905.3182,0.000402
3906.2501,0.000645
3907.1819,0.000323
3908.1137,0.000682
3909.0456,0.001442
3909.9774,0.002199
3910.9092,0.001705
3911.8411,0.000850
3912.7729,0.000674
3913.7047,0.000754
3914.6366,0.001002
3915.5684,0.001043
3916.5002,0.001200
3917.4321,0.001409
3918.3639,0.001110
3919.2957,0.001344
3920.2276,0.001627
3921.1594,0.001747
3922.0912,0.002214
3923.0231,0.001884
3923.9549,0.001375
3924.8867,0.002034
3925.8186,0.002061
3926.7504,0.000621
3927.6822,0.000003
3928.6141,0.001083
3929.5459,0.002000
3930.4777,0.001950
3931.4096,0.002051
3932.3414,0.002346
3933.2733,0.001464
3934.2051,0.000177
3935.1369,-0.000402
3936.0688,0.000622
3937.0006,0.001811
3937.9324,0.001745
3938.8643,0.001254
3939.7961,0.001089
3940.7279,0.000342
3941.6598,0.000087
3942.5916,0.000450
3943.5234,0.000370
3944.4553,0.000377
3945.3871,0.000781
3946.3189,0.001658
3947.2508,0.001499
3948.1826,0.000597
3949.1144,0.000108
3950.0463,-0.000393
3950.9781,-0.000223
3951.9099,-0.000297
3952.8418,0.000441
3953.7736,0.001414
3954.7054,0.000764
3955.6373,0.000212
3956.5691,0.000401
3957.5009,0.000819
3958.4328,0.001046
3959.3646,0.001199
3960.2965,0.001077
3961.2283,0.000763
3962.1601,0.000252
3963.0920,0.001147
3964.0238,0.002415
3964.9556,0.001718
3965.8875,0.001246
3966.8193,0.001796
3967.7511,0.001912
3968.6830,0.002092
3969.6148,0.001895
3970.5466,0.001073
3971.4785,0.001204
3972.4103,0.000692
3973.3421,-0.000264
3974.2740,0.000159
3975.2058,0.000601
3976.1376,0.000970
3977.0695,0.002649
3978.0013,0.002777
3978.9331,0.001188
3979.8650,0.001436
3980.7968,0.002447
3981.7286,0.001948
3982.6605,0.001707
3983.5923,0.001753
3984.5241,0.001510
3985.4560,0.002084
3986.3878,0.001882
3987.3197,0.001530
3988.2515,0.001756
3989.1833,0.001303
3990.1152,0.001101
3991.0470,0.001163
3991.9788,0.001128
3992.9107,0.001813
3993.8425,0.002079
3994.7743,0.000837
3995.7062,0.000963
3996.6380,0.001254
3997.5698,0.000370
3998.5017,-0.000031
3999.4335,0.000370
4000.3653,0.000719
