Wavenumber,Intensity
650.4205,0.399190
651.3523,0.398268
652.2841,0.388871
653.2160,0.387457
654.1478,0.399865
655.0796,0.400134
656.0115,0.393349
656.9433,0.390493
657.8751,0.386559
658.8070,0.385830
659.7388,0.386695
660.6706,0.389877
661.6025,0.382995
662.5343,0.381325
663.4661,0.381583
664.3980,0.384178
665.3298,0.373396
666.2616,0.365747
667.1935,0.367170
668.1253,0.381826
669.0571,0.388127
669.9890,0.386140
670.9208,0.380885
671.8526,0.373022
672.7845,0.368293
673.7163,0.368451
674.6481,0.363952
675.5800,0.360950
676.5118,0.373204
677.4437,0.374527
678.3755,0.359112
679.3073,0.354961
680.2392,0.355901
681.1710,0.357813
682.1028,0.356530
683.0347,0.355123
683.9665,0.354390
684.8983,0.357392
685.8302,0.354657
686.7620,0.350004
687.6938,0.347034
688.6257,0.346747
689.5575,0.349684
690.4893,0.348869
691.4212,0.339629
692.3530,0.340581
693.2848,0.345532
694.2167,0.345716
695.1485,0.344229
696.0803,0.341479
697.0122,0.336805
697.9440,0.331581
698.8758,0.328229
699.8077,0.330203
700.7395,0.329448
701.6713,0.331665
702.6032,0.334630
703.5350,0.331265
704.4669,0.327637
705.3987,0.329809
706.3305,0.328840
707.2624,0.323439
708.1942,0.320745
709.1260,0.321211
710.0579,0.321583
710.9897,0.318803
711.9215,0.311685
712.8534,0.311745
713.7852,0.312440
714.7170,0.310858
715.6489,0.309734
716.5807,0.308162
717.5125,0.305104
718.4444,0.304033
719.3762,0.305280
720.3080,0.306385
721.2399,0.302666
722.1717,0.301951
723.1035,0.298558
724.0354,0.296272
724.9672,0.298917
725.8990,0.298017
726.8309,0.294704
727.7627,0.295030
728.6945,0.294053
729.6264,0.293150
730.5582,0.289097
731.4901,0.287318
732.4219,0.288375
733.3537,0.287687
734.2856,0.284276
735.2174,0.282681
736.1492,0.281732
737.0811,0.278402
738.0129,0.277065
738.9447,0.279184
739.8766,0.277560
740.8084,0.277539
741.7402,0.278153
742.6721,0.274780
743.6039,0.270625
744.5357,0.268730
745.4676,0.266963
746.3994,0.266963
747.3312,0.265616
748.2631,0.264375
749.1949,0.262542
750.1267,0.264038
751.0586,0.262841
751.9904,0.260225
752.9222,0.258550
753.8541,0.258533
754.7859,0.256233
755.7177,0.254313
756.6496,0.252010
757.5814,0.250901
758.5132,0.250479
759.4451,0.248020
760.3769,0.244943
761.3088,0.245194
762.2406,0.243615
763.1724,0.240749
764.1043,0.239575
765.0361,0.240996
765.9679,0.241184
766.8998,0.239346
767.8316,0.234765
768.7634,0.233869
769.6953,0.233488
770.6271,0.232978
771.5589,0.233282
772.4908,0.232609
773.4226,0.230882
774.3544,0.228092
775.2863,0.226425
776.2181,0.226615
777.1499,0.226331
778.0818,0.225787
779.0136,0.222504
779.9454,0.220090
780.8773,0.220044
781.8091,0.218464
782.7409,0.217167
783.6728,0.217718
784.6046,0.216035
785.5364,0.213594
786.4683,0.210915
787.4001,0.209710
788.3320,0.209871
789.2638,0.208708
790.1956,0.207374
791.1275,0.207038
792.0593,0.205714
792.9911,0.204890
793.9230,0.203081
794.8548,0.200630
795.7866,0.198185
796.7185,0.198224
797.6503,0.198125
798.5821,0.196679
799.5140,0.194000
800.4458,0.191759
801.3776,0.190330
802.3095,0.191686
803.2413,0.192191
804.1731,0.191106
805.1050,0.188221
806.0368,0.186404
806.9686,0.185485
807.9005,0.184133
808.8323,0.183468
809.7641,0.182085
810.6960,0.179260
811.6278,0.177343
812.5596,0.175750
813.4915,0.175161
814.4233,0.174630
815.3552,0.173424
816.2870,0.172348
817.2188,0.170374
818.1507,0.169694
819.0825,0.169366
820.0143,0.167822
820.9462,0.166369
821.8780,0.165358
822.8098,0.164578
823.7417,0.162317
824.6735,0.161949
825.6053,0.161621
826.5372,0.160385
827.4690,0.158920
828.4008,0.157258
829.3327,0.154922
830.2645,0.154269
831.1963,0.153805
832.1282,0.152233
833.0600,0.151277
833.9918,0.151367
834.9237,0.149887
835.8555,0.148260
836.7873,0.146825
837.7192,0.145634
838.6510,0.144981
839.5828,0.144387
840.5147,0.142982
841.4465,0.141797
842.3784,0.141091
843.3102,0.140388
844.2420,0.139120
845.1739,0.138150
846.1057,0.137476
847.0375,0.136606
847.9694,0.135243
848.9012,0.134527
849.8330,0.134139
850.7649,0.133988
851.6967,0.133110
852.6285,0.131667
853.5604,0.131414
854.4922,0.131385
855.4240,0.130711
856.3559,0.129939
857.2877,0.129191
858.2195,0.128268
859.1514,0.127109
860.0832,0.126108
861.0150,0.125200
861.9469,0.126116
862.8787,0.126375
863.8105,0.125443
864.7424,0.125334
865.6742,0.125901
866.6060,0.126427
867.5379,0.127181
868.4697,0.127895
869.4016,0.129702
870.3334,0.132435
871.2652,0.134622
872.1971,0.137195
873.1289,0.140928
874.0607,0.144997
874.9926,0.148386
875.9244,0.151236
876.8562,0.153778
877.7881,0.154721
878.7199,0.153549
879.6517,0.150136
880.5836,0.145790
881.5154,0.140616
882.4472,0.133940
883.3791,0.128047
884.3109,0.122778
885.2427,0.117495
886.1746,0.112830
887.1064,0.108802
888.0382,0.105650
888.9701,0.102969
889.9019,0.100538
890.8337,0.098386
891.7656,0.096267
892.6974,0.094766
893.6292,0.092919
894.5611,0.091285
895.4929,0.090349
896.4247,0.089417
897.3566,0.088595
898.2884,0.087912
899.2203,0.086625
900.1521,0.085265
901.0839,0.084806
902.0158,0.084790
902.9476,0.084217
903.8794,0.082998
904.8113,0.082439
905.7431,0.082283
906.6749,0.081553
907.6068,0.080866
908.5386,0.080617
909.4704,0.079806
910.4023,0.078879
911.3341,0.078350
912.2659,0.077431
913.1978,0.076893
914.1296,0.076838
915.0614,0.076563
915.9933,0.075626
916.9251,0.074662
917.8569,0.074251
918.7888,0.073898
919.7206,0.073533
920.6524,0.072805
921.5843,0.072271
922.5161,0.071929
923.4479,0.071839
924.3798,0.071052
925.3116,0.070060
926.2435,0.069851
927.1753,0.069889
928.1071,0.069400
929.0390,0.068791
929.9708,0.068344
930.9026,0.068159
931.8345,0.067533
932.7663,0.066957
933.6981,0.066869
934.6300,0.066397
935.5618,0.065702
936.4936,0.065281
937.4255,0.065239
938.3573,0.065070
939.2891,0.064711
940.2210,0.063911
941.1528,0.063435
942.0846,0.063420
943.0165,0.063099
943.9483,0.062521
944.8801,0.062199
945.8120,0.061985
946.7438,0.061766
947.6756,0.061960
948.6075,0.061912
949.5393,0.061561
950.4711,0.061173
951.4030,0.060700
952.3348,0.060298
953.2667,0.060136
954.1985,0.060270
955.1303,0.059828
956.0622,0.059372
956.9940,0.059291
957.9258,0.059012
958.8577,0.058605
959.7895,0.058446
960.7213,0.058328
961.6532,0.058338
962.5850,0.058220
963.5168,0.058019
964.4487,0.057764
965.3805,0.057631
966.3123,0.057420
967.2442,0.057328
968.1760,0.057198
969.1078,0.056725
970.0397,0.056661
970.9715,0.056861
971.9033,0.056579
972.8352,0.056341
973.7670,0.056365
974.6988,0.056152
975.6307,0.056021
976.5625,0.056181
977.4943,0.055807
978.4262,0.055480
979.3580,0.055672
980.2899,0.055760
981.2217,0.055225
982.1535,0.054897
983.0854,0.055076
984.0172,0.055094
984.9490,0.055028
985.8809,0.054977
986.8127,0.055020
987.7445,0.054919
988.6764,0.054762
989.6082,0.054874
990.5400,0.055096
991.4719,0.055052
992.4037,0.054950
993.3355,0.054929
994.2674,0.055051
995.1992,0.055277
996.1310,0.055087
997.0629,0.054948
997.9947,0.055089
998.9265,0.055127
999.8584,0.055146
1000.7902,0.055271
1001.7220,0.055515
1002.6539,0.055914
1003.5857,0.056144
1004.5175,0.056470
1005.4494,0.056683
1006.3812,0.056903
1007.3131,0.057293
1008.2449,0.057408
1009.1767,0.057657
1010.1086,0.057883
1011.0404,0.058330
1011.9722,0.058735
1012.9041,0.059093
1013.8359,0.059722
1014.7677,0.060483
1015.6996,0.060952
1016.6314,0.061448
1017.5632,0.062435
1018.4951,0.063574
1019.4269,0.064560
1020.3587,0.065545
1021.2906,0.066562
1022.2224,0.067892
1023.1542,0.069460
1024.0861,0.071147
1025.0179,0.073180
1025.9497,0.075344
1026.8816,0.077732
1027.8134,0.080227
1028.7452,0.083078
1029.6771,0.086496
1030.6089,0.090288
1031.5407,0.094697
1032.4726,0.100236
1033.4044,0.106537
1034.3362,0.113387
1035.2681,0.121229
1036.1999,0.130613
1037.1318,0.141211
1038.0636,0.152754
1038.9954,0.165066
1039.9273,0.177411
1040.8591,0.189283
1041.7909,0.199988
1042.7228,0.208507
1043.6546,0.213698
1044.5864,0.214802
1045.5183,0.211782
1046.4501,0.204906
1047.3819,0.195152
1048.3138,0.183199
1049.2456,0.169954
1050.1774,0.156141
1051.1093,0.142760
1052.0411,0.130175
1052.9729,0.118720
1053.9048,0.108669
1054.8366,0.099751
1055.7684,0.092191
1056.7003,0.085688
1057.6321,0.080190
1058.5639,0.076081
1059.4958,0.072782
1060.4276,0.070171
1061.3594,0.068288
1062.2913,0.066787
1063.2231,0.065766
1064.1550,0.065079
1065.0868,0.064433
1066.0186,0.064178
1066.9505,0.064351
1067.8823,0.064731
1068.8141,0.065346
1069.7460,0.066311
1070.6778,0.067295
1071.6096,0.068164
1072.5415,0.069612
1073.4733,0.071508
1074.4051,0.073435
1075.3370,0.075366
1076.2688,0.077453
1077.2006,0.079617
1078.1325,0.081890
1079.0643,0.084400
1079.9961,0.086857
1080.9280,0.089156
1081.8598,0.091169
1082.7916,0.092961
1083.7235,0.094378
1084.6553,0.095273
1085.5871,0.095758
1086.5190,0.095515
1087.4508,0.094319
1088.3826,0.092421
1089.3145,0.089998
1090.2463,0.086836
1091.1782,0.083219
1092.1100,0.080048
1093.0418,0.076967
1093.9737,0.073450
1094.9055,0.069989
1095.8373,0.066966
1096.7692,0.064283
1097.7010,0.061722
1098.6328,0.059634
1099.5647,0.057628
1100.4965,0.055732
1101.4283,0.054215
1102.3602,0.053012
1103.2920,0.052006
1104.2238,0.050995
1105.1557,0.049832
1106.0875,0.048803
1107.0193,0.048347
1107.9512,0.048187
1108.8830,0.047720
1109.8148,0.047205
1110.7467,0.046885
1111.6785,0.046551
1112.6103,0.046223
1113.5422,0.046125
1114.4740,0.046094
1115.4058,0.045961
1116.3377,0.045916
1117.2695,0.045849
1118.2014,0.045763
1119.1332,0.045908
1120.0650,0.045856
1120.9969,0.045508
1121.9287,0.045433
1122.8605,0.045488
1123.7924,0.045408
1124.7242,0.045475
1125.6560,0.045567
1126.5879,0.045491
1127.5197,0.045361
1128.4515,0.045178
1129.3834,0.045117
1130.3152,0.045227
1131.2470,0.045193
1132.1789,0.044744
1133.1107,0.044447
1134.0425,0.044580
1134.9744,0.044591
1135.9062,0.044390
1136.8380,0.044253
1137.7699,0.044258
1138.7017,0.044101
1139.6335,0.044003
1140.5654,0.044035
1141.4972,0.043991
1142.4290,0.044009
1143.3609,0.044241
1144.2927,0.044076
1145.2246,0.043609
1146.1564,0.043357
1147.0882,0.043354
1148.0201,0.043546
1148.9519,0.043758
1149.8837,0.043733
1150.8156,0.043580
1151.7474,0.043585
1152.6792,0.043790
1153.6111,0.043755
1154.5429,0.043536
1155.4747,0.043471
1156.4066,0.043541
1157.3384,0.043543
1158.2702,0.043467
1159.2021,0.043313
1160.1339,0.043110
1161.0657,0.043089
1161.9976,0.043140
1162.9294,0.042892
1163.8612,0.042472
1164.7931,0.042268
1165.7249,0.042234
1166.6567,0.042157
1167.5886,0.041998
1168.5204,0.041845
1169.4522,0.041724
1170.3841,0.041655
1171.3159,0.041724
1172.2477,0.041755
1173.1796,0.041536
1174.1114,0.041424
1175.0433,0.041575
1175.9751,0.041637
1176.9069,0.041591
1177.8388,0.041474
1178.7706,0.041275
1179.7024,0.041337
1180.6343,0.041457
1181.5661,0.041389
1182.4979,0.041255
1183.4298,0.041195
1184.3616,0.041373
1185.2934,0.041377
1186.2253,0.041265
1187.1571,0.041341
1188.0889,0.041391
1189.0208,0.041470
1189.9526,0.041552
1190.8844,0.041471
1191.8163,0.041470
1192.7481,0.041651
1193.6799,0.041736
1194.6118,0.041570
1195.5436,0.041411
1196.4754,0.041656
1197.4073,0.041832
1198.3391,0.041686
1199.2709,0.041732
1200.2028,0.041763
1201.1346,0.041622
1202.0665,0.041585
1202.9983,0.041741
1203.9301,0.041847
1204.8620,0.041745
1205.7938,0.041719
1206.7256,0.041852
1207.6575,0.041817
1208.5893,0.041747
1209.5211,0.041831
1210.4530,0.041725
1211.3848,0.041694
1212.3166,0.041981
1213.2485,0.042132
1214.1803,0.042053
1215.1121,0.041990
1216.0440,0.042078
1216.9758,0.042198
1217.9076,0.042190
1218.8395,0.042257
1219.7713,0.042453
1220.7031,0.042534
1221.6350,0.042375
1222.5668,0.042123
1223.4986,0.042029
1224.4305,0.042218
1225.3623,0.042491
1226.2941,0.042535
1227.2260,0.042420
1228.1578,0.042528
1229.0897,0.042813
1230.0215,0.042821
1230.9533,0.042643
1231.8852,0.042717
1232.8170,0.042949
1233.7488,0.043047
1234.6807,0.043016
1235.6125,0.043127
1236.5443,0.043232
1237.4762,0.043322
1238.4080,0.043513
1239.3398,0.043537
1240.2717,0.043469
1241.2035,0.043610
1242.1353,0.043875
1243.0672,0.044153
1243.9990,0.044379
1244.9308,0.044308
1245.8627,0.044108
1246.7945,0.044193
1247.7263,0.044434
1248.6582,0.044536
1249.5900,0.044617
1250.5218,0.044665
1251.4537,0.044788
1252.3855,0.045055
1253.3173,0.045252
1254.2492,0.045395
1255.1810,0.045740
1256.1129,0.046220
1257.0447,0.046462
1257.9765,0.046338
1258.9084,0.046491
1259.8402,0.047035
1260.7720,0.047444
1261.7039,0.047732
1262.6357,0.047990
1263.5675,0.048148
1264.4994,0.048444
1265.4312,0.049020
1266.3630,0.049758
1267.2949,0.050395
1268.2267,0.050738
1269.1585,0.051068
1270.0904,0.051579
1271.0222,0.051872
1271.9540,0.052079
1272.8859,0.052620
1273.8177,0.053012
1274.7495,0.052911
1275.6814,0.052690
1276.6132,0.052584
1277.5450,0.052284
1278.4769,0.051879
1279.4087,0.051582
1280.3405,0.051225
1281.2724,0.050873
1282.2042,0.050730
1283.1361,0.050357
1284.0679,0.050103
1284.9997,0.050159
1285.9316,0.049790
1286.8634,0.049351
1287.7952,0.049349
1288.7271,0.049614
1289.6589,0.049815
1290.5907,0.049685
1291.5226,0.049533
1292.4544,0.049783
1293.3862,0.049968
1294.3181,0.049866
1295.2499,0.049932
1296.1817,0.049970
1297.1136,0.050042
1298.0454,0.050412
1298.9772,0.050709
1299.9091,0.050615
1300.8409,0.050497
1301.7727,0.050788
1302.7046,0.051195
1303.6364,0.051308
1304.5682,0.051500
1305.5001,0.051872
1306.4319,0.052048
1307.3637,0.052362
1308.2956,0.052596
1309.2274,0.052810
1310.1592,0.053012
1311.0911,0.053209
1312.0229,0.053588
1312.9548,0.053798
1313.8866,0.053642
1314.8184,0.053608
1315.7503,0.053805
1316.6821,0.054115
1317.6139,0.054404
1318.5458,0.054513
1319.4776,0.054721
1320.4094,0.055018
1321.3413,0.055124
1322.2731,0.054961
1323.2049,0.054767
1324.1368,0.054879
1325.0686,0.055057
1326.0004,0.054979
1326.9323,0.054947
1327.8641,0.054906
1328.7959,0.054842
1329.7278,0.054878
1330.6596,0.054888
1331.5914,0.054524
1332.5233,0.054192
1333.4551,0.054065
1334.3869,0.053851
1335.3188,0.053651
1336.2506,0.053325
1337.1824,0.053187
1338.1143,0.053274
1339.0461,0.053322
1339.9780,0.053486
1340.9098,0.053440
1341.8416,0.052904
1342.7735,0.052244
1343.7053,0.051699
1344.6371,0.051246
1345.5690,0.050819
1346.5008,0.050448
1347.4326,0.050377
1348.3645,0.050372
1349.2963,0.050258
1350.2281,0.050117
1351.1600,0.049975
1352.0918,0.049758
1353.0236,0.049347
1353.9555,0.049103
1354.8873,0.049228
1355.8191,0.049592
1356.7510,0.049536
1357.6828,0.049048
1358.6146,0.048860
1359.5465,0.048996
1360.4783,0.049069
1361.4101,0.049273
1362.3420,0.049664
1363.2738,0.050312
1364.2056,0.051083
1365.1375,0.050857
1366.0693,0.050286
1367.0012,0.050250
1367.9330,0.050683
1368.8648,0.051361
1369.7967,0.052145
1370.7285,0.052546
1371.6603,0.052973
1372.5922,0.053816
1373.5240,0.055128
1374.4558,0.057122
1375.3877,0.058731
1376.3195,0.059141
1377.2513,0.059297
1378.1832,0.059928
1379.1150,0.060788
1380.0468,0.061412
1380.9787,0.061582
1381.9105,0.061742
1382.8423,0.062088
1383.7742,0.062337
1384.7060,0.062435
1385.6378,0.062438
1386.5697,0.062558
1387.5015,0.063256
1388.4333,0.063974
1389.3652,0.063092
1390.2970,0.061709
1391.2288,0.060823
1392.1607,0.060216
1393.0925,0.059824
1394.0244,0.059535
1394.9562,0.059674
1395.8880,0.060534
1396.8199,0.060854
1397.7517,0.060233
1398.6835,0.060181
1399.6154,0.061126
1400.5472,0.061339
1401.4790,0.060631
1402.4109,0.060050
1403.3427,0.060135
1404.2745,0.060579
1405.2064,0.061111
1406.1382,0.061868
1407.0700,0.061700
1408.0019,0.061099
1408.9337,0.061157
1409.8655,0.061537
1410.7974,0.062010
1411.7292,0.062101
1412.6610,0.061891
1413.5929,0.061891
1414.5247,0.061613
1415.4565,0.061061
1416.3884,0.060877
1417.3202,0.061445
1418.2520,0.061969
1419.1839,0.062524
1420.1157,0.064071
1421.0476,0.063930
1421.9794,0.062258
1422.9112,0.061247
1423.8431,0.061095
1424.7749,0.061423
1425.7067,0.061056
1426.6386,0.060140
1427.5704,0.059536
1428.5022,0.058977
1429.4341,0.058594
1430.3659,0.058627
1431.2977,0.058514
1432.2296,0.057861
1433.1614,0.057012
1434.0932,0.056223
1435.0251,0.055611
1435.9569,0.055588
1436.8887,0.056440
1437.8206,0.058000
1438.7524,0.057216
1439.6842,0.055463
1440.6161,0.054959
1441.5479,0.055067
1442.4797,0.055050
1443.4116,0.055096
1444.3434,0.055172
1445.2752,0.055317
1446.2071,0.055876
1447.1389,0.056840
1448.0707,0.057944
1449.0026,0.059277
1449.9344,0.059990
1450.8663,0.059658
1451.7981,0.059782
1452.7299,0.060308
1453.6618,0.060043
1454.5936,0.059388
1455.5254,0.058958
1456.4573,0.059388
1457.3891,0.060167
1458.3209,0.060077
1459.2528,0.058635
1460.1846,0.056780
1461.1164,0.054339
1462.0483,0.052373
1462.9801,0.051376
1463.9119,0.050541
1464.8438,0.050014
1465.7756,0.049842
1466.7074,0.049236
1467.6393,0.048174
1468.5711,0.047176
1469.5029,0.046506
1470.4348,0.046003
1471.3666,0.045807
1472.2984,0.046264
1473.2303,0.047545
1474.1621,0.048846
1475.0939,0.048185
1476.0258,0.047400
1476.9576,0.047515
1477.8895,0.047821
1478.8213,0.047368
1479.7531,0.046866
1480.6850,0.047172
1481.6168,0.047690
1482.5486,0.047859
1483.4805,0.047800
1484.4123,0.047739
1485.3441,0.047319
1486.2760,0.046694
1487.2078,0.046494
1488.1396,0.046703
1489.0715,0.046862
1490.0033,0.047286
1490.9351,0.047945
1491.8670,0.047612
1492.7988,0.045857
1493.7306,0.044481
1494.6625,0.043634
1495.5943,0.043378
1496.5261,0.043778
1497.4580,0.044719
1498.3898,0.044440
1499.3216,0.043978
1500.2535,0.044534
1501.1853,0.043748
1502.1171,0.042884
1503.0490,0.043060
1503.9808,0.042677
1504.9127,0.042192
1505.8445,0.042524
1506.7763,0.044627
1507.7082,0.047001
1508.6400,0.046594
1509.5718,0.045964
1510.5037,0.045134
1511.4355,0.044008
1512.3673,0.043307
1513.2992,0.043579
1514.2310,0.043709
1515.1628,0.043109
1516.0947,0.043041
1517.0265,0.043449
1517.9583,0.044346
1518.8902,0.044412
1519.8220,0.043646
1520.7538,0.043484
1521.6857,0.044893
1522.6175,0.046471
1523.5493,0.045247
1524.4812,0.044455
1525.4130,0.044306
1526.3448,0.045214
1527.2767,0.046076
1528.2085,0.045537
1529.1403,0.045614
1530.0722,0.045288
1531.0040,0.044371
1531.9359,0.044398
1532.8677,0.045194
1533.7995,0.046179
1534.7314,0.046816
1535.6632,0.045945
1536.5950,0.044765
1537.5269,0.044641
1538.4587,0.044660
1539.3905,0.045264
1540.3224,0.047339
1541.2542,0.048418
1542.1860,0.047656
1543.1179,0.048167
1544.0497,0.048252
1544.9815,0.047331
1545.9134,0.047418
1546.8452,0.047818
1547.7770,0.047737
1548.7089,0.047459
1549.6407,0.047711
1550.5725,0.048462
1551.5044,0.049125
1552.4362,0.048746
1553.3680,0.048178
1554.2999,0.048279
1555.2317,0.048753
1556.1635,0.048918
1557.0954,0.047927
1558.0272,0.047873
1558.9591,0.052045
1559.8909,0.057706
1560.8227,0.058087
1561.7546,0.054952
1562.6864,0.052332
1563.6182,0.051605
1564.5501,0.051708
1565.4819,0.052253
1566.4137,0.052862
1567.3456,0.052514
1568.2774,0.052648
1569.2092,0.053407
1570.1411,0.055337
1571.0729,0.057370
1572.0047,0.056378
1572.9366,0.055407
1573.8684,0.055642
1574.8002,0.056027
1575.7321,0.057040
1576.6639,0.059923
1577.5957,0.062570
1578.5276,0.061726
1579.4594,0.060545
1580.3912,0.060755
1581.3231,0.061373
1582.2549,0.061865
1583.1867,0.062746
1584.1186,0.063540
1585.0504,0.064087
1585.9822,0.064937
1586.9141,0.065799
1587.8459,0.066502
1588.7778,0.067267
1589.7096,0.068170
1590.6414,0.069320
1591.5733,0.070209
1592.5051,0.071082
1593.4369,0.072253
1594.3688,0.073552
1595.3006,0.075024
1596.2324,0.076591
1597.1643,0.077792
1598.0961,0.078989
1599.0279,0.079979
1599.9598,0.080842
1600.8916,0.082155
1601.8234,0.084178
1602.7553,0.085688
1603.6871,0.086742
1604.6189,0.088559
1605.5508,0.089997
1606.4826,0.091528
1607.4144,0.093403
1608.3463,0.095564
1609.2781,0.097565
1610.2099,0.099485
1611.1418,0.101647
1612.0736,0.103052
1613.0054,0.103810
1613.9373,0.104727
1614.8691,0.106137
1615.8010,0.108879
1616.7328,0.113598
1617.6646,0.120872
1618.5965,0.124682
1619.5283,0.121804
1620.4601,0.120962
1621.3920,0.122321
1622.3238,0.124678
1623.2556,0.127783
1624.1875,0.132024
1625.1193,0.136432
1626.0511,0.136244
1626.9830,0.135778
1627.9148,0.137638
1628.8466,0.140935
1629.7785,0.142312
1630.7103,0.141910
1631.6421,0.142099
1632.5740,0.142106
1633.5058,0.142043
1634.4376,0.142758
1635.3695,0.147037
1636.3013,0.154280
1637.2331,0.157663
1638.1650,0.154937
1639.0968,0.153079
1640.0286,0.150569
1640.9605,0.149531
1641.8923,0.149139
1642.8242,0.148036
1643.7560,0.146696
1644.6878,0.145351
1645.6197,0.145154
1646.5515,0.146982
1647.4833,0.149233
1648.4152,0.147815
1649.3470,0.145347
1650.2788,0.141962
1651.2107,0.138816
1652.1425,0.138885
1653.0743,0.141405
1654.0062,0.147815
1654.9380,0.147560
1655.8698,0.140575
1656.8017,0.135668
1657.7335,0.133442
1658.6653,0.131255
1659.5972,0.129230
1660.5290,0.127629
1661.4608,0.126654
1662.3927,0.125322
1663.3245,0.124173
1664.2563,0.123004
1665.1882,0.120464
1666.1200,0.118069
1667.0518,0.116079
1667.9837,0.114144
1668.9155,0.112460
1669.8474,0.111242
1670.7792,0.110255
1671.7110,0.108225
1672.6429,0.106204
1673.5747,0.104214
1674.5065,0.101817
1675.4384,0.100878
1676.3702,0.100066
1677.3020,0.097538
1678.2339,0.094876
1679.1657,0.092846
1680.0975,0.090996
1681.0294,0.089833
1681.9612,0.088117
1682.8930,0.085743
1683.8249,0.084501
1684.7567,0.084466
1685.6885,0.084081
1686.6204,0.080686
1687.5522,0.077677
1688.4840,0.075872
1689.4159,0.074609
1690.3477,0.073197
1691.2795,0.071348
1692.2114,0.069391
1693.1432,0.067964
1694.0750,0.066560
1695.0069,0.065142
1695.9387,0.064105
1696.8706,0.063532
1697.8024,0.061243
1698.7342,0.059008
1699.6661,0.058629
1700.5979,0.058152
1701.5297,0.058012
1702.4616,0.056116
1703.3934,0.053507
1704.3252,0.051974
1705.2571,0.051098
1706.1889,0.050687
1707.1207,0.049785
1708.0526,0.048467
1708.9844,0.046492
1709.9162,0.045322
1710.8481,0.044913
1711.7799,0.044111
1712.7117,0.042829
1713.6436,0.041702
1714.5754,0.041584
1715.5072,0.040966
1716.4391,0.039959
1717.3709,0.038500
1718.3027,0.038120
1719.2346,0.038607
1720.1664,0.037486
1721.0982,0.035937
1722.0301,0.034859
1722.9619,0.034282
1723.8937,0.033994
1724.8256,0.033863
1725.7574,0.033096
1726.6893,0.031804
1727.6211,0.031235
1728.5529,0.031086
1729.4848,0.030557
1730.4166,0.029757
1731.3484,0.029512
1732.2803,0.028607
1733.2121,0.028082
1734.1439,0.029022
1735.0758,0.029981
1736.0076,0.028562
1736.9394,0.026430
1737.8713,0.025526
1738.8031,0.025563
1739.7349,0.025656
1740.6668,0.025360
1741.5986,0.024765
1742.5304,0.024099
1743.4623,0.023705
1744.3941,0.023946
1745.3259,0.023855
1746.2578,0.023318
1747.1896,0.022895
1748.1214,0.022501
1749.0533,0.022428
1749.9851,0.022457
1750.9169,0.022082
1751.8488,0.021664
1752.7806,0.021207
1753.7125,0.020698
1754.6443,0.020920
1755.5761,0.021080
1756.5080,0.020767
1757.4398,0.020357
1758.3716,0.020390
1759.3035,0.019803
1760.2353,0.019080
1761.1671,0.019180
1762.0990,0.019104
1763.0308,0.018448
1763.9626,0.018000
1764.8945,0.018131
1765.8263,0.018480
1766.7581,0.018162
1767.6900,0.018196
1768.6218,0.018154
1769.5536,0.018106
1770.4855,0.017882
1771.4173,0.017465
1772.3491,0.017270
1773.2810,0.016807
1774.2128,0.016034
1775.1446,0.016082
1776.0765,0.016132
1777.0083,0.015521
1777.9401,0.015382
1778.8720,0.016189
1779.8038,0.016432
1780.7357,0.016000
1781.6675,0.015629
1782.5993,0.015331
1783.5312,0.015398
1784.4630,0.015483
1785.3948,0.015336
1786.3267,0.015288
1787.2585,0.014729
1788.1903,0.014568
1789.1222,0.014694
1790.0540,0.014248
1790.9858,0.013863
1791.9177,0.013903
1792.8495,0.014135
1793.7813,0.014229
1794.7132,0.013931
1795.6450,0.013849
1796.5768,0.014325
1797.5087,0.013998
1798.4405,0.013370
1799.3723,0.013228
1800.3042,0.013752
1801.2360,0.013935
1802.1678,0.013625
1803.0997,0.013264
1804.0315,0.012657
1804.9633,0.012606
1805.8952,0.012975
1806.8270,0.012957
1807.7589,0.012678
1808.6907,0.012852
1809.6225,0.012881
1810.5544,0.012761
1811.4862,0.012752
1812.4180,0.012544
1813.3499,0.012565
1814.2817,0.012872
1815.2135,0.012188
1816.1454,0.011353
1817.0772,0.011380
1818.0090,0.011785
1818.9409,0.011603
1819.8727,0.011240
1820.8045,0.011190
1821.7364,0.011310
1822.6682,0.011251
1823.6000,0.011798
1824.5319,0.011949
1825.4637,0.011365
1826.3955,0.011151
1827.3274,0.011459
1828.2592,0.011835
1829.1910,0.011485
1830.1229,0.011289
1831.0547,0.011682
1831.9865,0.011635
1832.9184,0.010575
1833.8502,0.010277
1834.7821,0.010690
1835.7139,0.010760
1836.6457,0.011028
1837.5776,0.011477
1838.5094,0.011693
1839.4412,0.011110
1840.3731,0.010846
1841.3049,0.010756
1842.2367,0.010194
1843.1686,0.009844
1844.1004,0.009994
1845.0322,0.010422
1845.9641,0.010282
1846.8959,0.009079
1847.8277,0.009330
1848.7596,0.010295
1849.6914,0.010867
1850.6232,0.010767
1851.5551,0.010280
1852.4869,0.009817
1853.4187,0.009997
1854.3506,0.009736
1855.2824,0.009860
1856.2142,0.010824
1857.1461,0.010790
1858.0779,0.009865
1859.0097,0.009359
1859.9416,0.009072
1860.8734,0.009571
1861.8052,0.010604
1862.7371,0.010397
1863.6689,0.010101
1864.6008,0.009845
1865.5326,0.009208
1866.4644,0.009513
1867.3963,0.009797
1868.3281,0.009547
1869.2599,0.009540
1870.1918,0.009281
1871.1236,0.009150
1872.0554,0.009878
1872.9873,0.010099
1873.9191,0.009695
1874.8509,0.009361
1875.7828,0.009389
1876.7146,0.009967
1877.6464,0.010398
1878.5783,0.009803
1879.5101,0.008529
1880.4419,0.008089
1881.3738,0.009102
1882.3056,0.009808
1883.2374,0.010129
1884.1693,0.009430
1885.1011,0.008669
1886.0329,0.009254
1886.9648,0.010072
1887.8966,0.009813
1888.8284,0.009238
1889.7603,0.008881
1890.6921,0.009371
1891.6240,0.009814
1892.5558,0.010142
1893.4876,0.010287
1894.4195,0.009820
1895.3513,0.008885
1896.2831,0.007724
1897.2150,0.007881
1898.1468,0.008607
1899.0786,0.008372
1900.0105,0.008613
1900.9423,0.009657
1901.8741,0.010545
1902.8060,0.010739
1903.7378,0.010373
1904.6696,0.010655
1905.6015,0.009827
1906.5333,0.007499
1907.4651,0.007856
1908.3970,0.010136
1909.3288,0.010949
1910.2606,0.010668
1911.1925,0.010182
1912.1243,0.009619
1913.0561,0.009262
1913.9880,0.009123
1914.9198,0.009523
1915.8516,0.010229
1916.7835,0.010081
1917.7153,0.008826
1918.6472,0.008061
1919.5790,0.008236
1920.5108,0.007696
1921.4427,0.007848
1922.3745,0.008192
1923.3063,0.007734
1924.2382,0.008006
1925.1700,0.007988
1926.1018,0.008232
1927.0337,0.008791
1927.9655,0.008473
1928.8973,0.007360
1929.8292,0.006222
1930.7610,0.006499
1931.6928,0.007839
1932.6247,0.008866
1933.5565,0.009502
1934.4883,0.010164
1935.4202,0.010227
1936.3520,0.008994
1937.2838,0.008265
1938.2157,0.007658
1939.1475,0.006466
1940.0793,0.006771
1941.0112,0.008159
1941.9430,0.009337
1942.8748,0.009866
1943.8067,0.008672
1944.7385,0.007472
1945.6704,0.007896
1946.6022,0.007321
1947.5340,0.005846
1948.4659,0.006576
1949.3977,0.007134
1950.3295,0.006387
1951.2614,0.007114
1952.1932,0.007346
1953.1250,0.007034
1954.0569,0.006699
1954.9887,0.005907
1955.9205,0.006379
1956.8524,0.007918
1957.7842,0.008165
1958.7160,0.007141
1959.6479,0.007588
1960.5797,0.008571
1961.5115,0.007289
1962.4434,0.007072
1963.3752,0.009774
1964.3070,0.008246
1965.2389,0.003904
1966.1707,0.003166
1967.1025,0.006114
1968.0344,0.005782
1968.9662,0.004162
1969.8980,0.005350
1970.8299,0.007477
1971.7617,0.006877
1972.6936,0.004863
1973.6254,0.002943
1974.5572,0.003244
1975.4891,0.003296
1976.4209,0.001417
1977.3527,0.001505
1978.2846,0.002510
1979.2164,0.003178
1980.1482,0.004943
1981.0801,0.006053
1982.0119,0.006439
1982.9437,0.006733
1983.8756,0.004423
1984.8074,0.003252
1985.7392,0.005493
1986.6711,0.006092
1987.6029,0.004624
1988.5347,0.004112
1989.4666,0.005066
1990.3984,0.006858
1991.3302,0.009649
1992.2621,0.009745
1993.1939,0.008551
1994.1257,0.008254
1995.0576,0.007966
1995.9894,0.008117
1996.9212,0.008378
1997.8531,0.006919
1998.7849,0.005718
1999.7167,0.008818
2000.6486,0.011004
2001.5804,0.007275
2002.5123,0.004949
2003.4441,0.005927
2004.3759,0.004427
2005.3078,0.003371
2006.2396,0.005418
2007.1714,0.006073
2008.1033,0.003415
2009.0351,0.003449
2009.9669,0.006577
2010.8988,0.007246
2011.8306,0.007014
2012.7624,0.006208
2013.6943,0.005157
2014.6261,0.005703
2015.5579,0.005940
2016.4898,0.005401
2017.4216,0.006300
2018.3534,0.007205
2019.2853,0.006881
2020.2171,0.005758
2021.1489,0.006938
2022.0808,0.008101
2023.0126,0.004431
2023.9444,0.002774
2024.8763,0.004889
2025.8081,0.006244
2026.7399,0.006514
2027.6718,0.004803
2028.6036,0.003965
2029.5355,0.004774
2030.4673,0.004010
2031.3991,0.002343
2032.3310,0.004857
2033.2628,0.006689
2034.1946,0.005983
2035.1265,0.008061
2036.0583,0.008757
2036.9901,0.009406
2037.9220,0.010225
2038.8538,0.007003
2039.7856,0.005667
2040.7175,0.006365
2041.6493,0.004720
2042.5811,0.002895
2043.5130,0.005862
2044.4448,0.010050
2045.3766,0.009546
2046.3085,0.006731
2047.2403,0.007078
2048.1721,0.010211
2049.1040,0.011364
2050.0358,0.010004
2050.9676,0.009547
2051.8995,0.009297
2052.8313,0.010296
2053.7631,0.011714
2054.6950,0.011941
2055.6268,0.012298
2056.5587,0.011612
2057.4905,0.010763
2058.4223,0.011641
2059.3542,0.011622
2060.2860,0.011599
2061.2178,0.013232
2062.1497,0.013335
2063.0815,0.011456
2064.0133,0.010230
2064.9452,0.010990
2065.8770,0.013574
2066.8088,0.015346
2067.7407,0.013703
2068.6725,0.011976
2069.6043,0.012296
2070.5362,0.013234
2071.4680,0.014512
2072.3998,0.014462
2073.3317,0.012728
2074.2635,0.011384
2075.1953,0.012057
2076.1272,0.012543
2077.0590,0.012378
2077.9908,0.012606
2078.9227,0.012638
2079.8545,0.012646
2080.7863,0.013590
2081.7182,0.013943
2082.6500,0.012651
2083.5819,0.012844
2084.5137,0.014091
2085.4455,0.013630
2086.3774,0.013524
2087.3092,0.013940
2088.2410,0.014307
2089.1729,0.015048
2090.1047,0.014687
2091.0365,0.013776
2091.9684,0.013820
2092.9002,0.013648
2093.8320,0.013265
2094.7639,0.013498
2095.6957,0.014290
2096.6275,0.015413
2097.5594,0.016001
2098.4912,0.015577
2099.4230,0.014619
2100.3549,0.013791
2101.2867,0.013871
2102.2185,0.013748
2103.1504,0.012444
2104.0822,0.012403
2105.0140,0.013678
2105.9459,0.014606
2106.8777,0.015623
2107.8095,0.016045
2108.7414,0.014801
2109.6732,0.012999
2110.6051,0.012423
2111.5369,0.014250
2112.4687,0.016162
2113.4006,0.016054
2114.3324,0.014902
2115.2642,0.014136
2116.1961,0.014869
2117.1279,0.016243
2118.0597,0.016294
2118.9916,0.017261
2119.9234,0.017920
2120.8552,0.016554
2121.7871,0.015060
2122.7189,0.013547
2123.6507,0.013339
2124.5826,0.014080
2125.5144,0.014008
2126.4462,0.014335
2127.3781,0.014896
2128.3099,0.014779
2129.2417,0.015070
2130.1736,0.015479
2131.1054,0.015521
2132.0372,0.015127
2132.9691,0.015176
2133.9009,0.016127
2134.8327,0.015995
2135.7646,0.013941
2136.6964,0.013147
2137.6282,0.013492
2138.5601,0.013566
2139.4919,0.013302
2140.4238,0.013233
2141.3556,0.011951
2142.2874,0.010859
2143.2193,0.012433
2144.1511,0.012361
2145.0829,0.010832
2146.0148,0.007822
2146.9466,0.005812
2147.8784,0.009637
2148.8103,0.012804
2149.7421,0.011007
2150.6739,0.009549
2151.6058,0.010101
2152.5376,0.011658
2153.4694,0.013826
2154.4013,0.010874
2155.3331,0.007133
2156.2649,0.008146
2157.1968,0.009605
2158.1286,0.006538
2159.0604,0.002124
2159.9923,0.004820
2160.9241,0.007386
2161.8559,0.004915
2162.7878,0.005205
2163.7196,0.007338
2164.6514,0.009278
2165.5833,0.010272
2166.5151,0.012315
2167.4470,0.011404
2168.3788,0.007140
2169.3106,0.005035
2170.2425,0.007020
2171.1743,0.009886
2172.1061,0.008868
2173.0380,0.008462
2173.9698,0.009598
2174.9016,0.007120
2175.8335,0.005518
2176.7653,0.007567
2177.6971,0.009535
2178.6290,0.009234
2179.5608,0.008944
2180.4926,0.008419
2181.4245,0.006691
2182.3563,0.007304
2183.2881,0.009287
2184.2200,0.010136
2185.1518,0.010875
2186.0836,0.012357
2187.0155,0.011444
2187.9473,0.009527
2188.8791,0.009244
2189.8110,0.010178
2190.7428,0.011733
2191.6746,0.011544
2192.6065,0.010328
2193.5383,0.008300
2194.4702,0.009722
2195.4020,0.011233
2196.3338,0.010224
2197.2657,0.007559
2198.1975,0.008177
2199.1293,0.008299
2200.0612,0.007433
2200.9930,0.008988
2201.9248,0.010050
2202.8567,0.010827
2203.7885,0.011195
2204.7203,0.010182
2205.6522,0.009450
2206.5840,0.010277
2207.5158,0.011075
2208.4477,0.010976
2209.3795,0.010269
2210.3113,0.009794
2211.2432,0.010916
2212.1750,0.011143
2213.1068,0.008843
2214.0387,0.008995
2214.9705,0.010725
2215.9023,0.009875
2216.8342,0.010633
2217.7660,0.011292
2218.6978,0.010048
2219.6297,0.008711
2220.5615,0.009050
2221.4934,0.008943
2222.4252,0.008270
2223.3570,0.010252
2224.2889,0.011791
2225.2207,0.011553
2226.1525,0.011486
2227.0844,0.011405
2228.0162,0.011605
2228.9480,0.011503
2229.8799,0.010097
2230.8117,0.007510
2231.7435,0.008292
2232.6754,0.009998
2233.6072,0.009932
2234.5390,0.009483
2235.4709,0.008890
2236.4027,0.009392
2237.3345,0.010690
2238.2664,0.011592
2239.1982,0.010974
2240.1300,0.010766
2241.0619,0.011618
2241.9937,0.011571
2242.9255,0.010827
2243.8574,0.009933
2244.7892,0.009096
2245.7210,0.009803
2246.6529,0.011353
2247.5847,0.011719
2248.5166,0.011433
2249.4484,0.011565
2250.3802,0.011433
2251.3121,0.011767
2252.2439,0.011538
2253.1757,0.010485
2254.1076,0.009893
2255.0394,0.010510
2255.9712,0.010365
2256.9031,0.009455
2257.8349,0.010180
2258.7667,0.011402
2259.6986,0.010226
2260.6304,0.008624
2261.5622,0.010197
2262.4941,0.012031
2263.4259,0.012442
2264.3577,0.010947
2265.2896,0.009900
2266.2214,0.010813
2267.1532,0.010948
2268.0851,0.009879
2269.0169,0.009536
2269.9487,0.010664
2270.8806,0.010283
2271.8124,0.009680
2272.7442,0.009294
2273.6761,0.009463
2274.6079,0.010116
2275.5397,0.010546
2276.4716,0.010764
2277.4034,0.010947
2278.3353,0.010548
2279.2671,0.010276
2280.1989,0.011175
2281.1308,0.010837
2282.0626,0.010824
2282.9944,0.011250
2283.9263,0.011048
2284.8581,0.010528
2285.7899,0.010323
2286.7218,0.010037
2287.6536,0.010147
2288.5854,0.010192
2289.5173,0.009957
2290.4491,0.010050
2291.3809,0.009790
2292.3128,0.009989
2293.2446,0.010473
2294.1764,0.010325
2295.1083,0.010602
2296.0401,0.010363
2296.9719,0.010147
2297.9038,0.010436
2298.8356,0.010745
2299.7674,0.010382
2300.6993,0.010624
2301.6311,0.010575
2302.5629,0.010468
2303.4948,0.010252
2304.4266,0.010351
2305.3585,0.010934
2306.2903,0.010837
2307.2221,0.009438
2308.1540,0.009477
2309.0858,0.010475
2310.0176,0.010614
2310.9495,0.009998
2311.8813,0.009537
2312.8131,0.010271
2313.7450,0.010436
2314.6768,0.009590
2315.6086,0.009915
2316.5405,0.010840
2317.4723,0.010566
2318.4041,0.009869
2319.3360,0.009108
2320.2678,0.009282
2321.1996,0.009864
2322.1315,0.010009
2323.0633,0.009933
2323.9951,0.010550
2324.9270,0.010206
2325.8588,0.009389
2326.7906,0.010120
2327.7225,0.010521
2328.6543,0.009652
2329.5861,0.009181
2330.5180,0.009082
2331.4498,0.009384
2332.3817,0.009735
2333.3135,0.010334
2334.2453,0.009894
2335.1772,0.009008
2336.1090,0.009337
2337.0408,0.009570
2337.9727,0.009361
2338.9045,0.010175
2339.8363,0.010039
2340.7682,0.009449
2341.7000,0.008812
2342.6318,0.008932
2343.5637,0.009581
2344.4955,0.009927
2345.4273,0.009603
2346.3592,0.009177
2347.2910,0.008874
2348.2228,0.008831
2349.1547,0.008948
2350.0865,0.009709
2351.0183,0.009655
2351.9502,0.008899
2352.8820,0.008165
2353.8138,0.008688
2354.7457,0.009544
2355.6775,0.010469
2356.6093,0.009914
2357.5412,0.008272
2358.4730,0.008215
2359.4049,0.009076
2360.3367,0.008116
2361.2685,0.007568
2362.2004,0.008659
2363.1322,0.008807
2364.0640,0.008169
2364.9959,0.007846
2365.9277,0.007312
2366.8595,0.006890
2367.7914,0.007678
2368.7232,0.008201
2369.6550,0.007475
2370.5869,0.007202
2371.5187,0.007042
2372.4505,0.007411
2373.3824,0.008078
2374.3142,0.009090
2375.2460,0.009040
2376.1779,0.007950
2377.1097,0.007891
2378.0415,0.007647
2378.9734,0.007263
2379.9052,0.007312
2380.8370,0.007762
2381.7689,0.007727
2382.7007,0.007572
2383.6325,0.008187
2384.5644,0.008139
2385.4962,0.007843
2386.4281,0.007811
2387.3599,0.007480
2388.2917,0.007712
2389.2236,0.008146
2390.1554,0.007993
2391.0872,0.007883
2392.0191,0.007381
2392.9509,0.007408
2393.8827,0.008069
2394.8146,0.007708
2395.7464,0.006639
2396.6782,0.006947
2397.6101,0.007761
2398.5419,0.008029
2399.4737,0.007872
2400.4056,0.007964
2401.3374,0.007837
2402.2692,0.007564
2403.2011,0.006750
2404.1329,0.006603
2405.0647,0.007325
2405.9966,0.007661
2406.9284,0.007424
2407.8602,0.007294
2408.7921,0.007603
2409.7239,0.007227
2410.6557,0.006520
2411.5876,0.006976
2412.5194,0.007613
2413.4512,0.007688
2414.3831,0.007322
2415.3149,0.006962
2416.2468,0.006584
2417.1786,0.007122
2418.1104,0.008115
2419.0423,0.007368
2419.9741,0.006495
2420.9059,0.006467
2421.8378,0.006482
2422.7696,0.007226
2423.7014,0.007677
2424.6333,0.006648
2425.5651,0.005942
2426.4969,0.006589
2427.4288,0.007179
2428.3606,0.007226
2429.2924,0.006240
2430.2243,0.005248
2431.1561,0.005888
2432.0879,0.005785
2433.0198,0.005304
2433.9516,0.006746
2434.8834,0.007404
2435.8153,0.006428
2436.7471,0.005763
2437.6789,0.005347
2438.6108,0.005549
2439.5426,0.006093
2440.4744,0.006074
2441.4063,0.006135
2442.3381,0.006322
2443.2700,0.005926
2444.2018,0.005534
2445.1336,0.005639
2446.0655,0.005824
2446.9973,0.006500
2447.9291,0.006484
2448.8610,0.006066
2449.7928,0.006226
2450.7246,0.006041
2451.6565,0.005836
2452.5883,0.005836
2453.5201,0.006128
2454.4520,0.005821
2455.3838,0.006175
2456.3156,0.006502
2457.2475,0.006346
2458.1793,0.005796
2459.1111,0.005814
2460.0430,0.005613
2460.9748,0.005378
2461.9066,0.005580
2462.8385,0.005723
2463.7703,0.005276
2464.7021,0.005314
2465.6340,0.005665
2466.5658,0.006159
2467.4976,0.006255
2468.4295,0.005507
2469.3613,0.004978
2470.2932,0.005374
2471.2250,0.005354
2472.1568,0.006001
2473.0887,0.006043
2474.0205,0.005964
2474.9523,0.006457
2475.8842,0.006093
2476.8160,0.005668
2477.7478,0.006229
2478.6797,0.005683
2479.6115,0.005122
2480.5433,0.005196
2481.4752,0.005679
2482.4070,0.005950
2483.3388,0.005527
2484.2707,0.005679
2485.2025,0.006077
2486.1343,0.006726
2487.0662,0.005766
2487.9980,0.005206
2488.9298,0.005401
2489.8617,0.005500
2490.7935,0.004952
2491.7253,0.004831
2492.6572,0.004440
2493.5890,0.004134
2494.5208,0.004196
2495.4527,0.004596
2496.3845,0.004901
2497.3164,0.005222
2498.2482,0.005826
2499.1800,0.006143
2500.1119,0.005949
2501.0437,0.005723
2501.9755,0.005598
2502.9074,0.005967
2503.8392,0.005728
2504.7710,0.005579
2505.7029,0.005352
2506.6347,0.004864
2507.5665,0.005043
2508.4984,0.006198
2509.4302,0.005800
2510.3620,0.004767
2511.2939,0.004794
2512.2257,0.004997
2513.1575,0.006122
2514.0894,0.006927
2515.0212,0.006098
2515.9530,0.005627
2516.8849,0.005832
2517.8167,0.006108
2518.7485,0.005957
2519.6804,0.005413
2520.6122,0.005051
2521.5440,0.005170
2522.4759,0.005265
2523.4077,0.004477
2524.3396,0.004619
2525.2714,0.005871
2526.2032,0.006063
2527.1351,0.004798
2528.0669,0.004528
2528.9987,0.004217
2529.9306,0.004175
2530.8624,0.005195
2531.7942,0.005569
2532.7261,0.005656
2533.6579,0.005827
2534.5897,0.005932
2535.5216,0.005487
2536.4534,0.005115
2537.3852,0.005171
2538.3171,0.005114
2539.2489,0.005023
2540.1807,0.004498
2541.1126,0.004873
2542.0444,0.005429
2542.9762,0.005188
2543.9081,0.004782
2544.8399,0.005127
2545.7717,0.005525
2546.7036,0.006023
2547.6354,0.006132
2548.5672,0.005274
2549.4991,0.005109
2550.4309,0.004972
2551.3627,0.004575
2552.2946,0.004973
2553.2264,0.004998
2554.1583,0.004903
2555.0901,0.004878
2556.0219,0.005059
2556.9538,0.005220
2557.8856,0.005175
2558.8174,0.005474
2559.7493,0.006208
2560.6811,0.006104
2561.6129,0.004803
2562.5448,0.004377
2563.4766,0.004790
2564.4084,0.004396
2565.3403,0.005106
2566.2721,0.005977
2567.2039,0.005253
2568.1358,0.004483
2569.0676,0.004517
2569.9994,0.005108
2570.9313,0.005526
2571.8631,0.004674
2572.7949,0.003947
2573.7268,0.004041
2574.6586,0.004837
2575.5904,0.004665
2576.5223,0.004312
2577.4541,0.004486
2578.3859,0.004564
2579.3178,0.004088
2580.2496,0.003491
2581.1815,0.003886
2582.1133,0.004643
2583.0451,0.004644
2583.9770,0.005303
2584.9088,0.005612
2585.8406,0.005169
2586.7725,0.004980
2587.7043,0.005080
2588.6361,0.004742
2589.5680,0.004379
2590.4998,0.004620
2591.4316,0.005395
2592.3635,0.005298
2593.2953,0.004851
2594.2271,0.004500
2595.1590,0.004271
2596.0908,0.004633
2597.0226,0.004811
2597.9545,0.004442
2598.8863,0.004689
2599.8181,0.005931
2600.7500,0.006006
2601.6818,0.004864
2602.6136,0.004491
2603.5455,0.004439
2604.4773,0.004484
2605.4091,0.005208
2606.3410,0.005343
2607.2728,0.005144
2608.2047,0.004770
2609.1365,0.004499
2610.0683,0.005257
2611.0002,0.006106
2611.9320,0.005540
2612.8638,0.005115
2613.7957,0.005144
2614.7275,0.004942
2615.6593,0.004142
2616.5912,0.004552
2617.5230,0.005004
2618.4548,0.004578
2619.3867,0.005033
2620.3185,0.005691
2621.2503,0.005748
2622.1822,0.006049
2623.1140,0.005777
2624.0458,0.005757
2624.9777,0.005171
2625.9095,0.004880
2626.8413,0.005629
2627.7732,0.005965
2628.7050,0.005896
2629.6368,0.005446
2630.5687,0.006021
2631.5005,0.006442
2632.4323,0.006191
2633.3642,0.005627
2634.2960,0.005440
2635.2279,0.005473
2636.1597,0.005498
2637.0915,0.005542
2638.0234,0.005281
2638.9552,0.005091
2639.8870,0.005285
2640.8189,0.005697
2641.7507,0.005613
2642.6825,0.005713
2643.6144,0.006246
2644.5462,0.006548
2645.4780,0.006510
2646.4099,0.006817
2647.3417,0.006729
2648.2735,0.005747
2649.2054,0.005507
2650.1372,0.005871
2651.0690,0.005821
2652.0009,0.006057
2652.9327,0.006129
2653.8645,0.005993
2654.7964,0.005877
2655.7282,0.005946
2656.6600,0.006101
2657.5919,0.006537
2658.5237,0.007270
2659.4555,0.007345
2660.3874,0.007020
2661.3192,0.006432
2662.2511,0.006481
2663.1829,0.007064
2664.1147,0.007516
2665.0466,0.007247
2665.9784,0.006908
2666.9102,0.007079
2667.8421,0.007080
2668.7739,0.006963
2669.7057,0.007197
2670.6376,0.007439
2671.5694,0.007135
2672.5012,0.006745
2673.4331,0.006381
2674.3649,0.006479
2675.2967,0.006943
2676.2286,0.007291
2677.1604,0.007255
2678.0922,0.007086
2679.0241,0.007109
2679.9559,0.007163
2680.8877,0.007335
2681.8196,0.007417
2682.7514,0.007302
2683.6832,0.007355
2684.6151,0.007198
2685.5469,0.007185
2686.4787,0.007405
2687.4106,0.007453
2688.3424,0.007140
2689.2742,0.007132
2690.2061,0.007366
2691.1379,0.008012
2692.0698,0.008226
2693.0016,0.008018
2693.9334,0.008103
2694.8653,0.008128
2695.7971,0.007996
2696.7289,0.007996
2697.6608,0.008104
2698.5926,0.008466
2699.5244,0.008379
2700.4563,0.008212
2701.3881,0.008359
2702.3199,0.008403
2703.2518,0.008308
2704.1836,0.008359
2705.1154,0.008252
2706.0473,0.008018
2706.9791,0.008250
2707.9109,0.008657
2708.8428,0.008499
2709.7746,0.008415
2710.7064,0.008915
2711.6383,0.009290
2712.5701,0.009082
2713.5019,0.009047
2714.4338,0.009370
2715.3656,0.009225
2716.2974,0.008485
2717.2293,0.008071
2718.1611,0.008568
2719.0930,0.009368
2720.0248,0.009900
2720.9566,0.009778
2721.8885,0.009269
2722.8203,0.009095
2723.7521,0.008925
2724.6840,0.009352
2725.6158,0.009802
2726.5476,0.009351
2727.4795,0.008791
2728.4113,0.009264
2729.3431,0.010003
2730.2750,0.010066
2731.2068,0.009498
2732.1386,0.009801
2733.0705,0.010855
2734.0023,0.010889
2734.9341,0.010292
2735.8660,0.010204
2736.7978,0.010397
2737.7296,0.010487
2738.6615,0.010675
2739.5933,0.010920
2740.5251,0.010841
2741.4570,0.010935
2742.3888,0.010785
2743.3206,0.010590
2744.2525,0.010828
2745.1843,0.011139
2746.1162,0.011326
2747.0480,0.011343
2747.9798,0.011078
2748.9117,0.010962
2749.8435,0.011045
2750.7753,0.011091
2751.7072,0.011002
2752.6390,0.011319
2753.5708,0.011938
2754.5027,0.011922
2755.4345,0.011417
2756.3663,0.011125
2757.2982,0.010964
2758.2300,0.010787
2759.1618,0.011200
2760.0937,0.011497
2761.0255,0.010855
2761.9573,0.010820
2762.8892,0.011658
2763.8210,0.012005
2764.7528,0.011850
2765.6847,0.011551
2766.6165,0.011115
2767.5483,0.011056
2768.4802,0.011298
2769.4120,0.011667
2770.3438,0.011906
2771.2757,0.012086
2772.2075,0.012291
2773.1394,0.012301
2774.0712,0.012248
2775.0030,0.012272
2775.9349,0.012373
2776.8667,0.012261
2777.7985,0.011704
2778.7304,0.011676
2779.6622,0.012215
2780.5940,0.012619
2781.5259,0.012995
2782.4577,0.013122
2783.3895,0.012717
2784.3214,0.012554
2785.2532,0.012830
2786.1850,0.013240
2787.1169,0.013034
2788.0487,0.013003
2788.9805,0.013290
2789.9124,0.013282
2790.8442,0.013435
2791.7760,0.013726
2792.7079,0.013869
2793.6397,0.014185
2794.5715,0.014135
2795.5034,0.013782
2796.4352,0.013642
2797.3670,0.013852
2798.2989,0.014399
2799.2307,0.014793
2800.1626,0.014820
2801.0944,0.014645
2802.0262,0.014681
2802.9581,0.015111
2803.8899,0.015488
2804.8217,0.015631
2805.7536,0.015369
2806.6854,0.015840
2807.6172,0.016593
2808.5491,0.016605
2809.4809,0.016609
2810.4127,0.016894
2811.3446,0.016914
2812.2764,0.017053
2813.2082,0.016914
2814.1401,0.016514
2815.0719,0.016405
2816.0037,0.016846
2816.9356,0.017440
2817.8674,0.017649
2818.7992,0.017531
2819.7311,0.017545
2820.6629,0.017785
2821.5947,0.018123
2822.5266,0.018482
2823.4584,0.018758
2824.3902,0.019030
2825.3221,0.018945
2826.2539,0.018976
2827.1857,0.019399
2828.1176,0.019305
2829.0494,0.019219
2829.9813,0.019374
2830.9131,0.019681
2831.8449,0.019955
2832.7768,0.020214
2833.7086,0.020308
2834.6404,0.020312
2835.5723,0.020836
2836.5041,0.020990
2837.4359,0.020410
2838.3678,0.020707
2839.2996,0.021671
2840.2314,0.021843
2841.1633,0.021811
2842.0951,0.022033
2843.0269,0.021769
2843.9588,0.021565
2844.8906,0.021660
2845.8224,0.022118
2846.7543,0.022488
2847.6861,0.022880
2848.6179,0.022915
2849.5498,0.023108
2850.4816,0.023861
2851.4134,0.023845
2852.3453,0.023440
2853.2771,0.023809
2854.2089,0.024728
2855.1408,0.025187
2856.0726,0.024893
2857.0045,0.024654
2857.9363,0.024965
2858.8681,0.025457
2859.8000,0.025646
2860.7318,0.026125
2861.6636,0.026554
2862.5955,0.026893
2863.5273,0.027540
2864.4591,0.028013
2865.3910,0.028141
2866.3228,0.028019
2867.2546,0.028146
2868.1865,0.029112
2869.1183,0.029985
2870.0501,0.030351
2870.9820,0.030653
2871.9138,0.031027
2872.8456,0.031765
2873.7775,0.032719
2874.7093,0.033150
2875.6411,0.033830
2876.5730,0.034045
2877.5048,0.033940
2878.4366,0.034892
2879.3685,0.035444
2880.3003,0.035175
2881.2321,0.035584
2882.1640,0.036433
2883.0958,0.036659
2884.0277,0.036879
2884.9595,0.037595
2885.8913,0.037898
2886.8232,0.038482
2887.7550,0.038933
2888.6868,0.038829
2889.6187,0.038808
2890.5505,0.039146
2891.4823,0.039755
2892.4142,0.040214
2893.3460,0.040746
2894.2778,0.041864
2895.2097,0.042794
2896.1415,0.042897
2897.0733,0.042567
2898.0052,0.042613
2898.9370,0.043138
2899.8688,0.043685
2900.8007,0.044497
2901.7325,0.045444
2902.6643,0.045555
2903.5962,0.045428
2904.5280,0.045449
2905.4598,0.045491
2906.3917,0.045768
2907.3235,0.045585
2908.2553,0.044784
2909.1872,0.044372
2910.1190,0.044209
2911.0509,0.044077
2911.9827,0.043737
2912.9145,0.043336
2913.8464,0.043160
2914.7782,0.042885
2915.7100,0.042571
2916.6419,0.042742
2917.5737,0.042912
2918.5055,0.042343
2919.4374,0.042150
2920.3692,0.042915
2921.3010,0.043273
2922.2329,0.043068
2923.1647,0.043157
2924.0965,0.043569
2925.0284,0.043852
2925.9602,0.044115
2926.8920,0.044054
2927.8239,0.044313
2928.7557,0.044692
2929.6875,0.045094
2930.6194,0.045757
2931.5512,0.045999
2932.4830,0.045878
2933.4149,0.045763
2934.3467,0.046033
2935.2785,0.046506
2936.2104,0.047350
2937.1422,0.047995
2938.0741,0.047456
2939.0059,0.047308
2939.9377,0.047939
2940.8696,0.047907
2941.8014,0.047754
2942.7332,0.047942
2943.6651,0.047647
2944.5969,0.047547
2945.5287,0.047835
2946.4606,0.048538
2947.3924,0.049094
2948.3242,0.049108
2949.2561,0.049043
2950.1879,0.049323
2951.1197,0.049847
2952.0516,0.049482
2952.9834,0.048865
2953.9152,0.049672
2954.8471,0.050685
2955.7789,0.050659
2956.7107,0.050508
2957.6426,0.050710
2958.5744,0.050819
2959.5062,0.051436
2960.4381,0.052299
2961.3699,0.053604
2962.3017,0.054510
2963.2336,0.055069
2964.1654,0.056514
2965.0972,0.058394
2966.0291,0.059848
2966.9609,0.061172
2967.8928,0.062451
2968.8246,0.063828
2969.7564,0.066363
2970.6883,0.069075
2971.6201,0.070756
2972.5519,0.072706
2973.4838,0.074782
2974.4156,0.077265
2975.3474,0.079616
2976.2793,0.081360
2977.2111,0.083177
2978.1429,0.084813
2979.0748,0.086488
2980.0066,0.087771
2980.9384,0.088345
2981.8703,0.088783
2982.8021,0.088607
2983.7339,0.087648
2984.6658,0.087025
2985.5976,0.085660
2986.5294,0.083639
2987.4613,0.082204
2988.3931,0.080070
2989.3249,0.077145
2990.2568,0.075866
2991.1886,0.074503
2992.1204,0.072005
2993.0523,0.070600
2993.9841,0.069747
2994.9160,0.068616
2995.8478,0.066607
2996.7796,0.064993
2997.7115,0.064410
2998.6433,0.064012
2999.5751,0.063488
3000.5070,0.062640
3001.4388,0.062164
3002.3706,0.062245
3003.3025,0.062025
3004.2343,0.062085
3005.1661,0.062224
3006.0980,0.062013
3007.0298,0.062189
3007.9616,0.062210
3008.8935,0.061984
3009.8253,0.062193
3010.7571,0.062938
3011.6890,0.063279
3012.6208,0.063249
3013.5526,0.063488
3014.4845,0.064024
3015.4163,0.064185
3016.3481,0.064074
3017.2800,0.064091
3018.2118,0.064446
3019.1436,0.064508
3020.0755,0.065023
3021.0073,0.066075
3021.9392,0.066895
3022.8710,0.067637
3023.8028,0.067827
3024.7347,0.067884
3025.6665,0.068149
3026.5983,0.068661
3027.5302,0.069167
3028.4620,0.069716
3029.3938,0.070188
3030.3257,0.070531
3031.2575,0.071487
3032.1893,0.073159
3033.1212,0.073934
3034.0530,0.073606
3034.9848,0.073535
3035.9167,0.074208
3036.8485,0.075066
3037.7803,0.076195
3038.7122,0.077550
3039.6440,0.077970
3040.5758,0.077985
3041.5077,0.078627
3042.4395,0.079514
3043.3713,0.080379
3044.3032,0.081065
3045.2350,0.081059
3046.1668,0.081784
3047.0987,0.083240
3048.0305,0.084042
3048.9624,0.084551
3049.8942,0.085582
3050.8260,0.086764
3051.7579,0.087336
3052.6897,0.088380
3053.6215,0.089129
3054.5534,0.089525
3055.4852,0.089765
3056.4170,0.090187
3057.3489,0.091368
3058.2807,0.092705
3059.2125,0.093546
3060.1444,0.094104
3061.0762,0.094961
3062.0080,0.095439
3062.9399,0.096165
3063.8717,0.097420
3064.8035,0.098271
3065.7354,0.099189
3066.6672,0.100371
3067.5990,0.100815
3068.5309,0.100993
3069.4627,0.101347
3070.3945,0.102826
3071.3264,0.104137
3072.2582,0.104634
3073.1900,0.106313
3074.1219,0.108333
3075.0537,0.108448
3075.9856,0.108395
3076.9174,0.110310
3077.8492,0.111614
3078.7811,0.112025
3079.7129,0.113407
3080.6447,0.113855
3081.5766,0.114051
3082.5084,0.115799
3083.4402,0.117989
3084.3721,0.119090
3085.3039,0.118899
3086.2357,0.118973
3087.1676,0.120096
3088.0994,0.120894
3089.0312,0.121087
3089.9631,0.122780
3090.8949,0.124752
3091.8267,0.125290
3092.7586,0.126573
3093.6904,0.127734
3094.6222,0.128397
3095.5541,0.129234
3096.4859,0.130916
3097.4177,0.132419
3098.3496,0.133448
3099.2814,0.134586
3100.2132,0.135481
3101.1451,0.136455
3102.0769,0.138315
3103.0087,0.139719
3103.9406,0.140981
3104.8724,0.142515
3105.8043,0.144325
3106.7361,0.145085
3107.6679,0.144978
3108.5998,0.146326
3109.5316,0.148207
3110.4634,0.149972
3111.3953,0.150730
3112.3271,0.150285
3113.2589,0.151476
3114.1908,0.153240
3115.1226,0.154500
3116.0544,0.155751
3116.9863,0.157856
3117.9181,0.158434
3118.8499,0.158670
3119.7818,0.160266
3120.7136,0.162199
3121.6454,0.163065
3122.5773,0.163972
3123.5091,0.164672
3124.4409,0.164724
3125.3728,0.165906
3126.3046,0.169284
3127.2364,0.171098
3128.1683,0.172534
3129.1001,0.174037
3130.0319,0.174664
3130.9638,0.175410
3131.8956,0.177825
3132.8275,0.178931
3133.7593,0.179900
3134.6911,0.181882
3135.6230,0.183695
3136.5548,0.185185
3137.4866,0.186811
3138.4185,0.187618
3139.3503,0.188623
3140.2821,0.189576
3141.2140,0.191744
3142.1458,0.193253
3143.0776,0.194477
3144.0095,0.195121
3144.9413,0.196003
3145.8731,0.197631
3146.8050,0.198984
3147.7368,0.200036
3148.6686,0.201268
3149.6005,0.202549
3150.5323,0.204535
3151.4641,0.206203
3152.3960,0.207425
3153.3278,0.207835
3154.2596,0.209849
3155.1915,0.212040
3156.1233,0.213324
3157.0551,0.214384
3157.9870,0.214930
3158.9188,0.215204
3159.8507,0.216561
3160.7825,0.219190
3161.7143,0.220427
3162.6462,0.220515
3163.5780,0.222705
3164.5098,0.224962
3165.4417,0.226014
3166.3735,0.226769
3167.3053,0.229265
3168.2372,0.231228
3169.1690,0.232355
3170.1008,0.232345
3171.0327,0.234371
3171.9645,0.236019
3172.8963,0.236698
3173.8282,0.237991
3174.7600,0.240828
3175.6918,0.242494
3176.6237,0.242470
3177.5555,0.242490
3178.4873,0.244692
3179.4192,0.246271
3180.3510,0.247628
3181.2828,0.249147
3182.2147,0.249252
3183.1465,0.249423
3184.0783,0.251504
3185.0102,0.253614
3185.9420,0.255373
3186.8739,0.256272
3187.8057,0.258102
3188.7375,0.258997
3189.6694,0.259883
3190.6012,0.260834
3191.5330,0.262447
3192.4649,0.264038
3193.3967,0.265945
3194.3285,0.267093
3195.2604,0.267229
3196.1922,0.267520
3197.1240,0.269881
3198.0559,0.271154
3198.9877,0.272521
3199.9195,0.273741
3200.8514,0.275016
3201.7832,0.274832
3202.7150,0.277385
3203.6469,0.277337
3204.5787,0.276286
3205.5105,0.277242
3206.4424,0.277968
3207.3742,0.278758
3208.3060,0.280440
3209.2379,0.281567
3210.1697,0.282735
3211.1015,0.283186
3212.0334,0.285645
3212.9652,0.286635
3213.8971,0.287608
3214.8289,0.289854
3215.7607,0.290493
3216.6926,0.289729
3217.6244,0.290548
3218.5562,0.291381
3219.4881,0.292067
3220.4199,0.292028
3221.3517,0.293201
3222.2836,0.293541
3223.2154,0.295757
3224.1472,0.296182
3225.0791,0.296937
3226.0109,0.298543
3226.9427,0.298790
3227.8746,0.297203
3228.8064,0.298956
3229.7382,0.301492
3230.6701,0.301900
3231.6019,0.300948
3232.5337,0.302518
3233.4656,0.302964
3234.3974,0.302131
3235.3292,0.301732
3236.2611,0.302395
3237.1929,0.302234
3238.1247,0.303328
3239.0566,0.303839
3239.9884,0.303013
3240.9202,0.302116
3241.8521,0.304222
3242.7839,0.305177
3243.7158,0.307590
3244.6476,0.308369
3245.5794,0.307022
3246.5113,0.306720
3247.4431,0.308605
3248.3749,0.308334
3249.3068,0.308729
3250.2386,0.309327
3251.1704,0.306593
3252.1023,0.305556
3253.0341,0.310272
3253.9659,0.312215
3254.8978,0.311805
3255.8296,0.310877
3256.7614,0.311962
3257.6933,0.310811
3258.6251,0.309384
3259.5569,0.308690
3260.4888,0.308670
3261.4206,0.310203
3262.3524,0.314454
3263.2843,0.312666
3264.2161,0.312043
3265.1479,0.312041
3266.0798,0.310341
3267.0116,0.311004
3267.9434,0.314568
3268.8753,0.314259
3269.8071,0.314253
3270.7390,0.313578
3271.6708,0.311487
3272.6026,0.310676
3273.5345,0.312368
3274.4663,0.313251
3275.3981,0.313283
3276.3300,0.311849
3277.2618,0.310465
3278.1936,0.310843
3279.1255,0.312937
3280.0573,0.311899
3280.9891,0.311269
3281.9210,0.311784
3282.8528,0.311647
3283.7846,0.311538
3284.7165,0.312344
3285.6483,0.311857
3286.5801,0.313139
3287.5120,0.313754
3288.4438,0.314092
3289.3756,0.313067
3290.3075,0.313674
3291.2393,0.313905
3292.1711,0.314514
3293.1030,0.314585
3294.0348,0.314893
3294.9666,0.313793
3295.8985,0.314467
3296.8303,0.314442
3297.7622,0.314027
3298.6940,0.313330
3299.6258,0.314449
3300.5577,0.313786
3301.4895,0.314385
3302.4213,0.313198
3303.3532,0.312027
3304.2850,0.311776
3305.2168,0.312474
3306.1487,0.313438
3307.0805,0.313193
3308.0123,0.312545
3308.9442,0.312793
3309.8760,0.312643
3310.8078,0.313818
3311.7397,0.314184
3312.6715,0.313832
3313.6033,0.311800
3314.5352,0.311772
3315.4670,0.312254
3316.3988,0.311735
3317.3307,0.311091
3318.2625,0.312079
3319.1943,0.313350
3320.1262,0.314434
3321.0580,0.316183
3321.9898,0.315791
3322.9217,0.313073
3323.8535,0.315064
3324.7854,0.316447
3325.7172,0.315751
3326.6490,0.314986
3327.5809,0.316688
3328.5127,0.315584
3329.4445,0.315636
3330.3764,0.314786
3331.3082,0.312966
3332.2400,0.311331
3333.1719,0.312950
3334.1037,0.314478
3335.0355,0.314480
3335.9674,0.314884
3336.8992,0.315738
3337.8310,0.316164
3338.7629,0.318128
3339.6947,0.316487
3340.6265,0.314463
3341.5584,0.313561
3342.4902,0.314378
3343.4220,0.313189
3344.3539,0.312381
3345.2857,0.311779
3346.2175,0.312566
3347.1494,0.310861
3348.0812,0.311017
3349.0130,0.313754
3349.9449,0.314098
3350.8767,0.313718
3351.8086,0.316539
3352.7404,0.315694
3353.6722,0.313557
3354.6041,0.311263
3355.5359,0.311297
3356.4677,0.311662
3357.3996,0.311601
3358.3314,0.310096
3359.2632,0.311421
3360.1951,0.312006
3361.1269,0.311860
3362.0587,0.310854
3362.9906,0.309876
3363.9224,0.310740
3364.8542,0.311237
3365.7861,0.308499
3366.7179,0.309822
3367.6497,0.311259
3368.5816,0.310171
3369.5134,0.307785
3370.4452,0.309296
3371.3771,0.309701
3372.3089,0.306369
3373.2407,0.304645
3374.1726,0.308132
3375.1044,0.307363
3376.0362,0.305124
3376.9681,0.304736
3377.8999,0.304891
3378.8317,0.303264
3379.7636,0.302148
3380.6954,0.301161
3381.6273,0.302685
3382.5591,0.303344
3383.4909,0.303499
3384.4228,0.301765
3385.3546,0.301061
3386.2864,0.299342
3387.2183,0.298308
3388.1501,0.298064
3389.0819,0.298920
3390.0138,0.298218
3390.9456,0.297578
3391.8774,0.297357
3392.8093,0.297643
3393.7411,0.296096
3394.6729,0.294416
3395.6048,0.292072
3396.5366,0.291319
3397.4684,0.288280
3398.4003,0.287658
3399.3321,0.289099
3400.2639,0.289943
3401.1958,0.289696
3402.1276,0.289026
3403.0594,0.285589
3403.9913,0.285282
3404.9231,0.285374
3405.8549,0.286530
3406.7868,0.285479
3407.7186,0.284580
3408.6505,0.282521
3409.5823,0.280597
3410.5141,0.277825
3411.4460,0.278546
3412.3778,0.278558
3413.3096,0.279191
3414.2415,0.278322
3415.1733,0.276806
3416.1051,0.274747
3417.0370,0.273577
3417.9688,0.272006
3418.9006,0.270952
3419.8325,0.267778
3420.7643,0.267023
3421.6961,0.268985
3422.6280,0.268666
3423.5598,0.266755
3424.4916,0.266364
3425.4235,0.266114
3426.3553,0.267028
3427.2871,0.263964
3428.2190,0.262556
3429.1508,0.263752
3430.0826,0.262473
3431.0145,0.256360
3431.9463,0.255446
3432.8781,0.255253
3433.8100,0.254533
3434.7418,0.253296
3435.6737,0.255534
3436.6055,0.254689
3437.5373,0.252555
3438.4692,0.248939
3439.4010,0.246528
3440.3328,0.246935
3441.2647,0.246970
3442.1965,0.244045
3443.1283,0.241061
3444.0602,0.239930
3444.9920,0.240827
3445.9238,0.241170
3446.8557,0.240874
3447.7875,0.239499
3448.7193,0.237994
3449.6512,0.236453
3450.5830,0.235474
3451.5148,0.232946
3452.4467,0.233344
3453.3785,0.231590
3454.3103,0.229640
3455.2422,0.229216
3456.1740,0.229639
3457.1058,0.227902
3458.0377,0.226552
3458.9695,0.226074
3459.9013,0.227043
3460.8332,0.224735
3461.7650,0.221865
3462.6969,0.218901
3463.6287,0.218936
3464.5605,0.220753
3465.4924,0.221770
3466.4242,0.219533
3467.3560,0.217135
3468.2879,0.216532
3469.2197,0.216983
3470.1515,0.213349
3471.0834,0.209817
3472.0152,0.207852
3472.9470,0.207983
3473.8789,0.207453
3474.8107,0.205645
3475.7425,0.203954
3476.6744,0.204153
3477.6062,0.202841
3478.5380,0.201492
3479.4699,0.201209
3480.4017,0.201112
3481.3335,0.196841
3482.2654,0.194242
3483.1972,0.195928
3484.1290,0.198629
3485.0609,0.200074
3485.9927,0.198929
3486.9245,0.192213
3487.8564,0.190385
3488.7882,0.191955
3489.7201,0.190960
3490.6519,0.187835
3491.5837,0.185808
3492.5156,0.183190
3493.4474,0.182470
3494.3792,0.183523
3495.3111,0.182974
3496.2429,0.182651
3497.1747,0.184817
3498.1066,0.182090
3499.0384,0.178811
3499.9702,0.177072
3500.9021,0.176034
3501.8339,0.175612
3502.7657,0.176502
3503.6976,0.176472
3504.6294,0.174297
3505.5612,0.170391
3506.4931,0.168518
3507.4249,0.168270
3508.3567,0.169950
3509.2886,0.169053
3510.2204,0.168714
3511.1522,0.167686
3512.0841,0.166799
3513.0159,0.165471
3513.9477,0.163861
3514.8796,0.163494
3515.8114,0.162219
3516.7432,0.158288
3517.6751,0.156588
3518.6069,0.155370
3519.5388,0.154642
3520.4706,0.155043
3521.4024,0.156211
3522.3343,0.154398
3523.2661,0.152327
3524.1979,0.150563
3525.1298,0.149246
3526.0616,0.148013
3526.9934,0.148746
3527.9253,0.148053
3528.8571,0.146896
3529.7889,0.147707
3530.7208,0.146499
3531.6526,0.144049
3532.5844,0.144506
3533.5163,0.144093
3534.4481,0.143619
3535.3799,0.141376
3536.3118,0.138281
3537.2436,0.135882
3538.1754,0.134475
3539.1073,0.133215
3540.0391,0.135387
3540.9709,0.135245
3541.9028,0.131744
3542.8346,0.129776
3543.7664,0.129322
3544.6983,0.128360
3545.6301,0.128680
3546.5620,0.129219
3547.4938,0.127093
3548.4256,0.124040
3549.3575,0.125670
3550.2893,0.126213
3551.2211,0.123440
3552.1530,0.121669
3553.0848,0.121157
3554.0166,0.120573
3554.9485,0.120388
3555.8803,0.118739
3556.8121,0.116525
3557.7440,0.115380
3558.6758,0.116605
3559.6076,0.115568
3560.5395,0.112778
3561.4713,0.112138
3562.4031,0.111216
3563.3350,0.108303
3564.2668,0.108098
3565.1986,0.109073
3566.1305,0.110685
3567.0623,0.109832
3567.9941,0.108267
3568.9260,0.109539
3569.8578,0.109684
3570.7896,0.106528
3571.7215,0.102611
3572.6533,0.099508
3573.5852,0.098831
3574.5170,0.097432
3575.4488,0.096448
3576.3807,0.095073
3577.3125,0.095370
3578.2443,0.096095
3579.1762,0.094747
3580.1080,0.094267
3581.0398,0.095519
3581.9717,0.092717
3582.9035,0.090538
3583.8353,0.090823
3584.7672,0.089347
3585.6990,0.088711
3586.6308,0.090182
3587.5627,0.089547
3588.4945,0.087677
3589.4263,0.086945
3590.3582,0.085480
3591.2900,0.084123
3592.2218,0.084127
3593.1537,0.083805
3594.0855,0.082493
3595.0173,0.081653
3595.9492,0.082659
3596.8810,0.081379
3597.8128,0.079724
3598.7447,0.079337
3599.6765,0.078874
3600.6084,0.078272
3601.5402,0.078788
3602.4720,0.077840
3603.4039,0.075805
3604.3357,0.075363
3605.2675,0.074608
3606.1994,0.072136
3607.1312,0.071002
3608.0630,0.072179
3608.9949,0.073199
3609.9267,0.071321
3610.8585,0.070074
3611.7904,0.070061
3612.7222,0.069149
3613.6540,0.068045
3614.5859,0.068249
3615.5177,0.067345
3616.4495,0.064109
3617.3814,0.062440
3618.3132,0.063560
3619.2450,0.063749
3620.1769,0.061998
3621.1087,0.059428
3622.0405,0.059134
3622.9724,0.060944
3623.9042,0.061338
3624.8360,0.059579
3625.7679,0.058926
3626.6997,0.058555
3627.6316,0.057677
3628.5634,0.057341
3629.4952,0.057432
3630.4271,0.056837
3631.3589,0.057160
3632.2907,0.056717
3633.2226,0.054661
3634.1544,0.053288
3635.0862,0.052062
3636.0181,0.050260
3636.9499,0.049781
3637.8817,0.049406
3638.8136,0.049175
3639.7454,0.048827
3640.6772,0.047806
3641.6091,0.046713
3642.5409,0.047340
3643.4727,0.047120
3644.4046,0.045337
3645.3364,0.045039
3646.2682,0.045233
3647.2001,0.043504
3648.1319,0.041809
3649.0637,0.040668
3649.9956,0.039059
3650.9274,0.039357
3651.8592,0.042127
3652.7911,0.041500
3653.7229,0.039092
3654.6547,0.036851
3655.5866,0.035347
3656.5184,0.035024
3657.4503,0.035188
3658.3821,0.034645
3659.3139,0.034058
3660.2458,0.032699
3661.1776,0.031082
3662.1094,0.031335
3663.0413,0.031911
3663.9731,0.030731
3664.9049,0.030199
3665.8368,0.030130
3666.7686,0.029148
3667.7004,0.028217
3668.6323,0.027703
3669.5641,0.026708
3670.4959,0.025564
3671.4278,0.025280
3672.3596,0.024064
3673.2914,0.022642
3674.2233,0.022090
3675.1551,0.021649
3676.0869,0.022426
3677.0188,0.022403
3677.9506,0.020704
3678.8824,0.017606
3679.8143,0.016197
3680.7461,0.017255
3681.6779,0.017176
3682.6098,0.015661
3683.5416,0.015452
3684.4735,0.015497
3685.4053,0.015055
3686.3371,0.014598
3687.2690,0.014934
3688.2008,0.014832
3689.1326,0.013804
3690.0645,0.012840
3690.9963,0.012233
3691.9281,0.011783
3692.8600,0.012081
3693.7918,0.011596
3694.7236,0.010764
3695.6555,0.009766
3696.5873,0.008649
3697.5191,0.009144
3698.4510,0.009958
3699.3828,0.009432
3700.3146,0.009515
3701.2465,0.010022
3702.1783,0.010070
3703.1101,0.008763
3704.0420,0.007336
3704.9738,0.007118
3705.9056,0.007731
3706.8375,0.007536
3707.7693,0.006840
3708.7011,0.006549
3709.6330,0.006254
3710.5648,0.005625
3711.4967,0.004968
3712.4285,0.005126
3713.3603,0.006112
3714.2922,0.005980
3715.2240,0.005019
3716.1558,0.005540
3717.0877,0.006622
3718.0195,0.006081
3718.9513,0.005166
3719.8832,0.005113
3720.8150,0.005671
3721.7468,0.005241
3722.6787,0.004335
3723.6105,0.004554
3724.5423,0.005243
3725.4742,0.004451
3726.4060,0.003066
3727.3378,0.003367
3728.2697,0.004202
3729.2015,0.004069
3730.1333,0.003601
3731.0652,0.003380
3731.9970,0.003589
3732.9288,0.003865
3733.8607,0.003504
3734.7925,0.003830
3735.7243,0.004282
3736.6562,0.002855
3737.5880,0.002215
3738.5199,0.001348
3739.4517,0.001398
3740.3835,0.002772
3741.3154,0.003341
3742.2472,0.002692
3743.1790,0.002784
3744.1109,0.003352
3745.0427,0.003708
3745.9745,0.003421
3746.9064,0.002628
3747.8382,0.002138
3748.7700,0.002262
3749.7019,0.002512
3750.6337,0.001904
3751.5655,0.001532
3752.4974,0.001761
3753.4292,0.000759
3754.3610,0.000738
3755.2929,0.000700
3756.2247,0.000804
3757.1565,0.001436
3758.0884,0.001778
3759.0202,0.001901
3759.9520,0.001693
3760.8839,0.002137
3761.8157,0.002084
3762.7475,0.001093
3763.6794,0.001496
3764.6112,0.002714
3765.5431,0.003170
3766.4749,0.002827
3767.4067,0.003042
3768.3386,0.002864
3769.2704,0.003002
3770.2022,0.003574
3771.1341,0.002270
3772.0659,0.001306
3772.9977,0.002018
3773.9296,0.002202
3774.8614,0.002230
3775.7932,0.002466
3776.7251,0.002830
3777.6569,0.002913
3778.5887,0.002624
3779.5206,0.001972
3780.4524,0.001519
3781.3842,0.001560
3782.3161,0.001589
3783.2479,0.001679
3784.1797,0.001807
3785.1116,0.002308
3786.0434,0.003065
3786.9752,0.002948
3787.9071,0.002363
3788.8389,0.001618
3789.7707,0.001532
3790.7026,0.002697
3791.6344,0.002970
3792.5662,0.002522
3793.4981,0.002467
3794.4299,0.001919
3795.3618,0.002065
3796.2936,0.002930
3797.2254,0.002468
3798.1573,0.002006
3799.0891,0.002246
3800.0209,0.001812
3800.9528,0.001362
3801.8846,0.001179
3802.8164,0.000917
3803.7483,0.000925
3804.6801,0.002081
3805.6119,0.002435
3806.5438,0.000942
3807.4756,-0.000021
3808.4074,0.000250
3809.3393,0.001121
3810.2711,0.001312
3811.2029,0.001793
3812.1348,0.002300
3813.0666,0.001203
3813.9984,0.001037
3814.9303,0.001752
3815.8621,0.002570
3816.7939,0.002801
3817.7258,0.001830
3818.6576,0.001043
3819.5894,0.000839
3820.5213,0.000568
3821.4531,0.000849
3822.3850,0.001613
3823.3168,0.003184
3824.2486,0.002674
3825.1805,0.001522
3826.1123,0.000658
3827.0441,0.000486
3827.9760,0.001215
3828.9078,0.001761
3829.8396,0.001969
3830.7715,0.001698
3831.7033,0.000847
3832.6351,0.000952
3833.5670,0.001786
3834.4988,0.002319
3835.4306,0.002353
3836.3625,0.001766
3837.2943,0.001178
3838.2261,0.000336
3839.1580,-0.000063
3840.0898,0.001442
3841.0216,0.001617
3841.9535,0.000943
3842.8853,0.002377
3843.8171,0.003454
3844.7490,0.001813
3845.6808,0.000802
3846.6126,0.001091
3847.5445,0.001727
3848.4763,0.001887
3849.4082,0.000380
3850.3400,-0.000717
3851.2718,0.000566
3852.2037,0.001825
3853.1355,0.002243
3854.0673,0.001409
3854.9992,-0.000045
3855.9310,0.000339
3856.8628,0.001660
3857.7947,0.000868
3858.7265,0.000255
3859.6583,0.000964
3860.5902,0.002096
3861.5220,0.002386
3862.4538,0.002696
3863.3857,0.001990
3864.3175,0.001601
3865.2493,0.001318
3866.1812,0.001311
3867.1130,0.001991
3868.0448,0.002030
3868.9767,0.001213
3869.9085,0.000825
3870.8403,0.000836
3871.7722,0.000840
3872.7040,0.000434
3873.6358,0.000285
3874.5677,0.000712
3875.4995,0.000769
3876.4314,0.001275
3877.3632,0.001116
3878.2950,0.000626
3879.2269,0.000978
3880.1587,0.000997
3881.0905,0.000981
3882.0224,0.000782
3882.9542,0.001927
3883.8860,0.002792
3884.8179,0.002495
3885.7497,0.001927
3886.6815,0.001160
3887.6134,0.000743
3888.5452,0.000835
3889.4770,0.000578
3890.4089,0.000701
3891.3407,0.000367
3892.2725,0.001152
3893.2044,0.001978
3894.1362,0.002041
3895.0680,0.002074
3895.9999,0.001155
3896.9317,0.000503
3897.8635,0.000620
3898.7954,0.001445
3899.7272,0.001806
3900.6590,0.001568
3901.5909,0.001800
3902.5227,0.001839
3903.4546,0.002049
3904.3864,0.001589
3905.3182,0.001358
3906.2501,0.001365
3907.1819,0.001738
3908.1137,0.001336
3909.0456,0.000441
3909.9774,0.000210
3910.9092,0.000910
3911.8411,0.002048
3912.7729,0.001520
3913.7047,0.001187
3914.6366,0.001617
3915.5684,0.001296
3916.5002,0.000862
3917.4321,0.001002
3918.3639,0.001616
3919.2957,0.002745
3920.2276,0.002408
3921.1594,0.001612
3922.0912,0.001484
3923.0231,0.000955
3923.9549,0.000386
3924.8867,0.000883
3925.8186,0.001421
3926.7504,0.001854
3927.6822,0.002167
3928.6141,0.001782
3929.5459,0.001580
3930.4777,0.001458
3931.4096,0.001984
3932.3414,0.001812
3933.2733,0.001137
3934.2051,0.001670
3935.1369,0.002181
3936.0688,0.002058
3937.0006,0.002495
3937.9324,0.002269
3938.8643,0.001592
3939.7961,0.001958
3940.7279,0.001902
3941.6598,0.001521
3942.5916,0.001637
3943.5234,0.001375
3944.4553,0.001532
3945.3871,0.002074
3946.3189,0.002286
3947.2508,0.001695
3948.1826,0.001480
3949.1144,0.001755
3950.0463,0.002027
3950.9781,0.002037
3951.9099,0.001437
3952.8418,0.001679
3953.7736,0.001408
3954.7054,0.001453
3955.6373,0.001534
3956.5691,0.001518
3957.5009,0.002482
3958.4328,0.002087
3959.3646,0.001218
3960.2965,0.001469
3961.2283,0.001603
3962.1601,0.002121
3963.0920,0.002116
3964.0238,0.002013
3964.9556,0.002187
3965.8875,0.001845
3966.8193,0.001739
3967.7511,0.001842
3968.6830,0.001628
3969.6148,0.001493
3970.5466,0.001574
3971.4785,0.000700
3972.4103,0.000637
3973.3421,0.002252
3974.2740,0.003467
3975.2058,0.004179
3976.1376,0.003003
3977.0695,0.001056
3978.0013,0.000856
3978.9331,0.001378
3979.8650,0.001523
3980.7968,0.001490
3981.7286,0.001745
3982.6605,0.002030
3983.5923,0.001962
3984.5241,0.001760
3985.4560,0.001224
3986.3878,0.001329
3987.3197,0.001415
3988.2515,0.001756
3989.1833,0.001743
3990.1152,0.001807
3991.0470,0.002256
3991.9788,0.002132
3992.9107,0.001725
3993.8425,0.001702
3994.7743,0.001279
3995.7062,0.001169
3996.6380,0.001876
3997.5698,0.001620
3998.5017,0.000906
3999.4335,0.000633
4000.3653,0.001760
