Wavenumber,Intensity
650.4205,0.391965
651.3523,0.387254
652.2841,0.382648
653.2160,0.383099
654.1478,0.389212
655.0796,0.389583
656.0115,0.382568
656.9433,0.378303
657.8751,0.383589
658.8070,0.385860
659.7388,0.380346
660.6706,0.380428
661.6025,0.371899
662.5343,0.366897
663.4661,0.370615
664.3980,0.367035
665.3298,0.363520
666.2616,0.366290
667.1935,0.371498
668.1253,0.379992
669.0571,0.383563
669.9890,0.369567
670.9208,0.355260
671.8526,0.354915
672.7845,0.357921
673.7163,0.357666
674.6481,0.360778
675.5800,0.362893
676.5118,0.359506
677.4437,0.353174
678.3755,0.346164
679.3073,0.348028
680.2392,0.353056
681.1710,0.356562
682.1028,0.356604
683.0347,0.351736
683.9665,0.344528
684.8983,0.340430
685.8302,0.346324
686.7620,0.349841
687.6938,0.344629
688.6257,0.340677
689.5575,0.340161
690.4893,0.337800
691.4212,0.333575
692.3530,0.336907
693.2848,0.338260
694.2167,0.333580
695.1485,0.330405
696.0803,0.332370
697.0122,0.334804
697.9440,0.332121
698.8758,0.327283
699.8077,0.324516
700.7395,0.321783
701.6713,0.321221
702.6032,0.323474
703.5350,0.321958
704.4669,0.319915
705.3987,0.320423
706.3305,0.318346
707.2624,0.310996
708.1942,0.306704
709.1260,0.311449
710.0579,0.311516
710.9897,0.307701
711.9215,0.306465
712.8534,0.306154
713.7852,0.306398
714.7170,0.305734
715.6489,0.303070
716.5807,0.300349
717.5125,0.300155
718.4444,0.300060
719.3762,0.297438
720.3080,0.295392
721.2399,0.291054
722.1717,0.288867
723.1035,0.292254
724.0354,0.294277
724.9672,0.292062
725.8990,0.290884
726.8309,0.291139
727.7627,0.289925
728.6945,0.285667
729.6264,0.283668
730.5582,0.285047
731.4901,0.284243
732.4219,0.280492
733.3537,0.277342
734.2856,0.274627
735.2174,0.274127
736.1492,0.276221
737.0811,0.275543
738.0129,0.271045
738.9447,0.268665
739.8766,0.267792
740.8084,0.266607
741.7402,0.266561
742.6721,0.268477
743.6039,0.267316
744.5357,0.264231
745.4676,0.261766
746.3994,0.260421
747.3312,0.260927
748.2631,0.260728
749.1949,0.258921
750.1267,0.257247
751.0586,0.254575
751.9904,0.252082
752.9222,0.249300
753.8541,0.248302
754.7859,0.247806
755.7177,0.247459
756.6496,0.247367
757.5814,0.246417
758.5132,0.243946
759.4451,0.242679
760.3769,0.241178
761.3088,0.238990
762.2406,0.237759
763.1724,0.235619
764.1043,0.233748
765.0361,0.232369
765.9679,0.230023
766.8998,0.230389
767.8316,0.231440
768.7634,0.229549
769.6953,0.227559
770.6271,0.227153
771.5589,0.225778
772.4908,0.224136
773.4226,0.223138
774.3544,0.222155
775.2863,0.220467
776.2181,0.219049
777.1499,0.219539
778.0818,0.219621
779.0136,0.216807
779.9454,0.214169
780.8773,0.213034
781.8091,0.213673
782.7409,0.213372
783.6728,0.211559
784.6046,0.209532
785.5364,0.206888
786.4683,0.205454
787.4001,0.205040
788.3320,0.204642
789.2638,0.203640
790.1956,0.201117
791.1275,0.198613
792.0593,0.198404
792.9911,0.197379
793.9230,0.194965
794.8548,0.194165
795.7866,0.193149
796.7185,0.192643
797.6503,0.192758
798.5821,0.192293
799.5140,0.190151
800.4458,0.187732
801.3776,0.186718
802.3095,0.186830
803.2413,0.185689
804.1731,0.183417
805.1050,0.181641
806.0368,0.180629
806.9686,0.179773
807.9005,0.179453
808.8323,0.178188
809.7641,0.175996
810.6960,0.174577
811.6278,0.173855
812.5596,0.173136
813.4915,0.171858
814.4233,0.170030
815.3552,0.169588
816.2870,0.168927
817.2188,0.166772
818.1507,0.164895
819.0825,0.162880
820.0143,0.160808
820.9462,0.159925
821.8780,0.159958
822.8098,0.159325
823.7417,0.157947
824.6735,0.157685
825.6053,0.156596
826.5372,0.154725
827.4690,0.153589
828.4008,0.153542
829.3327,0.153082
830.2645,0.151674
831.1963,0.149688
832.1282,0.148686
833.0600,0.147626
833.9918,0.147004
834.9237,0.146068
835.8555,0.144730
836.7873,0.143266
837.7192,0.141566
838.6510,0.140900
839.5828,0.140807
840.5147,0.139667
841.4465,0.137944
842.3784,0.137380
843.3102,0.137166
844.2420,0.136002
845.1739,0.135302
846.1057,0.134497
847.0375,0.133169
847.9694,0.131776
848.9012,0.131577
849.8330,0.131391
850.7649,0.130203
851.6967,0.128789
852.6285,0.127957
853.5604,0.127258
854.4922,0.126996
855.4240,0.126758
856.3559,0.126004
857.2877,0.125446
858.2195,0.124710
859.1514,0.124090
860.0832,0.123718
861.0150,0.123097
861.9469,0.122510
862.8787,0.122163
863.8105,0.122200
864.7424,0.122629
865.6742,0.123013
866.6060,0.123480
867.5379,0.124275
868.4697,0.125072
869.4016,0.126799
870.3334,0.128762
871.2652,0.130542
872.1971,0.133310
873.1289,0.136464
874.0607,0.139987
874.9926,0.143344
875.9244,0.146434
876.8562,0.148627
877.7881,0.149007
878.7199,0.147747
879.6517,0.145033
880.5836,0.141009
881.5154,0.136279
882.4472,0.130664
883.3791,0.124712
884.3109,0.119452
885.2427,0.114994
886.1746,0.111153
887.1064,0.107120
888.0382,0.103456
888.9701,0.100422
889.9019,0.098338
890.8337,0.096330
891.7656,0.093704
892.6974,0.091593
893.6292,0.090628
894.5611,0.089999
895.4929,0.089174
896.4247,0.088230
897.3566,0.087374
898.2884,0.086405
899.2203,0.085438
900.1521,0.084533
901.0839,0.084353
902.0158,0.083885
902.9476,0.083032
903.8794,0.082237
904.8113,0.081609
905.7431,0.081537
906.6749,0.080750
907.6068,0.079538
908.5386,0.078775
909.4704,0.078376
910.4023,0.078124
911.3341,0.077833
912.2659,0.076944
913.1978,0.076318
914.1296,0.076034
915.0614,0.075886
915.9933,0.075470
916.9251,0.074948
917.8569,0.074668
918.7888,0.074200
919.7206,0.073543
920.6524,0.073052
921.5843,0.072831
922.5161,0.072640
923.4479,0.072039
924.3798,0.071682
925.3116,0.071861
926.2435,0.071457
927.1753,0.070581
928.1071,0.069786
929.0390,0.069705
929.9708,0.069636
930.9026,0.068672
931.8345,0.067754
932.7663,0.067321
933.6981,0.067168
934.6300,0.067222
935.5618,0.066751
936.4936,0.066224
937.4255,0.065833
938.3573,0.065383
939.2891,0.064848
940.2210,0.064314
941.1528,0.064171
942.0846,0.063842
943.0165,0.063351
943.9483,0.063230
944.8801,0.063296
945.8120,0.063217
946.7438,0.062719
947.6756,0.062128
948.6075,0.061974
949.5393,0.062141
950.4711,0.061755
951.4030,0.061186
952.3348,0.060830
953.2667,0.060495
954.1985,0.060161
955.1303,0.060118
956.0622,0.059860
956.9940,0.059605
957.9258,0.059272
958.8577,0.058910
959.7895,0.058505
960.7213,0.058494
961.6532,0.058674
962.5850,0.058482
963.5168,0.058054
964.4487,0.057875
965.3805,0.057826
966.3123,0.058104
967.2442,0.058173
968.1760,0.058146
969.1078,0.057915
970.0397,0.057488
970.9715,0.057067
971.9033,0.056785
972.8352,0.056916
973.7670,0.057063
974.6988,0.056972
975.6307,0.057008
976.5625,0.057072
977.4943,0.057029
978.4262,0.057203
979.3580,0.057407
980.2899,0.057347
981.2217,0.057273
982.1535,0.057229
983.0854,0.057274
984.0172,0.057495
984.9490,0.058011
985.8809,0.058454
986.8127,0.058445
987.7445,0.058189
988.6764,0.058307
989.6082,0.058757
990.5400,0.059314
991.4719,0.059524
992.4037,0.059530
993.3355,0.059565
994.2674,0.059830
995.1992,0.060117
996.1310,0.060048
997.0629,0.059948
997.9947,0.060153
998.9265,0.060374
999.8584,0.060437
1000.7902,0.060457
1001.7220,0.060530
1002.6539,0.060616
1003.5857,0.060770
1004.5175,0.060710
1005.4494,0.060774
1006.3812,0.060701
1007.3131,0.060715
1008.2449,0.061054
1009.1767,0.061298
1010.1086,0.061336
1011.0404,0.061498
1011.9722,0.062082
1012.9041,0.062585
1013.8359,0.063008
1014.7677,0.063802
1015.6996,0.064650
1016.6314,0.065251
1017.5632,0.066163
1018.4951,0.067123
1019.4269,0.067692
1020.3587,0.068593
1021.2906,0.069917
1022.2224,0.071624
1023.1542,0.073202
1024.0861,0.074850
1025.0179,0.076764
1025.9497,0.078705
1026.8816,0.080858
1027.8134,0.083950
1028.7452,0.087169
1029.6771,0.090219
1030.6089,0.093855
1031.5407,0.098186
1032.4726,0.103249
1033.4044,0.109151
1034.3362,0.115882
1035.2681,0.123199
1036.1999,0.131883
1037.1318,0.142033
1038.0636,0.152683
1038.9954,0.163528
1039.9273,0.174891
1040.8591,0.186222
1041.7909,0.195945
1042.7228,0.203479
1043.6546,0.208579
1044.5864,0.210054
1045.5183,0.207393
1046.4501,0.201322
1047.3819,0.192134
1048.3138,0.180828
1049.2456,0.168293
1050.1774,0.155570
1051.1093,0.143123
1052.0411,0.131326
1052.9729,0.120330
1053.9048,0.110818
1054.8366,0.102702
1055.7684,0.095615
1056.7003,0.089618
1057.6321,0.084802
1058.5639,0.080740
1059.4958,0.077191
1060.4276,0.074448
1061.3594,0.072759
1062.2913,0.071354
1063.2231,0.070113
1064.1550,0.069302
1065.0868,0.068516
1066.0186,0.068239
1066.9505,0.068566
1067.8823,0.069021
1068.8141,0.069299
1069.7460,0.069884
1070.6778,0.071038
1071.6096,0.072139
1072.5415,0.073103
1073.4733,0.074438
1074.4051,0.076150
1075.3370,0.077809
1076.2688,0.079557
1077.2006,0.081575
1078.1325,0.083564
1079.0643,0.085559
1079.9961,0.087538
1080.9280,0.089623
1081.8598,0.091439
1082.7916,0.092752
1083.7235,0.093724
1084.6553,0.094266
1085.5871,0.094342
1086.5190,0.093812
1087.4508,0.092518
1088.3826,0.090619
1089.3145,0.088394
1090.2463,0.085721
1091.1782,0.082718
1092.1100,0.079528
1093.0418,0.076282
1093.9737,0.072909
1094.9055,0.069643
1095.8373,0.066915
1096.7692,0.064647
1097.7010,0.062472
1098.6328,0.060447
1099.5647,0.058523
1100.4965,0.056857
1101.4283,0.055620
1102.3602,0.054613
1103.2920,0.053589
1104.2238,0.052491
1105.1557,0.051900
1106.0875,0.051415
1107.0193,0.050624
1107.9512,0.050190
1108.8830,0.049889
1109.8148,0.049445
1110.7467,0.049266
1111.6785,0.049079
1112.6103,0.048961
1113.5422,0.048699
1114.4740,0.048405
1115.4058,0.048283
1116.3377,0.048342
1117.2695,0.048207
1118.2014,0.047943
1119.1332,0.047584
1120.0650,0.047508
1120.9969,0.047612
1121.9287,0.047735
1122.8605,0.047750
1123.7924,0.047459
1124.7242,0.047307
1125.6560,0.047279
1126.5879,0.047309
1127.5197,0.047269
1128.4515,0.047114
1129.3834,0.047116
1130.3152,0.046810
1131.2470,0.046473
1132.1789,0.046360
1133.1107,0.046629
1134.0425,0.046727
1134.9744,0.046458
1135.9062,0.046284
1136.8380,0.046211
1137.7699,0.046065
1138.7017,0.045937
1139.6335,0.045854
1140.5654,0.045845
1141.4972,0.045849
1142.4290,0.045686
1143.3609,0.045451
1144.2927,0.045196
1145.2246,0.045261
1146.1564,0.045105
1147.0882,0.044950
1148.0201,0.044888
1148.9519,0.044759
1149.8837,0.044644
1150.8156,0.044534
1151.7474,0.044305
1152.6792,0.044149
1153.6111,0.044139
1154.5429,0.044278
1155.4747,0.044383
1156.4066,0.044111
1157.3384,0.043717
1158.2702,0.043700
1159.2021,0.043704
1160.1339,0.043474
1161.0657,0.043306
1161.9976,0.043121
1162.9294,0.042911
1163.8612,0.042912
1164.7931,0.042789
1165.7249,0.042513
1166.6567,0.042363
1167.5886,0.042180
1168.5204,0.042079
1169.4522,0.042225
1170.3841,0.041962
1171.3159,0.041615
1172.2477,0.041647
1173.1796,0.041835
1174.1114,0.041759
1175.0433,0.041557
1175.9751,0.041521
1176.9069,0.041357
1177.8388,0.041425
1178.7706,0.041792
1179.7024,0.041930
1180.6343,0.041892
1181.5661,0.041655
1182.4979,0.041540
1183.4298,0.041675
1184.3616,0.041579
1185.2934,0.041532
1186.2253,0.041431
1187.1571,0.041310
1188.0889,0.041365
1189.0208,0.041594
1189.9526,0.041788
1190.8844,0.041666
1191.8163,0.041639
1192.7481,0.041704
1193.6799,0.041744
1194.6118,0.041616
1195.5436,0.041605
1196.4754,0.041700
1197.4073,0.041493
1198.3391,0.041499
1199.2709,0.041756
1200.2028,0.041777
1201.1346,0.041564
1202.0665,0.041638
1202.9983,0.041812
1203.9301,0.042068
1204.8620,0.042152
1205.7938,0.042149
1206.7256,0.042239
1207.6575,0.042080
1208.5893,0.041896
1209.5211,0.041943
1210.4530,0.042052
1211.3848,0.041945
1212.3166,0.041999
1213.2485,0.042190
1214.1803,0.042377
1215.1121,0.042374
1216.0440,0.042240
1216.9758,0.042455
1217.9076,0.042690
1218.8395,0.042618
1219.7713,0.042413
1220.7031,0.042358
1221.6350,0.042441
1222.5668,0.042478
1223.4986,0.042446
1224.4305,0.042409
1225.3623,0.042489
1226.2941,0.042574
1227.2260,0.042752
1228.1578,0.042852
1229.0897,0.042699
1230.0215,0.042820
1230.9533,0.043016
1231.8852,0.043053
1232.8170,0.042891
1233.7488,0.043009
1234.6807,0.043235
1235.6125,0.043314
1236.5443,0.043344
1237.4762,0.043367
1238.4080,0.043256
1239.3398,0.043270
1240.2717,0.043595
1241.2035,0.043817
1242.1353,0.043867
1243.0672,0.043962
1243.9990,0.043920
1244.9308,0.044037
1245.8627,0.044120
1246.7945,0.044160
1247.7263,0.044329
1248.6582,0.044757
1249.5900,0.044980
1250.5218,0.045016
1251.4537,0.044991
1252.3855,0.044986
1253.3173,0.045180
1254.2492,0.045548
1255.1810,0.045866
1256.1129,0.046207
1257.0447,0.046410
1257.9765,0.046578
1258.9084,0.046742
1259.8402,0.046968
1260.7720,0.047246
1261.7039,0.047611
1262.6357,0.048141
1263.5675,0.048552
1264.4994,0.048763
1265.4312,0.049079
1266.3630,0.049522
1267.2949,0.050197
1268.2267,0.050570
1269.1585,0.050791
1270.0904,0.050949
1271.0222,0.051349
1271.9540,0.051820
1272.8859,0.052285
1273.8177,0.052842
1274.7495,0.052764
1275.6814,0.052503
1276.6132,0.052079
1277.5450,0.051930
1278.4769,0.051757
1279.4087,0.051180
1280.3405,0.050878
1281.2724,0.050702
1282.2042,0.050454
1283.1361,0.049962
1284.0679,0.049539
1284.9997,0.049407
1285.9316,0.049207
1286.8634,0.049197
1287.7952,0.049273
1288.7271,0.049254
1289.6589,0.049215
1290.5907,0.049452
1291.5226,0.049457
1292.4544,0.049333
1293.3862,0.049267
1294.3181,0.049250
1295.2499,0.049168
1296.1817,0.049557
1297.1136,0.049866
1298.0454,0.049781
1298.9772,0.049824
1299.9091,0.050045
1300.8409,0.050314
1301.7727,0.050512
1302.7046,0.050560
1303.6364,0.050730
1304.5682,0.051053
1305.5001,0.051304
1306.4319,0.051660
1307.3637,0.052001
1308.2956,0.052156
1309.2274,0.052228
1310.1592,0.052264
1311.0911,0.052440
1312.0229,0.052739
1312.9548,0.053057
1313.8866,0.053315
1314.8184,0.053433
1315.7503,0.053678
1316.6821,0.053628
1317.6139,0.053618
1318.5458,0.053788
1319.4776,0.054150
1320.4094,0.054525
1321.3413,0.054441
1322.2731,0.054379
1323.2049,0.054245
1324.1368,0.054274
1325.0686,0.054337
1326.0004,0.054276
1326.9323,0.054375
1327.8641,0.054311
1328.7959,0.053954
1329.7278,0.054088
1330.6596,0.054075
1331.5914,0.053698
1332.5233,0.053479
1333.4551,0.053508
1334.3869,0.053386
1335.3188,0.052914
1336.2506,0.052438
1337.1824,0.052289
1338.1143,0.052094
1339.0461,0.052052
1339.9780,0.052309
1340.9098,0.052526
1341.8416,0.052276
1342.7735,0.051578
1343.7053,0.051159
1344.6371,0.050979
1345.5690,0.050743
1346.5008,0.050254
1347.4326,0.049771
1348.3645,0.049634
1349.2963,0.049594
1350.2281,0.049494
1351.1600,0.049615
1352.0918,0.049758
1353.0236,0.049587
1353.9555,0.049142
1354.8873,0.049280
1355.8191,0.049408
1356.7510,0.049076
1357.6828,0.048902
1358.6146,0.048771
1359.5465,0.048576
1360.4783,0.048361
1361.4101,0.048603
1362.3420,0.049380
1363.2738,0.050161
1364.2056,0.051007
1365.1375,0.050979
1366.0693,0.050280
1367.0012,0.050180
1367.9330,0.050820
1368.8648,0.051198
1369.7967,0.051618
1370.7285,0.052156
1371.6603,0.052622
1372.5922,0.053351
1373.5240,0.054166
1374.4558,0.055417
1375.3877,0.057332
1376.3195,0.058568
1377.2513,0.058775
1378.1832,0.059044
1379.1150,0.059456
1380.0468,0.060064
1380.9787,0.060445
1381.9105,0.060524
1382.8423,0.060673
1383.7742,0.060919
1384.7060,0.061167
1385.6378,0.061222
1386.5697,0.061185
1387.5015,0.061216
1388.4333,0.062030
1389.3652,0.062240
1390.2970,0.060921
1391.2288,0.059723
1392.1607,0.059178
1393.0925,0.058782
1394.0244,0.058396
1394.9562,0.058583
1395.8880,0.059676
1396.8199,0.060033
1397.7517,0.059264
1398.6835,0.059193
1399.6154,0.060199
1400.5472,0.060871
1401.4790,0.060001
1402.4109,0.059095
1403.3427,0.059017
1404.2745,0.059531
1405.2064,0.060128
1406.1382,0.060998
1407.0700,0.061328
1408.0019,0.060955
1408.9337,0.060836
1409.8655,0.060822
1410.7974,0.060801
1411.7292,0.060799
1412.6610,0.060826
1413.5929,0.060692
1414.5247,0.060462
1415.4565,0.060140
1416.3884,0.059808
1417.3202,0.059973
1418.2520,0.060262
1419.1839,0.060601
1420.1157,0.062120
1421.0476,0.062315
1421.9794,0.060807
1422.9112,0.059923
1423.8431,0.059776
1424.7749,0.060094
1425.7067,0.059974
1426.6386,0.059197
1427.5704,0.058227
1428.5022,0.057510
1429.4341,0.057305
1430.3659,0.057383
1431.2977,0.057365
1432.2296,0.056385
1433.1614,0.055482
1434.0932,0.055084
1435.0251,0.054859
1435.9569,0.054673
1436.8887,0.055318
1437.8206,0.057631
1438.7524,0.056847
1439.6842,0.054994
1440.6161,0.054552
1441.5479,0.054350
1442.4797,0.054285
1443.4116,0.054156
1444.3434,0.054210
1445.2752,0.054457
1446.2071,0.054865
1447.1389,0.055561
1448.0707,0.056765
1449.0026,0.058511
1449.9344,0.058839
1450.8663,0.058448
1451.7981,0.058222
1452.7299,0.058426
1453.6618,0.058502
1454.5936,0.057673
1455.5254,0.056851
1456.4573,0.056564
1457.3891,0.057587
1458.3209,0.059236
1459.2528,0.058202
1460.1846,0.056066
1461.1164,0.053847
1462.0483,0.051854
1462.9801,0.050590
1463.9119,0.049574
1464.8438,0.049017
1465.7756,0.049133
1466.7074,0.048872
1467.6393,0.047622
1468.5711,0.046476
1469.5029,0.045742
1470.4348,0.044977
1471.3666,0.044334
1472.2984,0.044888
1473.2303,0.046791
1474.1621,0.047402
1475.0939,0.046790
1476.0258,0.046269
1476.9576,0.046639
1477.8895,0.047189
1478.8213,0.046330
1479.7531,0.045551
1480.6850,0.045701
1481.6168,0.046483
1482.5486,0.046771
1483.4805,0.046396
1484.4123,0.045883
1485.3441,0.045470
1486.2760,0.045145
1487.2078,0.044929
1488.1396,0.045219
1489.0715,0.045673
1490.0033,0.045830
1490.9351,0.046280
1491.8670,0.046032
1492.7988,0.044366
1493.7306,0.043009
1494.6625,0.042229
1495.5943,0.041821
1496.5261,0.042037
1497.4580,0.043314
1498.3898,0.043622
1499.3216,0.043533
1500.2535,0.043751
1501.1853,0.043002
1502.1171,0.042017
1503.0490,0.041355
1503.9808,0.040792
1504.9127,0.039976
1505.8445,0.039670
1506.7763,0.041927
1507.7082,0.045818
1508.6400,0.044753
1509.5718,0.043601
1510.5037,0.043581
1511.4355,0.043190
1512.3673,0.042354
1513.2992,0.042533
1514.2310,0.042577
1515.1628,0.042008
1516.0947,0.042082
1517.0265,0.042714
1517.9583,0.043663
1518.8902,0.043489
1519.8220,0.041749
1520.7538,0.041348
1521.6857,0.042915
1522.6175,0.044730
1523.5493,0.044460
1524.4812,0.043429
1525.4130,0.043145
1526.3448,0.043652
1527.2767,0.043567
1528.2085,0.043643
1529.1403,0.043883
1530.0722,0.043676
1531.0040,0.043078
1531.9359,0.042813
1532.8677,0.043183
1533.7995,0.043850
1534.7314,0.045777
1535.6632,0.046086
1536.5950,0.044241
1537.5269,0.042645
1538.4587,0.041795
1539.3905,0.042250
1540.3224,0.045826
1541.2542,0.048717
1542.1860,0.047589
1543.1179,0.047397
1544.0497,0.047482
1544.9815,0.047007
1545.9134,0.046928
1546.8452,0.047077
1547.7770,0.046374
1548.7089,0.045999
1549.6407,0.046173
1550.5725,0.047133
1551.5044,0.048237
1552.4362,0.047690
1553.3680,0.046826
1554.2999,0.046053
1555.2317,0.046086
1556.1635,0.047214
1557.0954,0.046796
1558.0272,0.045982
1558.9591,0.048772
1559.8909,0.055503
1560.8227,0.056708
1561.7546,0.054070
1562.6864,0.051277
1563.6182,0.050417
1564.5501,0.050724
1565.4819,0.051420
1566.4137,0.051674
1567.3456,0.051662
1568.2774,0.052037
1569.2092,0.052604
1570.1411,0.053882
1571.0729,0.056179
1572.0047,0.055717
1572.9366,0.054457
1573.8684,0.054527
1574.8002,0.054800
1575.7321,0.055495
1576.6639,0.057856
1577.5957,0.060623
1578.5276,0.060905
1579.4594,0.060304
1580.3912,0.060187
1581.3231,0.060632
1582.2549,0.061149
1583.1867,0.061736
1584.1186,0.062598
1585.0504,0.063647
1585.9822,0.064593
1586.9141,0.065304
1587.8459,0.066043
1588.7778,0.066980
1589.7096,0.067796
1590.6414,0.068786
1591.5733,0.070006
1592.5051,0.070715
1593.4369,0.071572
1594.3688,0.072283
1595.3006,0.073617
1596.2324,0.075743
1597.1643,0.077503
1598.0961,0.079006
1599.0279,0.079895
1599.9598,0.080543
1600.8916,0.081804
1601.8234,0.083517
1602.7553,0.085442
1603.6871,0.087311
1604.6189,0.089117
1605.5508,0.090224
1606.4826,0.091481
1607.4144,0.093441
1608.3463,0.095986
1609.2781,0.098150
1610.2099,0.100472
1611.1418,0.102805
1612.0736,0.103806
1613.0054,0.104296
1613.9373,0.105416
1614.8691,0.107282
1615.8010,0.109731
1616.7328,0.113666
1617.6646,0.120976
1618.5965,0.125251
1619.5283,0.123116
1620.4601,0.122471
1621.3920,0.124082
1622.3238,0.125232
1623.2556,0.127255
1624.1875,0.133050
1625.1193,0.138928
1626.0511,0.138748
1626.9830,0.137842
1627.9148,0.139481
1628.8466,0.142806
1629.7785,0.144241
1630.7103,0.143407
1631.6421,0.142647
1632.5740,0.143197
1633.5058,0.144337
1634.4376,0.144478
1635.3695,0.146134
1636.3013,0.154113
1637.2331,0.160793
1638.1650,0.157679
1639.0968,0.154920
1640.0286,0.152848
1640.9605,0.150682
1641.8923,0.149434
1642.8242,0.148090
1643.7560,0.147045
1644.6878,0.145879
1645.6197,0.144763
1646.5515,0.145969
1647.4833,0.148997
1648.4152,0.149340
1649.3470,0.146704
1650.2788,0.142360
1651.2107,0.138708
1652.1425,0.137059
1653.0743,0.139031
1654.0062,0.147014
1654.9380,0.148078
1655.8698,0.141695
1656.8017,0.136625
1657.7335,0.133112
1658.6653,0.131019
1659.5972,0.129010
1660.5290,0.126537
1661.4608,0.124665
1662.3927,0.123293
1663.3245,0.122519
1664.2563,0.122032
1665.1882,0.118674
1666.1200,0.115401
1667.0518,0.113466
1667.9837,0.111544
1668.9155,0.109824
1669.8474,0.108884
1670.7792,0.108249
1671.7110,0.106550
1672.6429,0.104153
1673.5747,0.101983
1674.5065,0.099259
1675.4384,0.097511
1676.3702,0.098078
1677.3020,0.096910
1678.2339,0.093398
1679.1657,0.090692
1680.0975,0.088583
1681.0294,0.086251
1681.9612,0.084087
1682.8930,0.082548
1683.8249,0.081064
1684.7567,0.081233
1685.6885,0.082150
1686.6204,0.079633
1687.5522,0.076393
1688.4840,0.073945
1689.4159,0.072286
1690.3477,0.070950
1691.2795,0.069611
1692.2114,0.067934
1693.1432,0.065773
1694.0750,0.064137
1695.0069,0.062688
1695.9387,0.060723
1696.8706,0.059862
1697.8024,0.059929
1698.7342,0.057953
1699.6661,0.056248
1700.5979,0.055007
1701.5297,0.054058
1702.4616,0.052943
1703.3934,0.051715
1704.3252,0.050515
1705.2571,0.048822
1706.1889,0.047591
1707.1207,0.047666
1708.0526,0.047076
1708.9844,0.045531
1709.9162,0.044139
1710.8481,0.043114
1711.7799,0.042397
1712.7117,0.041462
1713.6436,0.040157
1714.5754,0.038908
1715.5072,0.038425
1716.4391,0.037916
1717.3709,0.036592
1718.3027,0.036405
1719.2346,0.036210
1720.1664,0.034998
1721.0982,0.034205
1722.0301,0.033450
1722.9619,0.033137
1723.8937,0.033312
1724.8256,0.032782
1725.7574,0.031863
1726.6893,0.031034
1727.6211,0.030196
1728.5529,0.029642
1729.4848,0.029264
1730.4166,0.028890
1731.3484,0.028964
1732.2803,0.028512
1733.2121,0.027336
1734.1439,0.026731
1735.0758,0.027259
1736.0076,0.027337
1736.9394,0.026165
1737.8713,0.025214
1738.8031,0.024503
1739.7349,0.024167
1740.6668,0.024207
1741.5986,0.023750
1742.5304,0.023352
1743.4623,0.023324
1744.3941,0.023183
1745.3259,0.023243
1746.2578,0.023168
1747.1896,0.022599
1748.1214,0.022045
1749.0533,0.021350
1749.9851,0.020888
1750.9169,0.020956
1751.8488,0.020727
1752.7806,0.020531
1753.7125,0.020402
1754.6443,0.019910
1755.5761,0.019454
1756.5080,0.019361
1757.4398,0.019291
1758.3716,0.019256
1759.3035,0.019212
1760.2353,0.018812
1761.1671,0.018328
1762.0990,0.018020
1763.0308,0.018209
1763.9626,0.018398
1764.8945,0.018101
1765.8263,0.017532
1766.7581,0.016829
1767.6900,0.016961
1768.6218,0.017808
1769.5536,0.018035
1770.4855,0.016974
1771.4173,0.015915
1772.3491,0.015878
1773.2810,0.016219
1774.2128,0.016389
1775.1446,0.016148
1776.0765,0.015681
1777.0083,0.015621
1777.9401,0.015421
1778.8720,0.014652
1779.8038,0.014768
1780.7357,0.015343
1781.6675,0.015305
1782.5993,0.014987
1783.5312,0.014182
1784.4630,0.014071
1785.3948,0.014410
1786.3267,0.014437
1787.2585,0.014655
1788.1903,0.014474
1789.1222,0.013916
1790.0540,0.013877
1790.9858,0.014171
1791.9177,0.014030
1792.8495,0.013636
1793.7813,0.013711
1794.7132,0.013803
1795.6450,0.013306
1796.5768,0.012787
1797.5087,0.013077
1798.4405,0.013773
1799.3723,0.013406
1800.3042,0.013046
1801.2360,0.013034
1802.1678,0.012484
1803.0997,0.012690
1804.0315,0.013203
1804.9633,0.012916
1805.8952,0.012593
1806.8270,0.012809
1807.7589,0.012847
1808.6907,0.012704
1809.6225,0.012698
1810.5544,0.012510
1811.4862,0.012173
1812.4180,0.011924
1813.3499,0.012044
1814.2817,0.012089
1815.2135,0.011841
1816.1454,0.011577
1817.0772,0.011863
1818.0090,0.012031
1818.9409,0.011455
1819.8727,0.011401
1820.8045,0.011670
1821.7364,0.011529
1822.6682,0.011223
1823.6000,0.010858
1824.5319,0.010987
1825.4637,0.011036
1826.3955,0.010703
1827.3274,0.011318
1828.2592,0.011295
1829.1910,0.010067
1830.1229,0.009410
1831.0547,0.010038
1831.9865,0.010993
1832.9184,0.011047
1833.8502,0.011007
1834.7821,0.011340
1835.7139,0.010935
1836.6457,0.010304
1837.5776,0.010562
1838.5094,0.010648
1839.4412,0.010805
1840.3731,0.011017
1841.3049,0.010627
1842.2367,0.010365
1843.1686,0.009700
1844.1004,0.008866
1845.0322,0.009452
1845.9641,0.010126
1846.8959,0.009595
1847.8277,0.009649
1848.7596,0.010195
1849.6914,0.009926
1850.6232,0.009432
1851.5551,0.009565
1852.4869,0.009838
1853.4187,0.010254
1854.3506,0.010344
1855.2824,0.009640
1856.2142,0.008808
1857.1461,0.009025
1858.0779,0.010113
1859.0097,0.010417
1859.9416,0.009429
1860.8734,0.008795
1861.8052,0.008979
1862.7371,0.009030
1863.6689,0.009577
1864.6008,0.010021
1865.5326,0.009548
1866.4644,0.009156
1867.3963,0.009332
1868.3281,0.009528
1869.2599,0.009698
1870.1918,0.008880
1871.1236,0.008768
1872.0554,0.009431
1872.9873,0.009021
1873.9191,0.008720
1874.8509,0.008997
1875.7828,0.009351
1876.7146,0.009770
1877.6464,0.010129
1878.5783,0.009904
1879.5101,0.009269
1880.4419,0.009022
1881.3738,0.009192
1882.3056,0.009050
1883.2374,0.008816
1884.1693,0.009037
1885.1011,0.009281
1886.0329,0.009570
1886.9648,0.009967
1887.8966,0.009649
1888.8284,0.008651
1889.7603,0.007638
1890.6921,0.007375
1891.6240,0.008347
1892.5558,0.008543
1893.4876,0.007840
1894.4195,0.008272
1895.3513,0.009130
1896.2831,0.009392
1897.2150,0.009586
1898.1468,0.009083
1899.0786,0.008049
1900.0105,0.008450
1900.9423,0.009279
1901.8741,0.009416
1902.8060,0.009720
1903.7378,0.009945
1904.6696,0.009869
1905.6015,0.010081
1906.5333,0.009804
1907.4651,0.009354
1908.3970,0.009700
1909.3288,0.010779
1910.2606,0.010073
1911.1925,0.008043
1912.1243,0.008597
1913.0561,0.009852
1913.9880,0.009689
1914.9198,0.008923
1915.8516,0.008240
1916.7835,0.010207
1917.7153,0.012351
1918.6472,0.010659
1919.5790,0.008680
1920.5108,0.008362
1921.4427,0.008068
1922.3745,0.008499
1923.3063,0.009356
1924.2382,0.008967
1925.1700,0.008525
1926.1018,0.008574
1927.0337,0.008753
1927.9655,0.008429
1928.8973,0.008059
1929.8292,0.007688
1930.7610,0.007201
1931.6928,0.007897
1932.6247,0.008806
1933.5565,0.008507
1934.4883,0.008260
1935.4202,0.007573
1936.3520,0.006994
1937.2838,0.007795
1938.2157,0.008191
1939.1475,0.007815
1940.0793,0.006911
1941.0112,0.006808
1941.9430,0.008074
1942.8748,0.008188
1943.8067,0.006867
1944.7385,0.007128
1945.6704,0.008517
1946.6022,0.008488
1947.5340,0.006847
1948.4659,0.005698
1949.3977,0.006310
1950.3295,0.006736
1951.2614,0.005638
1952.1932,0.004850
1953.1250,0.007207
1954.0569,0.007825
1954.9887,0.006656
1955.9205,0.006832
1956.8524,0.006326
1957.7842,0.004866
1958.7160,0.005384
1959.6479,0.005871
1960.5797,0.005015
1961.5115,0.005287
1962.4434,0.007483
1963.3752,0.007303
1964.3070,0.006606
1965.2389,0.008224
1966.1707,0.009413
1967.1025,0.006243
1968.0344,0.003169
1968.9662,0.004156
1969.8980,0.003847
1970.8299,0.006915
1971.7617,0.008959
1972.6936,0.005001
1973.6254,0.003185
1974.5572,0.001930
1975.4891,-0.000889
1976.4209,0.001539
1977.3527,0.005089
1978.2846,0.005347
1979.2164,0.003704
1980.1482,0.001000
1981.0801,0.001092
1982.0119,0.002187
1982.9437,0.003332
1983.8756,0.005629
1984.8074,0.006247
1985.7392,0.004554
1986.6711,0.003546
1987.6029,0.004377
1988.5347,0.006335
1989.4666,0.006853
1990.3984,0.005170
1991.3302,0.007679
1992.2621,0.011316
1993.1939,0.009555
1994.1257,0.008189
1995.0576,0.007797
1995.9894,0.007795
1996.9212,0.006922
1997.8531,0.005235
1998.7849,0.006145
1999.7167,0.008576
2000.6486,0.009562
2001.5804,0.007500
2002.5123,0.007738
2003.4441,0.008546
2004.3759,0.007063
2005.3078,0.007993
2006.2396,0.005705
2007.1714,0.002471
2008.1033,0.001684
2009.0351,0.001900
2009.9669,0.003444
2010.8988,0.005156
2011.8306,0.006013
2012.7624,0.005072
2013.6943,0.005266
2014.6261,0.005867
2015.5579,0.004721
2016.4898,0.004561
2017.4216,0.003906
2018.3534,0.004028
2019.2853,0.007108
2020.2171,0.007055
2021.1489,0.003411
2022.0808,0.002875
2023.0126,0.005265
2023.9444,0.006821
2024.8763,0.005315
2025.8081,0.006526
2026.7399,0.007975
2027.6718,0.007618
2028.6036,0.006522
2029.5355,0.005523
2030.4673,0.006595
2031.3991,0.007997
2032.3310,0.006072
2033.2628,0.005307
2034.1946,0.005084
2035.1265,0.004736
2036.0583,0.007969
2036.9901,0.009306
2037.9220,0.008980
2038.8538,0.006427
2039.7856,0.005946
2040.7175,0.009163
2041.6493,0.009954
2042.5811,0.007903
2043.5130,0.007548
2044.4448,0.006876
2045.3766,0.004213
2046.3085,0.002422
2047.2403,0.005825
2048.1721,0.010448
2049.1040,0.009457
2050.0358,0.007298
2050.9676,0.007124
2051.8995,0.007417
2052.8313,0.007899
2053.7631,0.010281
2054.6950,0.011803
2055.6268,0.012404
2056.5587,0.012931
2057.4905,0.010964
2058.4223,0.009346
2059.3542,0.009776
2060.2860,0.011188
2061.2178,0.013061
2062.1497,0.012270
2063.0815,0.009602
2064.0133,0.009739
2064.9452,0.012056
2065.8770,0.013627
2066.8088,0.011237
2067.7407,0.009627
2068.6725,0.010578
2069.6043,0.010518
2070.5362,0.012527
2071.4680,0.014523
2072.3998,0.013740
2073.3317,0.012256
2074.2635,0.011958
2075.1953,0.012848
2076.1272,0.013103
2077.0590,0.012599
2077.9908,0.012377
2078.9227,0.012766
2079.8545,0.013593
2080.7863,0.013599
2081.7182,0.014338
2082.6500,0.013548
2083.5819,0.013668
2084.5137,0.015535
2085.4455,0.014664
2086.3774,0.013776
2087.3092,0.014121
2088.2410,0.014002
2089.1729,0.013950
2090.1047,0.014725
2091.0365,0.014486
2091.9684,0.013621
2092.9002,0.014380
2093.8320,0.013996
2094.7639,0.012679
2095.6957,0.011409
2096.6275,0.011293
2097.5594,0.011717
2098.4912,0.014290
2099.4230,0.015981
2100.3549,0.014608
2101.2867,0.013696
2102.2185,0.012764
2103.1504,0.012763
2104.0822,0.013577
2105.0140,0.014189
2105.9459,0.014115
2106.8777,0.013868
2107.8095,0.014400
2108.7414,0.014863
2109.6732,0.015263
2110.6051,0.015214
2111.5369,0.014649
2112.4687,0.014871
2113.4006,0.014716
2114.3324,0.013622
2115.2642,0.013628
2116.1961,0.014362
2117.1279,0.015245
2118.0597,0.015496
2118.9916,0.015405
2119.9234,0.015956
2120.8552,0.016655
2121.7871,0.015720
2122.7189,0.014891
2123.6507,0.014468
2124.5826,0.014768
2125.5144,0.014804
2126.4462,0.014353
2127.3781,0.015247
2128.3099,0.013947
2129.2417,0.013198
2130.1736,0.014621
2131.1054,0.013032
2132.0372,0.013532
2132.9691,0.014095
2133.9009,0.010931
2134.8327,0.010393
2135.7646,0.011834
2136.6964,0.012036
2137.6282,0.011767
2138.5601,0.012995
2139.4919,0.012808
2140.4238,0.010818
2141.3556,0.010364
2142.2874,0.010101
2143.2193,0.010996
2144.1511,0.013523
2145.0829,0.012164
2146.0148,0.009916
2146.9466,0.009686
2147.8784,0.011659
2148.8103,0.014292
2149.7421,0.012321
2150.6739,0.006173
2151.6058,0.005398
2152.5376,0.007946
2153.4694,0.008509
2154.4013,0.008095
2155.3331,0.008109
2156.2649,0.007827
2157.1968,0.008338
2158.1286,0.007229
2159.0604,0.001977
2159.9923,-0.000199
2160.9241,0.000611
2161.8559,-0.000484
2162.7878,0.002153
2163.7196,0.006770
2164.6514,0.008021
2165.5833,0.009316
2166.5151,0.009223
2167.4470,0.008331
2168.3788,0.005942
2169.3106,0.006954
2170.2425,0.007627
2171.1743,0.005420
2172.1061,0.005939
2173.0380,0.007787
2173.9698,0.008815
2174.9016,0.010791
2175.8335,0.011862
2176.7653,0.008650
2177.6971,0.007031
2178.6290,0.006680
2179.5608,0.007251
2180.4926,0.007890
2181.4245,0.006211
2182.3563,0.005591
2183.2881,0.008449
2184.2200,0.007720
2185.1518,0.005276
2186.0836,0.005660
2187.0155,0.006767
2187.9473,0.006602
2188.8791,0.005974
2189.8110,0.006438
2190.7428,0.007483
2191.6746,0.009553
2192.6065,0.010022
2193.5383,0.008824
2194.4702,0.006447
2195.4020,0.006808
2196.3338,0.010195
2197.2657,0.010329
2198.1975,0.009676
2199.1293,0.008872
2200.0612,0.009028
2200.9930,0.009951
2201.9248,0.010345
2202.8567,0.008527
2203.7885,0.006690
2204.7203,0.006312
2205.6522,0.006977
2206.5840,0.010143
2207.5158,0.012042
2208.4477,0.010733
2209.3795,0.010046
2210.3113,0.011027
2211.2432,0.012483
2212.1750,0.010059
2213.1068,0.007893
2214.0387,0.009091
2214.9705,0.009613
2215.9023,0.010203
2216.8342,0.009829
2217.7660,0.008278
2218.6978,0.008176
2219.6297,0.009610
2220.5615,0.009021
2221.4934,0.007837
2222.4252,0.008858
2223.3570,0.009507
2224.2889,0.009819
2225.2207,0.010172
2226.1525,0.011120
2227.0844,0.011079
2228.0162,0.008672
2228.9480,0.007402
2229.8799,0.008748
2230.8117,0.009944
2231.7435,0.009517
2232.6754,0.009716
2233.6072,0.010805
2234.5390,0.010989
2235.4709,0.010440
2236.4027,0.010272
2237.3345,0.010118
2238.2664,0.010281
2239.1982,0.010389
2240.1300,0.010087
2241.0619,0.009143
2241.9937,0.008436
2242.9255,0.009610
2243.8574,0.011687
2244.7892,0.011236
2245.7210,0.008869
2246.6529,0.007623
2247.5847,0.007751
2248.5166,0.007731
2249.4484,0.009198
2250.3802,0.011420
2251.3121,0.011142
2252.2439,0.010296
2253.1757,0.010154
2254.1076,0.009335
2255.0394,0.009171
2255.9712,0.009621
2256.9031,0.009248
2257.8349,0.009022
2258.7667,0.009683
2259.6986,0.008452
2260.6304,0.007936
2261.5622,0.009284
2262.4941,0.010416
2263.4259,0.010373
2264.3577,0.008877
2265.2896,0.007003
2266.2214,0.006637
2267.1532,0.007901
2268.0851,0.008688
2269.0169,0.008359
2269.9487,0.008565
2270.8806,0.009483
2271.8124,0.009542
2272.7442,0.009950
2273.6761,0.009463
2274.6079,0.008957
2275.5397,0.010831
2276.4716,0.010694
2277.4034,0.010627
2278.3353,0.011213
2279.2671,0.010101
2280.1989,0.009766
2281.1308,0.009942
2282.0626,0.010920
2282.9944,0.011672
2283.9263,0.010809
2284.8581,0.009276
2285.7899,0.009168
2286.7218,0.009870
2287.6536,0.010761
2288.5854,0.011516
2289.5173,0.010832
2290.4491,0.010760
2291.3809,0.010653
2292.3128,0.010364
2293.2446,0.010327
2294.1764,0.009583
2295.1083,0.009347
2296.0401,0.009731
2296.9719,0.009279
2297.9038,0.009285
2298.8356,0.009685
2299.7674,0.008944
2300.6993,0.008516
2301.6311,0.009683
2302.5629,0.010431
2303.4948,0.009698
2304.4266,0.009008
2305.3585,0.009011
2306.2903,0.009331
2307.2221,0.010026
2308.1540,0.010068
2309.0858,0.009928
2310.0176,0.010032
2310.9495,0.010438
2311.8813,0.009422
2312.8131,0.009301
2313.7450,0.009274
2314.6768,0.008925
2315.6086,0.008396
2316.5405,0.008935
2317.4723,0.009566
2318.4041,0.008956
2319.3360,0.008219
2320.2678,0.008282
2321.1996,0.009630
2322.1315,0.010762
2323.0633,0.009797
2323.9951,0.009702
2324.9270,0.009582
2325.8588,0.009089
2326.7906,0.008936
2327.7225,0.008665
2328.6543,0.008106
2329.5861,0.008152
2330.5180,0.009054
2331.4498,0.009316
2332.3817,0.008134
2333.3135,0.007628
2334.2453,0.008581
2335.1772,0.009730
2336.1090,0.009643
2337.0408,0.008241
2337.9727,0.008103
2338.9045,0.009450
2339.8363,0.009440
2340.7682,0.008525
2341.7000,0.008027
2342.6318,0.007549
2343.5637,0.007458
2344.4955,0.008675
2345.4273,0.009399
2346.3592,0.008941
2347.2910,0.008021
2348.2228,0.007740
2349.1547,0.008132
2350.0865,0.008722
2351.0183,0.009596
2351.9502,0.009790
2352.8820,0.008767
2353.8138,0.008391
2354.7457,0.008700
2355.6775,0.008927
2356.6093,0.008087
2357.5412,0.006410
2358.4730,0.007148
2359.4049,0.008595
2360.3367,0.009552
2361.2685,0.009035
2362.2004,0.007258
2363.1322,0.007774
2364.0640,0.009277
2364.9959,0.007939
2365.9277,0.007183
2366.8595,0.007188
2367.7914,0.006252
2368.7232,0.007224
2369.6550,0.008017
2370.5869,0.007199
2371.5187,0.006532
2372.4505,0.007083
2373.3824,0.008284
2374.3142,0.008562
2375.2460,0.007487
2376.1779,0.006554
2377.1097,0.006748
2378.0415,0.006895
2378.9734,0.006834
2379.9052,0.007236
2380.8370,0.007404
2381.7689,0.006997
2382.7007,0.006926
2383.6325,0.007877
2384.5644,0.008247
2385.4962,0.007822
2386.4281,0.007857
2387.3599,0.007638
2388.2917,0.007539
2389.2236,0.008023
2390.1554,0.008495
2391.0872,0.007397
2392.0191,0.006492
2392.9509,0.006634
2393.8827,0.007073
2394.8146,0.007288
2395.7464,0.006975
2396.6782,0.007654
2397.6101,0.007611
2398.5419,0.006986
2399.4737,0.006644
2400.4056,0.006431
2401.3374,0.006502
2402.2692,0.006449
2403.2011,0.006690
2404.1329,0.006864
2405.0647,0.006972
2405.9966,0.006905
2406.9284,0.007063
2407.8602,0.007193
2408.7921,0.006667
2409.7239,0.006873
2410.6557,0.007766
2411.5876,0.006994
2412.5194,0.006361
2413.4512,0.006353
2414.3831,0.006683
2415.3149,0.006593
2416.2468,0.006174
2417.1786,0.005682
2418.1104,0.005578
2419.0423,0.006255
2419.9741,0.007239
2420.9059,0.007027
2421.8378,0.007269
2422.7696,0.006998
2423.7014,0.006158
2424.6333,0.006427
2425.5651,0.006529
2426.4969,0.005990
2427.4288,0.005827
2428.3606,0.006361
2429.2924,0.006786
2430.2243,0.006308
2431.1561,0.006403
2432.0879,0.006785
2433.0198,0.006105
2433.9516,0.005899
2434.8834,0.005501
2435.8153,0.005158
2436.7471,0.005736
2437.6789,0.005278
2438.6108,0.005347
2439.5426,0.006006
2440.4744,0.006043
2441.4063,0.005760
2442.3381,0.005690
2443.2700,0.005882
2444.2018,0.006000
2445.1336,0.006062
2446.0655,0.005776
2446.9973,0.005522
2447.9291,0.005998
2448.8610,0.006258
2449.7928,0.005960
2450.7246,0.005631
2451.6565,0.004969
2452.5883,0.004599
2453.5201,0.004768
2454.4520,0.005099
2455.3838,0.005546
2456.3156,0.005029
2457.2475,0.004686
2458.1793,0.005066
2459.1111,0.005604
2460.0430,0.004739
2460.9748,0.004498
2461.9066,0.005351
2462.8385,0.005731
2463.7703,0.005574
2464.7021,0.005602
2465.6340,0.006024
2466.5658,0.005587
2467.4976,0.005556
2468.4295,0.006255
2469.3613,0.005724
2470.2932,0.004763
2471.2250,0.005254
2472.1568,0.006185
2473.0887,0.005618
2474.0205,0.005048
2474.9523,0.005025
2475.8842,0.005610
2476.8160,0.005732
2477.7478,0.004982
2478.6797,0.004149
2479.6115,0.004722
2480.5433,0.004628
2481.4752,0.004484
2482.4070,0.005145
2483.3388,0.004604
2484.2707,0.004983
2485.2025,0.005773
2486.1343,0.006163
2487.0662,0.006340
2487.9980,0.006494
2488.9298,0.006362
2489.8617,0.005572
2490.7935,0.005213
2491.7253,0.004646
2492.6572,0.005232
2493.5890,0.006405
2494.5208,0.006223
2495.4527,0.005268
2496.3845,0.004907
2497.3164,0.004875
2498.2482,0.004512
2499.1800,0.005157
2500.1119,0.005157
2501.0437,0.005143
2501.9755,0.005119
2502.9074,0.005036
2503.8392,0.005721
2504.7710,0.006002
2505.7029,0.005967
2506.6347,0.005471
2507.5665,0.005519
2508.4984,0.005648
2509.4302,0.005873
2510.3620,0.006467
2511.2939,0.006151
2512.2257,0.005204
2513.1575,0.004139
2514.0894,0.004762
2515.0212,0.005149
2515.9530,0.004880
2516.8849,0.004868
2517.8167,0.004956
2518.7485,0.005023
2519.6804,0.005164
2520.6122,0.004737
2521.5440,0.004565
2522.4759,0.004683
2523.4077,0.005694
2524.3396,0.005448
2525.2714,0.004014
2526.2032,0.004263
2527.1351,0.004531
2528.0669,0.003979
2528.9987,0.004534
2529.9306,0.005018
2530.8624,0.004341
2531.7942,0.004300
2532.7261,0.004868
2533.6579,0.004925
2534.5897,0.005445
2535.5216,0.006258
2536.4534,0.006036
2537.3852,0.004516
2538.3171,0.004200
2539.2489,0.005301
2540.1807,0.004616
2541.1126,0.003383
2542.0444,0.004461
2542.9762,0.004329
2543.9081,0.003778
2544.8399,0.004749
2545.7717,0.006150
2546.7036,0.005551
2547.6354,0.004152
2548.5672,0.004946
2549.4991,0.005413
2550.4309,0.004653
2551.3627,0.004774
2552.2946,0.005147
2553.2264,0.005024
2554.1583,0.004659
2555.0901,0.004498
2556.0219,0.004233
2556.9538,0.003984
2557.8856,0.004369
2558.8174,0.005112
2559.7493,0.004465
2560.6811,0.004737
2561.6129,0.004920
2562.5448,0.004049
2563.4766,0.003538
2564.4084,0.004033
2565.3403,0.005648
2566.2721,0.005977
2567.2039,0.004770
2568.1358,0.004663
2569.0676,0.005715
2569.9994,0.005867
2570.9313,0.006025
2571.8631,0.005005
2572.7949,0.004105
2573.7268,0.004361
2574.6586,0.004905
2575.5904,0.005122
2576.5223,0.004896
2577.4541,0.005016
2578.3859,0.005559
2579.3178,0.005698
2580.2496,0.005122
2581.1815,0.004771
2582.1133,0.004303
2583.0451,0.003881
2583.9770,0.004295
2584.9088,0.004832
2585.8406,0.005150
2586.7725,0.005150
2587.7043,0.004563
2588.6361,0.003661
2589.5680,0.003687
2590.4998,0.004321
2591.4316,0.004798
2592.3635,0.004781
2593.2953,0.004261
2594.2271,0.003686
2595.1590,0.003779
2596.0908,0.004834
2597.0226,0.005435
2597.9545,0.005358
2598.8863,0.004495
2599.8181,0.004479
2600.7500,0.004466
2601.6818,0.004022
2602.6136,0.004651
2603.5455,0.005572
2604.4773,0.005359
2605.4091,0.004901
2606.3410,0.004405
2607.2728,0.004270
2608.2047,0.004404
2609.1365,0.004619
2610.0683,0.004867
2611.0002,0.005129
2611.9320,0.004946
2612.8638,0.004871
2613.7957,0.005459
2614.7275,0.005336
2615.6593,0.004955
2616.5912,0.005483
2617.5230,0.005894
2618.4548,0.004933
2619.3867,0.004843
2620.3185,0.004992
2621.2503,0.004813
2622.1822,0.005143
2623.1140,0.004944
2624.0458,0.005081
2624.9777,0.004404
2625.9095,0.003906
2626.8413,0.004538
2627.7732,0.005747
2628.7050,0.005660
2629.6368,0.004980
2630.5687,0.005273
2631.5005,0.005354
2632.4323,0.005441
2633.3642,0.005344
2634.2960,0.005371
2635.2279,0.005602
2636.1597,0.005447
2637.0915,0.005375
2638.0234,0.005458
2638.9552,0.005110
2639.8870,0.005520
2640.8189,0.006240
2641.7507,0.006429
2642.6825,0.006211
2643.6144,0.005983
2644.5462,0.006162
2645.4780,0.006488
2646.4099,0.006286
2647.3417,0.006096
2648.2735,0.005988
2649.2054,0.005930
2650.1372,0.006006
2651.0690,0.005987
2652.0009,0.005521
2652.9327,0.005452
2653.8645,0.005648
2654.7964,0.005737
2655.7282,0.005779
2656.6600,0.006053
2657.5919,0.006126
2658.5237,0.006177
2659.4555,0.006474
2660.3874,0.006186
2661.3192,0.006122
2662.2511,0.006120
2663.1829,0.006641
2664.1147,0.007011
2665.0466,0.006618
2665.9784,0.006401
2666.9102,0.006232
2667.8421,0.006095
2668.7739,0.005952
2669.7057,0.006073
2670.6376,0.006457
2671.5694,0.006719
2672.5012,0.006948
2673.4331,0.006782
2674.3649,0.006737
2675.2967,0.006922
2676.2286,0.007131
2677.1604,0.006847
2678.0922,0.006569
2679.0241,0.006692
2679.9559,0.006573
2680.8877,0.006410
2681.8196,0.006663
2682.7514,0.006912
2683.6832,0.007152
2684.6151,0.007519
2685.5469,0.007702
2686.4787,0.007374
2687.4106,0.007208
2688.3424,0.007398
2689.2742,0.007414
2690.2061,0.007508
2691.1379,0.007388
2692.0698,0.007003
2693.0016,0.007070
2693.9334,0.007872
2694.8653,0.008149
2695.7971,0.007431
2696.7289,0.007225
2697.6608,0.007357
2698.5926,0.007585
2699.5244,0.007792
2700.4563,0.007809
2701.3881,0.007800
2702.3199,0.007854
2703.2518,0.007910
2704.1836,0.008074
2705.1154,0.008576
2706.0473,0.008545
2706.9791,0.008129
2707.9109,0.008040
2708.8428,0.008000
2709.7746,0.008064
2710.7064,0.008697
2711.6383,0.008962
2712.5701,0.008854
2713.5019,0.008763
2714.4338,0.008834
2715.3656,0.008610
2716.2974,0.008081
2717.2293,0.008552
2718.1611,0.008973
2719.0930,0.008702
2720.0248,0.008162
2720.9566,0.008037
2721.8885,0.008531
2722.8203,0.008996
2723.7521,0.009475
2724.6840,0.009823
2725.6158,0.009607
2726.5476,0.009730
2727.4795,0.009933
2728.4113,0.009663
2729.3431,0.009713
2730.2750,0.009985
2731.2068,0.009748
2732.1386,0.009179
2733.0705,0.009267
2734.0023,0.009699
2734.9341,0.009937
2735.8660,0.009649
2736.7978,0.009699
2737.7296,0.009864
2738.6615,0.009817
2739.5933,0.010040
2740.5251,0.010573
2741.4570,0.010711
2742.3888,0.010866
2743.3206,0.010431
2744.2525,0.009594
2745.1843,0.010139
2746.1162,0.010645
2747.0480,0.010076
2747.9798,0.009578
2748.9117,0.010001
2749.8435,0.010732
2750.7753,0.010757
2751.7072,0.010774
2752.6390,0.011027
2753.5708,0.011138
2754.5027,0.011190
2755.4345,0.011305
2756.3663,0.011175
2757.2982,0.010882
2758.2300,0.010880
2759.1618,0.011286
2760.0937,0.011041
2761.0255,0.010621
2761.9573,0.011229
2762.8892,0.011702
2763.8210,0.011264
2764.7528,0.011284
2765.6847,0.011644
2766.6165,0.011293
2767.5483,0.010819
2768.4802,0.010760
2769.4120,0.011013
2770.3438,0.011710
2771.2757,0.012420
2772.2075,0.012083
2773.1394,0.011671
2774.0712,0.011693
2775.0030,0.011491
2775.9349,0.011774
2776.8667,0.011982
2777.7985,0.012041
2778.7304,0.012480
2779.6622,0.012487
2780.5940,0.012643
2781.5259,0.012325
2782.4577,0.012215
2783.3895,0.012393
2784.3214,0.012267
2785.2532,0.012424
2786.1850,0.012759
2787.1169,0.012942
2788.0487,0.013094
2788.9805,0.012754
2789.9124,0.012781
2790.8442,0.013236
2791.7760,0.013705
2792.7079,0.013982
2793.6397,0.013685
2794.5715,0.013245
2795.5034,0.013599
2796.4352,0.014046
2797.3670,0.014335
2798.2989,0.014660
2799.2307,0.014670
2800.1626,0.014853
2801.0944,0.014986
2802.0262,0.015051
2802.9581,0.015231
2803.8899,0.015152
2804.8217,0.015100
2805.7536,0.015300
2806.6854,0.015493
2807.6172,0.015387
2808.5491,0.015427
2809.4809,0.015856
2810.4127,0.015858
2811.3446,0.015557
2812.2764,0.015800
2813.2082,0.016768
2814.1401,0.017100
2815.0719,0.016272
2816.0037,0.016223
2816.9356,0.017039
2817.8674,0.017178
2818.7992,0.017215
2819.7311,0.017369
2820.6629,0.017566
2821.5947,0.018000
2822.5266,0.018424
2823.4584,0.018419
2824.3902,0.018074
2825.3221,0.017644
2826.2539,0.017767
2827.1857,0.018359
2828.1176,0.018669
2829.0494,0.018833
2829.9813,0.018883
2830.9131,0.019131
2831.8449,0.019278
2832.7768,0.019447
2833.7086,0.019911
2834.6404,0.019837
2835.5723,0.019400
2836.5041,0.020106
2837.4359,0.020340
2838.3678,0.020033
2839.2996,0.020593
2840.2314,0.021014
2841.1633,0.021358
2842.0951,0.021300
2843.0269,0.021066
2843.9588,0.021261
2844.8906,0.021143
2845.8224,0.021479
2846.7543,0.022439
2847.6861,0.022719
2848.6179,0.022682
2849.5498,0.023113
2850.4816,0.023207
2851.4134,0.022801
2852.3453,0.022992
2853.2771,0.023706
2854.2089,0.023976
2855.1408,0.023807
2856.0726,0.023901
2857.0045,0.024586
2857.9363,0.025211
2858.8681,0.025637
2859.8000,0.025843
2860.7318,0.025599
2861.6636,0.025340
2862.5955,0.025706
2863.5273,0.026444
2864.4591,0.026904
2865.3910,0.027146
2866.3228,0.027718
2867.2546,0.028158
2868.1865,0.028446
2869.1183,0.028948
2870.0501,0.029570
2870.9820,0.030331
2871.9138,0.030707
2872.8456,0.031137
2873.7775,0.031718
2874.7093,0.032039
2875.6411,0.032840
2876.5730,0.033762
2877.5048,0.033936
2878.4366,0.033875
2879.3685,0.034118
2880.3003,0.034559
2881.2321,0.034809
2882.1640,0.035181
2883.0958,0.035151
2884.0277,0.035346
2884.9595,0.036187
2885.8913,0.036746
2886.8232,0.036755
2887.7550,0.036979
2888.6868,0.037927
2889.6187,0.038696
2890.5505,0.038545
2891.4823,0.038431
2892.4142,0.038908
2893.3460,0.039565
2894.2778,0.040110
2895.2097,0.040455
2896.1415,0.041130
2897.0733,0.042040
2898.0052,0.041897
2898.9370,0.041984
2899.8688,0.042829
2900.8007,0.043230
2901.7325,0.043138
2902.6643,0.043403
2903.5962,0.044277
2904.5280,0.044384
2905.4598,0.043832
2906.3917,0.043401
2907.3235,0.043066
2908.2553,0.043083
2909.1872,0.042911
2910.1190,0.042375
2911.0509,0.041824
2911.9827,0.042090
2912.9145,0.042996
2913.8464,0.043180
2914.7782,0.042508
2915.7100,0.041599
2916.6419,0.041620
2917.5737,0.041797
2918.5055,0.041470
2919.4374,0.041458
2920.3692,0.041456
2921.3010,0.041466
2922.2329,0.041689
2923.1647,0.041922
2924.0965,0.041968
2925.0284,0.042446
2925.9602,0.043037
2926.8920,0.043455
2927.8239,0.043712
2928.7557,0.044001
2929.6875,0.044725
2930.6194,0.045345
2931.5512,0.044831
2932.4830,0.044045
2933.4149,0.044397
2934.3467,0.045258
2935.2785,0.045708
2936.2104,0.045427
2937.1422,0.044801
2938.0741,0.045468
2939.0059,0.046520
2939.9377,0.046367
2940.8696,0.045738
2941.8014,0.045798
2942.7332,0.047003
2943.6651,0.047338
2944.5969,0.046996
2945.5287,0.047304
2946.4606,0.047502
2947.3924,0.047999
2948.3242,0.048357
2949.2561,0.048203
2950.1879,0.047981
2951.1197,0.047587
2952.0516,0.047570
2952.9834,0.047885
2953.9152,0.048289
2954.8471,0.048711
2955.7789,0.048782
2956.7107,0.048785
2957.6426,0.049683
2958.5744,0.050558
2959.5062,0.050273
2960.4381,0.050756
2961.3699,0.052145
2962.3017,0.053005
2963.2336,0.053100
2964.1654,0.052920
2965.0972,0.054108
2966.0291,0.056940
2966.9609,0.059170
2967.8928,0.060829
2968.8246,0.062352
2969.7564,0.063491
2970.6883,0.065165
2971.6201,0.066966
2972.5519,0.069163
2973.4838,0.071888
2974.4156,0.074169
2975.3474,0.075897
2976.2793,0.077649
2977.2111,0.080003
2978.1429,0.081673
2979.0748,0.082130
2980.0066,0.083266
2980.9384,0.084180
2981.8703,0.083505
2982.8021,0.082829
2983.7339,0.082907
2984.6658,0.081964
2985.5976,0.080244
2986.5294,0.079496
2987.4613,0.078241
2988.3931,0.076095
2989.3249,0.074237
2990.2568,0.072285
2991.1886,0.070608
2992.1204,0.069602
2993.0523,0.067895
2993.9841,0.066221
2994.9160,0.064887
2995.8478,0.063284
2996.7796,0.062045
2997.7115,0.060941
2998.6433,0.060113
2999.5751,0.060371
3000.5070,0.060529
3001.4388,0.059963
3002.3706,0.059742
3003.3025,0.059164
3004.2343,0.058638
3005.1661,0.058717
3006.0980,0.058699
3007.0298,0.058729
3007.9616,0.058653
3008.8935,0.059008
3009.8253,0.059206
3010.7571,0.058820
3011.6890,0.059247
3012.6208,0.060180
3013.5526,0.060543
3014.4845,0.060851
3015.4163,0.061561
3016.3481,0.061511
3017.2800,0.061871
3018.2118,0.062894
3019.1436,0.063439
3020.0755,0.063500
3021.0073,0.063530
3021.9392,0.063783
3022.8710,0.063878
3023.8028,0.064390
3024.7347,0.065269
3025.6665,0.065578
3026.5983,0.065404
3027.5302,0.065914
3028.4620,0.066605
3029.3938,0.067315
3030.3257,0.067952
3031.2575,0.068340
3032.1893,0.068545
3033.1212,0.068884
3034.0530,0.070409
3034.9848,0.072477
3035.9167,0.073377
3036.8485,0.072897
3037.7803,0.072595
3038.7122,0.072877
3039.6440,0.073796
3040.5758,0.075080
3041.5077,0.076187
3042.4395,0.076871
3043.3713,0.077028
3044.3032,0.076946
3045.2350,0.077538
3046.1668,0.078470
3047.0987,0.079216
3048.0305,0.080332
3048.9624,0.081653
3049.8942,0.082873
3050.8260,0.083445
3051.7579,0.083402
3052.6897,0.083139
3053.6215,0.083181
3054.5534,0.083908
3055.4852,0.085148
3056.4170,0.086221
3057.3489,0.086432
3058.2807,0.088082
3059.2125,0.089997
3060.1444,0.090017
3061.0762,0.089286
3062.0080,0.089777
3062.9399,0.091466
3063.8717,0.092990
3064.8035,0.094149
3065.7354,0.094378
3066.6672,0.094938
3067.5990,0.096769
3068.5309,0.097988
3069.4627,0.097640
3070.3945,0.098315
3071.3264,0.100723
3072.2582,0.101836
3073.1900,0.102003
3074.1219,0.102197
3075.0537,0.102360
3075.9856,0.102816
3076.9174,0.103779
3077.8492,0.105445
3078.7811,0.106458
3079.7129,0.107107
3080.6447,0.108639
3081.5766,0.109220
3082.5084,0.109467
3083.4402,0.110462
3084.3721,0.111829
3085.3039,0.113350
3086.2357,0.114560
3087.1676,0.115339
3088.0994,0.115708
3089.0312,0.116600
3089.9631,0.117862
3090.8949,0.118763
3091.8267,0.119093
3092.7586,0.119759
3093.6904,0.121252
3094.6222,0.121839
3095.5541,0.122292
3096.4859,0.124017
3097.4177,0.126620
3098.3496,0.128338
3099.2814,0.128083
3100.2132,0.128723
3101.1451,0.130871
3102.0769,0.131430
3103.0087,0.132774
3103.9406,0.135150
3104.8724,0.135630
3105.8043,0.135123
3106.7361,0.135496
3107.6679,0.136936
3108.5998,0.139134
3109.5316,0.141227
3110.4634,0.142129
3111.3953,0.142645
3112.3271,0.143628
3113.2589,0.144988
3114.1908,0.146887
3115.1226,0.148396
3116.0544,0.149352
3116.9863,0.150318
3117.9181,0.150605
3118.8499,0.151255
3119.7818,0.153041
3120.7136,0.153937
3121.6454,0.154606
3122.5773,0.155090
3123.5091,0.155387
3124.4409,0.156885
3125.3728,0.160448
3126.3046,0.163281
3127.2364,0.164181
3128.1683,0.165208
3129.1001,0.166407
3130.0319,0.166247
3130.9638,0.166720
3131.8956,0.168670
3132.8275,0.169885
3133.7593,0.170088
3134.6911,0.171498
3135.6230,0.174525
3136.5548,0.175884
3137.4866,0.176213
3138.4185,0.178006
3139.3503,0.179532
3140.2821,0.180319
3141.2140,0.180973
3142.1458,0.182316
3143.0776,0.183517
3144.0095,0.184860
3144.9413,0.186783
3145.8731,0.188224
3146.8050,0.189967
3147.7368,0.191712
3148.6686,0.192878
3149.6005,0.194114
3150.5323,0.194583
3151.4641,0.194685
3152.3960,0.195931
3153.3278,0.199500
3154.2596,0.201427
3155.1915,0.201525
3156.1233,0.202067
3157.0551,0.203232
3157.9870,0.204418
3158.9188,0.206307
3159.8507,0.208228
3160.7825,0.209540
3161.7143,0.210656
3162.6462,0.211744
3163.5780,0.212430
3164.5098,0.213931
3165.4417,0.216619
3166.3735,0.218797
3167.3053,0.218814
3168.2372,0.220053
3169.1690,0.221712
3170.1008,0.222838
3171.0327,0.223401
3171.9645,0.223493
3172.8963,0.225254
3173.8282,0.227990
3174.7600,0.229907
3175.6918,0.230848
3176.6237,0.231154
3177.5555,0.232131
3178.4873,0.233181
3179.4192,0.235847
3180.3510,0.238178
3181.2828,0.239865
3182.2147,0.240696
3183.1465,0.241088
3184.0783,0.241692
3185.0102,0.243135
3185.9420,0.245103
3186.8739,0.246245
3187.8057,0.246389
3188.7375,0.248532
3189.6694,0.251071
3190.6012,0.252470
3191.5330,0.251225
3192.4649,0.250747
3193.3967,0.252206
3194.3285,0.253893
3195.2604,0.255189
3196.1922,0.256326
3197.1240,0.256772
3198.0559,0.258237
3198.9877,0.259145
3199.9195,0.261398
3200.8514,0.262793
3201.7832,0.263121
3202.7150,0.263868
3203.6469,0.264768
3204.5787,0.265647
3205.5105,0.267214
3206.4424,0.268763
3207.3742,0.269548
3208.3060,0.270515
3209.2379,0.273379
3210.1697,0.273799
3211.1015,0.273432
3212.0334,0.275567
3212.9652,0.276690
3213.8971,0.276360
3214.8289,0.275928
3215.7607,0.275535
3216.6926,0.277003
3217.6244,0.278420
3218.5562,0.280065
3219.4881,0.281937
3220.4199,0.284349
3221.3517,0.283305
3222.2836,0.280996
3223.2154,0.281525
3224.1472,0.283329
3225.0791,0.284470
3226.0109,0.286403
3226.9427,0.287776
3227.8746,0.288332
3228.8064,0.287651
3229.7382,0.287572
3230.6701,0.287902
3231.6019,0.289308
3232.5337,0.289933
3233.4656,0.291340
3234.3974,0.292091
3235.3292,0.291732
3236.2611,0.292789
3237.1929,0.294927
3238.1247,0.293934
3239.0566,0.291604
3239.9884,0.292397
3240.9202,0.293393
3241.8521,0.293386
3242.7839,0.295361
3243.7158,0.295718
3244.6476,0.295944
3245.5794,0.295546
3246.5113,0.297360
3247.4431,0.298452
3248.3749,0.297438
3249.3068,0.297476
3250.2386,0.299415
3251.1704,0.298471
3252.1023,0.298681
3253.0341,0.300279
3253.9659,0.300939
3254.8978,0.298693
3255.8296,0.297659
3256.7614,0.299349
3257.6933,0.301487
3258.6251,0.301179
3259.5569,0.299566
3260.4888,0.300764
3261.4206,0.303139
3262.3524,0.301200
3263.2843,0.299008
3264.2161,0.298502
3265.1479,0.300117
3266.0798,0.301260
3267.0116,0.302572
3267.9434,0.303137
3268.8753,0.302669
3269.8071,0.302714
3270.7390,0.304485
3271.6708,0.305135
3272.6026,0.303220
3273.5345,0.300863
3274.4663,0.301980
3275.3981,0.302241
3276.3300,0.302615
3277.2618,0.302658
3278.1936,0.299704
3279.1255,0.300132
3280.0573,0.302743
3280.9891,0.302658
3281.9210,0.304065
3282.8528,0.304945
3283.7846,0.305565
3284.7165,0.304770
3285.6483,0.305507
3286.5801,0.304510
3287.5120,0.303278
3288.4438,0.303388
3289.3756,0.303633
3290.3075,0.303307
3291.2393,0.302935
3292.1711,0.303930
3293.1030,0.305218
3294.0348,0.303633
3294.9666,0.302197
3295.8985,0.302346
3296.8303,0.303887
3297.7622,0.302855
3298.6940,0.303364
3299.6258,0.305260
3300.5577,0.306841
3301.4895,0.305390
3302.4213,0.304112
3303.3532,0.302094
3304.2850,0.303014
3305.2168,0.305347
3306.1487,0.306356
3307.0805,0.304810
3308.0123,0.304790
3308.9442,0.305256
3309.8760,0.305402
3310.8078,0.306508
3311.7397,0.307242
3312.6715,0.307456
3313.6033,0.306988
3314.5352,0.305342
3315.4670,0.304925
3316.3988,0.303155
3317.3307,0.303979
3318.2625,0.305915
3319.1943,0.308174
3320.1262,0.307092
3321.0580,0.305168
3321.9898,0.307135
3322.9217,0.306521
3323.8535,0.303173
3324.7854,0.305608
3325.7172,0.307103
3326.6490,0.306795
3327.5809,0.306634
3328.5127,0.305880
3329.4445,0.307021
3330.3764,0.307790
3331.3082,0.306258
3332.2400,0.308332
3333.1719,0.310242
3334.1037,0.308611
3335.0355,0.307174
3335.9674,0.305822
3336.8992,0.303856
3337.8310,0.305854
3338.7629,0.308462
3339.6947,0.309091
3340.6265,0.307652
3341.5584,0.305197
3342.4902,0.306370
3343.4220,0.309504
3344.3539,0.307865
3345.2857,0.306530
3346.2175,0.305194
3347.1494,0.303823
3348.0812,0.305857
3349.0130,0.308565
3349.9449,0.306238
3350.8767,0.305689
3351.8086,0.305380
3352.7404,0.302466
3353.6722,0.303783
3354.6041,0.306945
3355.5359,0.305326
3356.4677,0.304313
3357.3996,0.303291
3358.3314,0.303000
3359.2632,0.304276
3360.1951,0.307394
3361.1269,0.307824
3362.0587,0.307244
3362.9906,0.304801
3363.9224,0.303217
3364.8542,0.302137
3365.7861,0.303283
3366.7179,0.304742
3367.6497,0.305978
3368.5816,0.304936
3369.5134,0.305781
3370.4452,0.303562
3371.3771,0.300872
3372.3089,0.298707
3373.2407,0.299366
3374.1726,0.300168
3375.1044,0.302015
3376.0362,0.299550
3376.9681,0.297717
3377.8999,0.298843
3378.8317,0.299209
3379.7636,0.297045
3380.6954,0.298031
3381.6273,0.296978
3382.5591,0.297395
3383.4909,0.296461
3384.4228,0.296822
3385.3546,0.296434
3386.2864,0.299030
3387.2183,0.300709
3388.1501,0.298097
3389.0819,0.292412
3390.0138,0.292887
3390.9456,0.295759
3391.8774,0.297783
3392.8093,0.295834
3393.7411,0.293467
3394.6729,0.289691
3395.6048,0.287130
3396.5366,0.286764
3397.4684,0.286689
3398.4003,0.287013
3399.3321,0.291385
3400.2639,0.288586
3401.1958,0.285735
3402.1276,0.285225
3403.0594,0.285756
3403.9913,0.285643
3404.9231,0.282454
3405.8549,0.277411
3406.7868,0.276900
3407.7186,0.278513
3408.6505,0.279601
3409.5823,0.277855
3410.5141,0.277530
3411.4460,0.276327
3412.3778,0.272981
3413.3096,0.270596
3414.2415,0.273004
3415.1733,0.272286
3416.1051,0.270804
3417.0370,0.270831
3417.9688,0.269504
3418.9006,0.266477
3419.8325,0.268233
3420.7643,0.268958
3421.6961,0.268273
3422.6280,0.266338
3423.5598,0.266318
3424.4916,0.265152
3425.4235,0.263578
3426.3553,0.261227
3427.2871,0.260829
3428.2190,0.260305
3429.1508,0.257972
3430.0826,0.256186
3431.0145,0.256259
3431.9463,0.252954
3432.8781,0.252361
3433.8100,0.252000
3434.7418,0.252907
3435.6737,0.254390
3436.6055,0.253702
3437.5373,0.247835
3438.4692,0.246011
3439.4010,0.244552
3440.3328,0.241928
3441.2647,0.241054
3442.1965,0.243478
3443.1283,0.241354
3444.0602,0.241995
3444.9920,0.243613
3445.9238,0.242723
3446.8557,0.241076
3447.7875,0.239409
3448.7193,0.238570
3449.6512,0.239009
3450.5830,0.234118
3451.5148,0.231822
3452.4467,0.233336
3453.3785,0.232897
3454.3103,0.230667
3455.2422,0.230908
3456.1740,0.228620
3457.1058,0.228412
3458.0377,0.226107
3458.9695,0.225513
3459.9013,0.223766
3460.8332,0.222647
3461.7650,0.220915
3462.6969,0.218294
3463.6287,0.215271
3464.5605,0.217675
3465.4924,0.217144
3466.4242,0.216954
3467.3560,0.216691
3468.2879,0.215336
3469.2197,0.215260
3470.1515,0.214409
3471.0834,0.211851
3472.0152,0.208783
3472.9470,0.206931
3473.8789,0.206345
3474.8107,0.203551
3475.7425,0.203067
3476.6744,0.201655
3477.6062,0.203340
3478.5380,0.205350
3479.4699,0.204775
3480.4017,0.202728
3481.3335,0.201260
3482.2654,0.198870
3483.1972,0.198829
3484.1290,0.197869
3485.0609,0.195158
3485.9927,0.193509
3486.9245,0.194783
3487.8564,0.193470
3488.7882,0.192902
3489.7201,0.191117
3490.6519,0.188618
3491.5837,0.187096
3492.5156,0.187872
3493.4474,0.188055
3494.3792,0.188648
3495.3111,0.187131
3496.2429,0.184141
3497.1747,0.179903
3498.1066,0.178124
3499.0384,0.177633
3499.9702,0.177489
3500.9021,0.176222
3501.8339,0.176168
3502.7657,0.175442
3503.6976,0.178372
3504.6294,0.177233
3505.5612,0.172104
3506.4931,0.170842
3507.4249,0.169785
3508.3567,0.168099
3509.2886,0.169507
3510.2204,0.168732
3511.1522,0.165762
3512.0841,0.164046
3513.0159,0.163010
3513.9477,0.163530
3514.8796,0.162850
3515.8114,0.158442
3516.7432,0.159282
3517.6751,0.163227
3518.6069,0.161647
3519.5388,0.158912
3520.4706,0.157202
3521.4024,0.155288
3522.3343,0.153580
3523.2661,0.153098
3524.1979,0.154473
3525.1298,0.151208
3526.0616,0.150434
3526.9934,0.150144
3527.9253,0.149292
3528.8571,0.149647
3529.7889,0.148137
3530.7208,0.147169
3531.6526,0.146385
3532.5844,0.144579
3533.5163,0.145906
3534.4481,0.145021
3535.3799,0.142495
3536.3118,0.141512
3537.2436,0.140408
3538.1754,0.137549
3539.1073,0.136205
3540.0391,0.134124
3540.9709,0.133708
3541.9028,0.133705
3542.8346,0.131590
3543.7664,0.129711
3544.6983,0.131813
3545.6301,0.131959
3546.5620,0.130459
3547.4938,0.129260
3548.4256,0.127406
3549.3575,0.125187
3550.2893,0.126830
3551.2211,0.124831
3552.1530,0.121933
3553.0848,0.122739
3554.0166,0.123244
3554.9485,0.123089
3555.8803,0.120575
3556.8121,0.117519
3557.7440,0.118580
3558.6758,0.121084
3559.6076,0.120198
3560.5395,0.113988
3561.4713,0.112740
3562.4031,0.113911
3563.3350,0.113479
3564.2668,0.111328
3565.1986,0.110908
3566.1305,0.110096
3567.0623,0.109607
3567.9941,0.109737
3568.9260,0.108302
3569.8578,0.106727
3570.7896,0.106066
3571.7215,0.104782
3572.6533,0.106865
3573.5852,0.107676
3574.5170,0.102357
3575.4488,0.099455
3576.3807,0.099639
3577.3125,0.097915
3578.2443,0.098278
3579.1762,0.099156
3580.1080,0.098520
3581.0398,0.095689
3581.9717,0.093534
3582.9035,0.093013
3583.8353,0.094329
3584.7672,0.091971
3585.6990,0.091482
3586.6308,0.092334
3587.5627,0.092566
3588.4945,0.090845
3589.4263,0.085763
3590.3582,0.082800
3591.2900,0.084058
3592.2218,0.083996
3593.1537,0.084885
3594.0855,0.084030
3595.0173,0.083115
3595.9492,0.083215
3596.8810,0.083990
3597.8128,0.082510
3598.7447,0.080354
3599.6765,0.080335
3600.6084,0.082180
3601.5402,0.081167
3602.4720,0.078399
3603.4039,0.077544
3604.3357,0.078330
3605.2675,0.076024
3606.1994,0.073648
3607.1312,0.074399
3608.0630,0.072897
3608.9949,0.070753
3609.9267,0.070552
3610.8585,0.070811
3611.7904,0.069057
3612.7222,0.067306
3613.6540,0.068645
3614.5859,0.069216
3615.5177,0.070080
3616.4495,0.068841
3617.3814,0.067343
3618.3132,0.065079
3619.2450,0.062014
3620.1769,0.062483
3621.1087,0.065338
3622.0405,0.065091
3622.9724,0.063651
3623.9042,0.061109
3624.8360,0.060150
3625.7679,0.058912
3626.6997,0.058864
3627.6316,0.058703
3628.5634,0.057909
3629.4952,0.057673
3630.4271,0.056568
3631.3589,0.055541
3632.2907,0.057355
3633.2226,0.057166
3634.1544,0.055963
3635.0862,0.053903
3636.0181,0.053191
3636.9499,0.052161
3637.8817,0.050125
3638.8136,0.047736
3639.7454,0.047847
3640.6772,0.048769
3641.6091,0.049407
3642.5409,0.048771
3643.4727,0.048143
3644.4046,0.046806
3645.3364,0.046005
3646.2682,0.044878
3647.2001,0.042760
3648.1319,0.042539
3649.0637,0.043260
3649.9956,0.040439
3650.9274,0.038868
3651.8592,0.039880
3652.7911,0.039049
3653.7229,0.038277
3654.6547,0.037764
3655.5866,0.036680
3656.5184,0.037000
3657.4503,0.036160
3658.3821,0.034545
3659.3139,0.033804
3660.2458,0.033968
3661.1776,0.032947
3662.1094,0.032328
3663.0413,0.031615
3663.9731,0.029795
3664.9049,0.030064
3665.8368,0.029578
3666.7686,0.028438
3667.7004,0.027855
3668.6323,0.026210
3669.5641,0.025646
3670.4959,0.025951
3671.4278,0.024444
3672.3596,0.022571
3673.2914,0.021616
3674.2233,0.019597
3675.1551,0.020806
3676.0869,0.021213
3677.0188,0.018702
3677.9506,0.014810
3678.8824,0.014668
3679.8143,0.016866
3680.7461,0.018190
3681.6779,0.017560
3682.6098,0.016629
3683.5416,0.016771
3684.4735,0.017355
3685.4053,0.016769
3686.3371,0.015472
3687.2690,0.014797
3688.2008,0.013287
3689.1326,0.011625
3690.0645,0.010966
3690.9963,0.010890
3691.9281,0.010782
3692.8600,0.009148
3693.7918,0.008837
3694.7236,0.011428
3695.6555,0.011349
3696.5873,0.010146
3697.5191,0.009105
3698.4510,0.009371
3699.3828,0.009350
3700.3146,0.008633
3701.2465,0.008558
3702.1783,0.007566
3703.1101,0.007309
3704.0420,0.007332
3704.9738,0.006641
3705.9056,0.007185
3706.8375,0.007175
3707.7693,0.007188
3708.7011,0.008270
3709.6330,0.007814
3710.5648,0.005123
3711.4967,0.004276
3712.4285,0.004173
3713.3603,0.005402
3714.2922,0.005850
3715.2240,0.004360
3716.1558,0.005297
3717.0877,0.006161
3718.0195,0.005129
3718.9513,0.004278
3719.8832,0.003827
3720.8150,0.003216
3721.7468,0.002774
3722.6787,0.003469
3723.6105,0.004346
3724.5423,0.003773
3725.4742,0.003442
3726.4060,0.003219
3727.3378,0.002288
3728.2697,0.002831
3729.2015,0.003469
3730.1333,0.002901
3731.0652,0.003663
3731.9970,0.003597
3732.9288,0.003223
3733.8607,0.002219
3734.7925,0.000219
3735.7243,-0.000734
3736.6562,0.001742
3737.5880,0.003229
3738.5199,0.003249
3739.4517,0.002648
3740.3835,0.002465
3741.3154,0.001956
3742.2472,0.001313
3743.1790,0.002718
3744.1109,0.003305
3745.0427,0.001742
3745.9745,0.001264
3746.9064,0.002369
3747.8382,0.003138
3748.7700,-0.001086
3749.7019,-0.000823
3750.6337,0.001336
3751.5655,0.000030
3752.4974,-0.001465
3753.4292,0.000698
3754.3610,0.003171
3755.2929,0.003053
3756.2247,0.001150
3757.1565,0.001199
3758.0884,0.000919
3759.0202,0.001139
3759.9520,0.001870
3760.8839,0.002192
3761.8157,0.000916
3762.7475,0.001277
3763.6794,0.002816
3764.6112,0.002651
3765.5431,0.002309
3766.4749,0.002870
3767.4067,0.001959
3768.3386,0.001319
3769.2704,0.001958
3770.2022,0.001569
3771.1341,0.001206
3772.0659,0.002123
3772.9977,0.002305
3773.9296,0.002067
3774.8614,0.002294
3775.7932,0.002112
3776.7251,0.001882
3777.6569,0.001933
3778.5887,0.001404
3779.5206,0.001690
3780.4524,0.002255
3781.3842,0.002236
3782.3161,0.003217
3783.2479,0.003519
3784.1797,0.002661
3785.1116,0.002023
3786.0434,0.001859
3786.9752,0.001908
3787.9071,0.002048
3788.8389,0.001798
3789.7707,0.001181
3790.7026,0.001307
3791.6344,0.001985
3792.5662,0.002301
3793.4981,0.001919
3794.4299,0.001160
3795.3618,0.000637
3796.2936,0.000337
3797.2254,0.000709
3798.1573,0.000808
3799.0891,0.000751
3800.0209,0.001165
3800.9528,0.000724
3801.8846,0.000530
3802.8164,0.000515
3803.7483,0.000801
3804.6801,0.001808
3805.6119,0.001898
3806.5438,0.000352
3807.4756,0.000266
3808.4074,0.000704
3809.3393,-0.000104
3810.2711,-0.000098
3811.2029,0.000375
3812.1348,0.001301
3813.0666,0.001708
3813.9984,0.000528
3814.9303,0.000256
3815.8621,0.001771
3816.7939,0.001338
3817.7258,-0.000012
3818.6576,0.000638
3819.5894,0.002043
3820.5213,0.002274
3821.4531,0.000546
3822.3850,-0.000968
3823.3168,-0.000109
3824.2486,0.001154
3825.1805,0.001365
3826.1123,0.000405
3827.0441,0.000179
3827.9760,0.000882
3828.9078,0.001796
3829.8396,0.001066
3830.7715,-0.000162
3831.7033,-0.000300
3832.6351,0.001095
3833.5670,0.001182
3834.4988,-0.000441
3835.4306,-0.001383
3836.3625,0.001001
3837.2943,0.002416
3838.2261,0.000293
3839.1580,0.000130
3840.0898,0.002123
3841.0216,0.002255
3841.9535,0.000468
3842.8853,-0.000168
3843.8171,0.000461
3844.7490,0.001105
3845.6808,0.000196
3846.6126,-0.000566
3847.5445,-0.000053
3848.4763,0.001072
3849.4082,0.001638
3850.3400,0.000150
3851.2718,0.000373
3852.2037,0.000689
3853.1355,-0.000291
3854.0673,-0.001020
3854.9992,-0.001242
3855.9310,-0.001102
3856.8628,-0.001077
3857.7947,0.000756
3858.7265,0.001959
3859.6583,0.000909
3860.5902,0.000480
3861.5220,-0.000030
3862.4538,-0.001602
3863.3857,-0.001569
3864.3175,0.000376
3865.2493,0.000887
3866.1812,-0.000288
3867.1130,-0.000341
3868.0448,0.000236
3868.9767,-0.000929
3869.9085,-0.001417
3870.8403,0.000027
3871.7722,0.001238
3872.7040,0.000700
3873.6358,-0.000312
3874.5677,-0.000876
3875.4995,-0.000335
3876.4314,0.000988
3877.3632,0.001310
3878.2950,0.000693
3879.2269,0.000782
3880.1587,0.001178
3881.0905,0.000596
3882.0224,0.000063
3882.9542,-0.000503
3883.8860,-0.000479
3884.8179,0.000439
3885.7497,0.001376
3886.6815,0.002267
3887.6134,0.002096
3888.5452,0.001539
3889.4770,0.000419
3890.4089,0.000097
3891.3407,0.000026
3892.2725,0.000112
3893.2044,0.000791
3894.1362,0.000329
3895.0680,-0.000046
3895.9999,0.001425
3896.9317,0.001054
3897.8635,0.000861
3898.7954,0.001466
3899.7272,0.000554
3900.6590,-0.000451
3901.5909,-0.001097
3902.5227,-0.000931
3903.4546,0.000438
3904.3864,0.000987
3905.3182,0.000625
3906.2501,-0.000498
3907.1819,0.000325
3908.1137,0.002091
3909.0456,0.002406
3909.9774,0.001430
3910.9092,0.000741
3911.8411,0.001326
3912.7729,0.001077
3913.7047,0.000276
3914.6366,0.000066
3915.5684,0.000597
3916.5002,0.000815
3917.4321,0.000415
3918.3639,0.000121
3919.2957,-0.000549
3920.2276,-0.000494
3921.1594,0.000319
3922.0912,0.000965
3923.0231,0.001616
3923.9549,0.001056
3924.8867,0.000737
3925.8186,0.001842
3926.7504,0.001985
3927.6822,0.000991
3928.6141,0.000642
3929.5459,0.000552
3930.4777,0.000552
3931.4096,0.000628
3932.3414,0.000723
3933.2733,0.000472
3934.2051,0.000562
3935.1369,0.000431
3936.0688,0.000490
3937.0006,0.000991
3937.9324,0.001191
3938.8643,0.000440
3939.7961,0.000325
3940.7279,0.001176
3941.6598,0.001427
3942.5916,0.000487
3943.5234,0.000388
3944.4553,0.001353
3945.3871,0.001581
3946.3189,0.001568
3947.2508,0.000941
3948.1826,0.000893
3949.1144,0.000609
3950.0463,0.000430
3950.9781,0.001639
3951.9099,0.001310
3952.8418,-0.000354
3953.7736,-0.000363
3954.7054,-0.000153
3955.6373,-0.000062
3956.5691,0.000923
3957.5009,0.000824
3958.4328,0.000845
3959.3646,0.001722
3960.2965,0.002144
3961.2283,0.002474
3962.1601,0.002144
3963.0920,0.000762
3964.0238,-0.000049
3964.9556,0.001274
3965.8875,0.001924
3966.8193,0.001579
3967.7511,0.001319
3968.6830,0.001321
3969.6148,0.001479
3970.5466,0.001856
3971.4785,0.001868
3972.4103,0.001010
3973.3421,0.000841
3974.2740,0.001235
3975.2058,0.001954
3976.1376,0.002016
3977.0695,0.001540
3978.0013,0.001346
3978.9331,0.001322
3979.8650,0.001817
3980.7968,0.001975
3981.7286,0.001821
3982.6605,0.001790
3983.5923,0.002381
3984.5241,0.003196
3985.4560,0.002782
3986.3878,0.001819
3987.3197,0.001639
3988.2515,0.000749
3989.1833,0.000162
3990.1152,0.000799
3991.0470,0.001208
3991.9788,0.001156
3992.9107,0.001280
3993.8425,0.001039
3994.7743,0.000332
3995.7062,0.001125
3996.6380,0.002470
3997.5698,0.002171
3998.5017,0.001055
3999.4335,0.000667
4000.3653,0.001487
