Wavenumber,Intensity
650.4205,0.371092
651.3523,0.373485
652.2841,0.369905
653.2160,0.368010
654.1478,0.375542
655.0796,0.381371
656.0115,0.380455
656.9433,0.383874
657.8751,0.381480
658.8070,0.373401
659.7388,0.371808
660.6706,0.372462
661.6025,0.366154
662.5343,0.365411
663.4661,0.365088
664.3980,0.361477
665.3298,0.360101
666.2616,0.362221
667.1935,0.364523
668.1253,0.366280
669.0571,0.368593
669.9890,0.360417
670.9208,0.352526
671.8526,0.352951
672.7845,0.354012
673.7163,0.352991
674.6481,0.354834
675.5800,0.354638
676.5118,0.351466
677.4437,0.353369
678.3755,0.354652
679.3073,0.347205
680.2392,0.340495
681.1710,0.346314
682.1028,0.348518
683.0347,0.345272
683.9665,0.341911
684.8983,0.336461
685.8302,0.335295
686.7620,0.337654
687.6938,0.337679
688.6257,0.341939
689.5575,0.340874
690.4893,0.332290
691.4212,0.326787
692.3530,0.325828
693.2848,0.324764
694.2167,0.323182
695.1485,0.323043
696.0803,0.326063
697.0122,0.325702
697.9440,0.322352
698.8758,0.322645
699.8077,0.323791
700.7395,0.319139
701.6713,0.316970
702.6032,0.320534
703.5350,0.319685
704.4669,0.313010
705.3987,0.308646
706.3305,0.307916
707.2624,0.312867
708.1942,0.316099
709.1260,0.311619
710.0579,0.306298
710.9897,0.302190
711.9215,0.304053
712.8534,0.311296
713.7852,0.306394
714.7170,0.299345
715.6489,0.298999
716.5807,0.298558
717.5125,0.296289
718.4444,0.292230
719.3762,0.290435
720.3080,0.291043
721.2399,0.291613
722.1717,0.292963
723.1035,0.293504
724.0354,0.291554
724.9672,0.287542
725.8990,0.283937
726.8309,0.282101
727.7627,0.282168
728.6945,0.281288
729.6264,0.281290
730.5582,0.279846
731.4901,0.275435
732.4219,0.276297
733.3537,0.278649
734.2856,0.275327
735.2174,0.270605
736.1492,0.267594
737.0811,0.268980
738.0129,0.270017
738.9447,0.266556
739.8766,0.262300
740.8084,0.259722
741.7402,0.260180
742.6721,0.261001
743.6039,0.259043
744.5357,0.257704
745.4676,0.258719
746.3994,0.257032
747.3312,0.254204
748.2631,0.254150
749.1949,0.252859
750.1267,0.251114
751.0586,0.249825
751.9904,0.248927
752.9222,0.247429
753.8541,0.245707
754.7859,0.244536
755.7177,0.243992
756.6496,0.242498
757.5814,0.240944
758.5132,0.239992
759.4451,0.239942
760.3769,0.239203
761.3088,0.238052
762.2406,0.236003
763.1724,0.234034
764.1043,0.232458
765.0361,0.231373
765.9679,0.229636
766.8998,0.228297
767.8316,0.226656
768.7634,0.224299
769.6953,0.222569
770.6271,0.222093
771.5589,0.222168
772.4908,0.221202
773.4226,0.219421
774.3544,0.217529
775.2863,0.216204
776.2181,0.215567
777.1499,0.215077
778.0818,0.215318
779.0136,0.214632
779.9454,0.213324
780.8773,0.212081
781.8091,0.210667
782.7409,0.207893
783.6728,0.205771
784.6046,0.205591
785.5364,0.204855
786.4683,0.202602
787.4001,0.200908
788.3320,0.199594
789.2638,0.198974
790.1956,0.198234
791.1275,0.196610
792.0593,0.195497
792.9911,0.195221
793.9230,0.194068
794.8548,0.193146
795.7866,0.191247
796.7185,0.188798
797.6503,0.187566
798.5821,0.187891
799.5140,0.186824
800.4458,0.184920
801.3776,0.185268
802.3095,0.185442
803.2413,0.183492
804.1731,0.181322
805.1050,0.180795
806.0368,0.180623
806.9686,0.178581
807.9005,0.176415
808.8323,0.174062
809.7641,0.172158
810.6960,0.171665
811.6278,0.171379
812.5596,0.170262
813.4915,0.168845
814.4233,0.166767
815.3552,0.164809
816.2870,0.163942
817.2188,0.162909
818.1507,0.161529
819.0825,0.160772
820.0143,0.159879
820.9462,0.158054
821.8780,0.156280
822.8098,0.155584
823.7417,0.154750
824.6735,0.154343
825.6053,0.153491
826.5372,0.151922
827.4690,0.150850
828.4008,0.150965
829.3327,0.150289
830.2645,0.148423
831.1963,0.147188
832.1282,0.146250
833.0600,0.144281
833.9918,0.143095
834.9237,0.142741
835.8555,0.142096
836.7873,0.140838
837.7192,0.140086
838.6510,0.139383
839.5828,0.138767
840.5147,0.138164
841.4465,0.137388
842.3784,0.136410
843.3102,0.135469
844.2420,0.134215
845.1739,0.133008
846.1057,0.132388
847.0375,0.131400
847.9694,0.130261
848.9012,0.129021
849.8330,0.128423
850.7649,0.127645
851.6967,0.126464
852.6285,0.126029
853.5604,0.125188
854.4922,0.124350
855.4240,0.123853
856.3559,0.123634
857.2877,0.123679
858.2195,0.123469
859.1514,0.122401
860.0832,0.121520
861.0150,0.121657
861.9469,0.121941
862.8787,0.122115
863.8105,0.122393
864.7424,0.122346
865.6742,0.122444
866.6060,0.122987
867.5379,0.124120
868.4697,0.125814
869.4016,0.128048
870.3334,0.130101
871.2652,0.133340
872.1971,0.137327
873.1289,0.140581
874.0607,0.143908
874.9926,0.148575
875.9244,0.152674
876.8562,0.155695
877.7881,0.157140
878.7199,0.156307
879.6517,0.153420
880.5836,0.148589
881.5154,0.142188
882.4472,0.135434
883.3791,0.129469
884.3109,0.123814
885.2427,0.118174
886.1746,0.112530
887.1064,0.107796
888.0382,0.104152
888.9701,0.100778
889.9019,0.097820
890.8337,0.095346
891.7656,0.093224
892.6974,0.091883
893.6292,0.091275
894.5611,0.090060
895.4929,0.088264
896.4247,0.086769
897.3566,0.085738
898.2884,0.084681
899.2203,0.083708
900.1521,0.083173
901.0839,0.082499
902.0158,0.081681
902.9476,0.081237
903.8794,0.080739
904.8113,0.080288
905.7431,0.079824
906.6749,0.078700
907.6068,0.077946
908.5386,0.077806
909.4704,0.077215
910.4023,0.076470
911.3341,0.075524
912.2659,0.074857
913.1978,0.074503
914.1296,0.074271
915.0614,0.074243
915.9933,0.073749
916.9251,0.073185
917.8569,0.073016
918.7888,0.072549
919.7206,0.071998
920.6524,0.071557
921.5843,0.070938
922.5161,0.070609
923.4479,0.070632
924.3798,0.070520
925.3116,0.069975
926.2435,0.069259
927.1753,0.068844
928.1071,0.068417
929.0390,0.068026
929.9708,0.067444
930.9026,0.067097
931.8345,0.066809
932.7663,0.066276
933.6981,0.065954
934.6300,0.065560
935.5618,0.065152
936.4936,0.064782
937.4255,0.064668
938.3573,0.064327
939.2891,0.064256
940.2210,0.064228
941.1528,0.063624
942.0846,0.062681
943.0165,0.062241
943.9483,0.062219
944.8801,0.062041
945.8120,0.061540
946.7438,0.061379
947.6756,0.061063
948.6075,0.060594
949.5393,0.060590
950.4711,0.060238
951.4030,0.059731
952.3348,0.059450
953.2667,0.059590
954.1985,0.059725
955.1303,0.059224
956.0622,0.058694
956.9940,0.058463
957.9258,0.058352
958.8577,0.058234
959.7895,0.058059
960.7213,0.058046
961.6532,0.057723
962.5850,0.057449
963.5168,0.057359
964.4487,0.057104
965.3805,0.056956
966.3123,0.057012
967.2442,0.057142
968.1760,0.057084
969.1078,0.056824
970.0397,0.056764
970.9715,0.056773
971.9033,0.056836
972.8352,0.056798
973.7670,0.056403
974.6988,0.056510
975.6307,0.056626
976.5625,0.056661
977.4943,0.057011
978.4262,0.056929
979.3580,0.056519
980.2899,0.056466
981.2217,0.056553
982.1535,0.056732
983.0854,0.057186
984.0172,0.057484
984.9490,0.057381
985.8809,0.057441
986.8127,0.057647
987.7445,0.057897
988.6764,0.058528
989.6082,0.058808
990.5400,0.058870
991.4719,0.058856
992.4037,0.058913
993.3355,0.059181
994.2674,0.059465
995.1992,0.059629
996.1310,0.059627
997.0629,0.059692
997.9947,0.060049
998.9265,0.060404
999.8584,0.060521
1000.7902,0.060448
1001.7220,0.060626
1002.6539,0.060786
1003.5857,0.060892
1004.5175,0.061041
1005.4494,0.061264
1006.3812,0.061249
1007.3131,0.061371
1008.2449,0.061745
1009.1767,0.062209
1010.1086,0.062613
1011.0404,0.062896
1011.9722,0.063504
1012.9041,0.064043
1013.8359,0.064439
1014.7677,0.065284
1015.6996,0.066480
1016.6314,0.067234
1017.5632,0.067943
1018.4951,0.069030
1019.4269,0.070350
1020.3587,0.071633
1021.2906,0.073037
1022.2224,0.074708
1023.1542,0.076670
1024.0861,0.078759
1025.0179,0.081050
1025.9497,0.083566
1026.8816,0.086421
1027.8134,0.089758
1028.7452,0.093536
1029.6771,0.097645
1030.6089,0.102241
1031.5407,0.107314
1032.4726,0.113145
1033.4044,0.120495
1034.3362,0.128892
1035.2681,0.138134
1036.1999,0.148364
1037.1318,0.159927
1038.0636,0.172622
1038.9954,0.185597
1039.9273,0.198798
1040.8591,0.211596
1041.7909,0.222682
1042.7228,0.231240
1043.6546,0.236351
1044.5864,0.237516
1045.5183,0.234069
1046.4501,0.226381
1047.3819,0.215748
1048.3138,0.203005
1049.2456,0.188780
1050.1774,0.173979
1051.1093,0.159735
1052.0411,0.146502
1052.9729,0.133907
1053.9048,0.122416
1054.8366,0.112591
1055.7684,0.104214
1056.7003,0.097009
1057.6321,0.091112
1058.5639,0.086308
1059.4958,0.082435
1060.4276,0.079378
1061.3594,0.076908
1062.2913,0.075228
1063.2231,0.073800
1064.1550,0.072695
1065.0868,0.072312
1066.0186,0.072335
1066.9505,0.072564
1067.8823,0.072858
1068.8141,0.073213
1069.7460,0.073846
1070.6778,0.074835
1071.6096,0.076470
1072.5415,0.078133
1073.4733,0.079706
1074.4051,0.081554
1075.3370,0.083453
1076.2688,0.085322
1077.2006,0.087581
1078.1325,0.090314
1079.0643,0.092798
1079.9961,0.095289
1080.9280,0.097649
1081.8598,0.099595
1082.7916,0.101497
1083.7235,0.103079
1084.6553,0.104015
1085.5871,0.103858
1086.5190,0.102970
1087.4508,0.101659
1088.3826,0.099585
1089.3145,0.096828
1090.2463,0.093531
1091.1782,0.089986
1092.1100,0.086121
1093.0418,0.082202
1093.9737,0.078416
1094.9055,0.074835
1095.8373,0.071295
1096.7692,0.068228
1097.7010,0.065694
1098.6328,0.063266
1099.5647,0.060806
1100.4965,0.058802
1101.4283,0.057312
1102.3602,0.056137
1103.2920,0.054854
1104.2238,0.053698
1105.1557,0.052846
1106.0875,0.052162
1107.0193,0.051399
1107.9512,0.050753
1108.8830,0.050372
1109.8148,0.050105
1110.7467,0.049928
1111.6785,0.049699
1112.6103,0.049089
1113.5422,0.048762
1114.4740,0.048644
1115.4058,0.048380
1116.3377,0.048301
1117.2695,0.048387
1118.2014,0.048157
1119.1332,0.047724
1120.0650,0.047639
1120.9969,0.047681
1121.9287,0.047510
1122.8605,0.047416
1123.7924,0.047504
1124.7242,0.047356
1125.6560,0.047207
1126.5879,0.047026
1127.5197,0.046810
1128.4515,0.047049
1129.3834,0.047163
1130.3152,0.046854
1131.2470,0.046543
1132.1789,0.046533
1133.1107,0.046477
1134.0425,0.046444
1134.9744,0.046382
1135.9062,0.046256
1136.8380,0.045945
1137.7699,0.045597
1138.7017,0.045513
1139.6335,0.045536
1140.5654,0.045416
1141.4972,0.045386
1142.4290,0.045102
1143.3609,0.044926
1144.2927,0.045172
1145.2246,0.045273
1146.1564,0.044989
1147.0882,0.044571
1148.0201,0.044383
1148.9519,0.044350
1149.8837,0.044094
1150.8156,0.043903
1151.7474,0.044057
1152.6792,0.044064
1153.6111,0.043998
1154.5429,0.043946
1155.4747,0.043701
1156.4066,0.043650
1157.3384,0.043513
1158.2702,0.043481
1159.2021,0.043317
1160.1339,0.042993
1161.0657,0.042964
1161.9976,0.042800
1162.9294,0.042483
1163.8612,0.042199
1164.7931,0.042068
1165.7249,0.041829
1166.6567,0.041580
1167.5886,0.041636
1168.5204,0.041538
1169.4522,0.041291
1170.3841,0.041228
1171.3159,0.041005
1172.2477,0.040919
1173.1796,0.041006
1174.1114,0.040971
1175.0433,0.040777
1175.9751,0.040507
1176.9069,0.040539
1177.8388,0.040571
1178.7706,0.040433
1179.7024,0.040437
1180.6343,0.040603
1181.5661,0.040841
1182.4979,0.040868
1183.4298,0.040714
1184.3616,0.040713
1185.2934,0.040555
1186.2253,0.040417
1187.1571,0.040570
1188.0889,0.040771
1189.0208,0.040892
1189.9526,0.040817
1190.8844,0.040743
1191.8163,0.040756
1192.7481,0.040563
1193.6799,0.040537
1194.6118,0.040643
1195.5436,0.040798
1196.4754,0.040915
1197.4073,0.040891
1198.3391,0.040878
1199.2709,0.040985
1200.2028,0.041135
1201.1346,0.041131
1202.0665,0.041079
1202.9983,0.041073
1203.9301,0.040847
1204.8620,0.040779
1205.7938,0.040865
1206.7256,0.041151
1207.6575,0.041297
1208.5893,0.041380
1209.5211,0.041526
1210.4530,0.041567
1211.3848,0.041658
1212.3166,0.041486
1213.2485,0.041267
1214.1803,0.041489
1215.1121,0.041638
1216.0440,0.041427
1216.9758,0.041307
1217.9076,0.041462
1218.8395,0.041900
1219.7713,0.042011
1220.7031,0.041887
1221.6350,0.041909
1222.5668,0.042084
1223.4986,0.041983
1224.4305,0.041796
1225.3623,0.041838
1226.2941,0.042020
1227.2260,0.042182
1228.1578,0.042184
1229.0897,0.042000
1230.0215,0.041895
1230.9533,0.042205
1231.8852,0.042523
1232.8170,0.042604
1233.7488,0.042577
1234.6807,0.042734
1235.6125,0.042775
1236.5443,0.042764
1237.4762,0.043020
1238.4080,0.043313
1239.3398,0.043211
1240.2717,0.043205
1241.2035,0.043392
1242.1353,0.043291
1243.0672,0.043398
1243.9990,0.043644
1244.9308,0.043711
1245.8627,0.043790
1246.7945,0.043922
1247.7263,0.044021
1248.6582,0.044168
1249.5900,0.044609
1250.5218,0.044854
1251.4537,0.044740
1252.3855,0.044956
1253.3173,0.045238
1254.2492,0.045338
1255.1810,0.045289
1256.1129,0.045573
1257.0447,0.046195
1257.9765,0.046691
1258.9084,0.046843
1259.8402,0.047002
1260.7720,0.047502
1261.7039,0.048073
1262.6357,0.048524
1263.5675,0.048854
1264.4994,0.049089
1265.4312,0.049576
1266.3630,0.050206
1267.2949,0.050831
1268.2267,0.051254
1269.1585,0.051865
1270.0904,0.052503
1271.0222,0.052743
1271.9540,0.052945
1272.8859,0.053318
1273.8177,0.053548
1274.7495,0.053545
1275.6814,0.053437
1276.6132,0.053022
1277.5450,0.052600
1278.4769,0.052592
1279.4087,0.052340
1280.3405,0.051673
1281.2724,0.051132
1282.2042,0.050775
1283.1361,0.050503
1284.0679,0.050264
1284.9997,0.049915
1285.9316,0.049635
1286.8634,0.049565
1287.7952,0.049702
1288.7271,0.049674
1289.6589,0.049579
1290.5907,0.049697
1291.5226,0.049817
1292.4544,0.049783
1293.3862,0.049967
1294.3181,0.050111
1295.2499,0.050140
1296.1817,0.050461
1297.1136,0.050556
1298.0454,0.050562
1298.9772,0.050796
1299.9091,0.051192
1300.8409,0.051464
1301.7727,0.051543
1302.7046,0.051616
1303.6364,0.051802
1304.5682,0.052233
1305.5001,0.052456
1306.4319,0.052644
1307.3637,0.052937
1308.2956,0.053161
1309.2274,0.053426
1310.1592,0.053582
1311.0911,0.053664
1312.0229,0.053748
1312.9548,0.053929
1313.8866,0.054384
1314.8184,0.054710
1315.7503,0.054739
1316.6821,0.054755
1317.6139,0.055041
1318.5458,0.055655
1319.4776,0.056149
1320.4094,0.056050
1321.3413,0.055839
1322.2731,0.055882
1323.2049,0.055808
1324.1368,0.055802
1325.0686,0.055850
1326.0004,0.055831
1326.9323,0.055889
1327.8641,0.055902
1328.7959,0.055824
1329.7278,0.055529
1330.6596,0.055199
1331.5914,0.055020
1332.5233,0.054980
1333.4551,0.054917
1334.3869,0.054490
1335.3188,0.053949
1336.2506,0.053527
1337.1824,0.053422
1338.1143,0.053468
1339.0461,0.053364
1339.9780,0.053292
1340.9098,0.053166
1341.8416,0.052928
1342.7735,0.052306
1343.7053,0.051886
1344.6371,0.051771
1345.5690,0.051665
1346.5008,0.051363
1347.4326,0.050885
1348.3645,0.050574
1349.2963,0.050732
1350.2281,0.050702
1351.1600,0.050324
1352.0918,0.049838
1353.0236,0.049635
1353.9555,0.049756
1354.8873,0.049923
1355.8191,0.049956
1356.7510,0.049929
1357.6828,0.049807
1358.6146,0.049652
1359.5465,0.049271
1360.4783,0.048764
1361.4101,0.048866
1362.3420,0.049858
1363.2738,0.050817
1364.2056,0.051482
1365.1375,0.051369
1366.0693,0.051018
1367.0012,0.051210
1367.9330,0.051492
1368.8648,0.052094
1369.7967,0.053071
1370.7285,0.053704
1371.6603,0.054153
1372.5922,0.054790
1373.5240,0.055729
1374.4558,0.057707
1375.3877,0.060267
1376.3195,0.061435
1377.2513,0.061547
1378.1832,0.061758
1379.1150,0.062464
1380.0468,0.062958
1380.9787,0.063131
1381.9105,0.063360
1382.8423,0.063805
1383.7742,0.063812
1384.7060,0.063674
1385.6378,0.063938
1386.5697,0.063887
1387.5015,0.063804
1388.4333,0.064716
1389.3652,0.064647
1390.2970,0.063474
1391.2288,0.062415
1392.1607,0.061840
1393.0925,0.061221
1394.0244,0.060502
1394.9562,0.060670
1395.8880,0.061639
1396.8199,0.061376
1397.7517,0.060913
1398.6835,0.061337
1399.6154,0.062496
1400.5472,0.063522
1401.4790,0.062470
1402.4109,0.061393
1403.3427,0.061431
1404.2745,0.061491
1405.2064,0.062216
1406.1382,0.063637
1407.0700,0.063779
1408.0019,0.063195
1408.9337,0.063168
1409.8655,0.063173
1410.7974,0.063176
1411.7292,0.063287
1412.6610,0.063611
1413.5929,0.063602
1414.5247,0.063234
1415.4565,0.062711
1416.3884,0.062253
1417.3202,0.062283
1418.2520,0.062711
1419.1839,0.063489
1420.1157,0.065169
1421.0476,0.065638
1421.9794,0.063600
1422.9112,0.062494
1423.8431,0.062364
1424.7749,0.062821
1425.7067,0.062378
1426.6386,0.060855
1427.5704,0.059907
1428.5022,0.059586
1429.4341,0.059372
1430.3659,0.059432
1431.2977,0.059747
1432.2296,0.058769
1433.1614,0.057249
1434.0932,0.056586
1435.0251,0.056124
1435.9569,0.055791
1436.8887,0.056440
1437.8206,0.057967
1438.7524,0.057557
1439.6842,0.056423
1440.6161,0.055871
1441.5479,0.055705
1442.4797,0.055684
1443.4116,0.055689
1444.3434,0.055763
1445.2752,0.056011
1446.2071,0.056733
1447.1389,0.057365
1448.0707,0.058171
1449.0026,0.059980
1449.9344,0.061031
1450.8663,0.060531
1451.7981,0.060200
1452.7299,0.060270
1453.6618,0.060308
1454.5936,0.059550
1455.5254,0.058765
1456.4573,0.058548
1457.3891,0.059419
1458.3209,0.060378
1459.2528,0.059179
1460.1846,0.056985
1461.1164,0.054454
1462.0483,0.052192
1462.9801,0.050684
1463.9119,0.049752
1464.8438,0.049173
1465.7756,0.049101
1466.7074,0.048831
1467.6393,0.047594
1468.5711,0.046462
1469.5029,0.046022
1470.4348,0.045529
1471.3666,0.044727
1472.2984,0.044553
1473.2303,0.045690
1474.1621,0.046734
1475.0939,0.046805
1476.0258,0.045997
1476.9576,0.046072
1477.8895,0.046818
1478.8213,0.046035
1479.7531,0.045627
1480.6850,0.045808
1481.6168,0.046185
1482.5486,0.046388
1483.4805,0.045794
1484.4123,0.045320
1485.3441,0.045031
1486.2760,0.044445
1487.2078,0.044194
1488.1396,0.044561
1489.0715,0.044616
1490.0033,0.044092
1490.9351,0.044974
1491.8670,0.045195
1492.7988,0.043524
1493.7306,0.042203
1494.6625,0.041532
1495.5943,0.041305
1496.5261,0.041572
1497.4580,0.042469
1498.3898,0.042601
1499.3216,0.042374
1500.2535,0.042581
1501.1853,0.041520
1502.1171,0.040239
1503.0490,0.039779
1503.9808,0.039434
1504.9127,0.038785
1505.8445,0.038715
1506.7763,0.040944
1507.7082,0.044924
1508.6400,0.045054
1509.5718,0.043054
1510.5037,0.041634
1511.4355,0.041183
1512.3673,0.040789
1513.2992,0.040516
1514.2310,0.040289
1515.1628,0.039888
1516.0947,0.039855
1517.0265,0.040371
1517.9583,0.041174
1518.8902,0.041596
1519.8220,0.040312
1520.7538,0.039400
1521.6857,0.040147
1522.6175,0.041508
1523.5493,0.041628
1524.4812,0.041298
1525.4130,0.041133
1526.3448,0.041975
1527.2767,0.042416
1528.2085,0.042189
1529.1403,0.042379
1530.0722,0.042035
1531.0040,0.041283
1531.9359,0.040911
1532.8677,0.041536
1533.7995,0.043059
1534.7314,0.044228
1535.6632,0.043279
1536.5950,0.041543
1537.5269,0.040465
1538.4587,0.040149
1539.3905,0.040879
1540.3224,0.043070
1541.2542,0.044661
1542.1860,0.044204
1543.1179,0.044699
1544.0497,0.044898
1544.9815,0.044549
1545.9134,0.044789
1546.8452,0.044958
1547.7770,0.044133
1548.7089,0.043674
1549.6407,0.043833
1550.5725,0.044403
1551.5044,0.044966
1552.4362,0.044420
1553.3680,0.043798
1554.2999,0.043680
1555.2317,0.044849
1556.1635,0.045627
1557.0954,0.044697
1558.0272,0.044344
1558.9591,0.047412
1559.8909,0.053197
1560.8227,0.054141
1561.7546,0.051951
1562.6864,0.049214
1563.6182,0.047625
1564.5501,0.047246
1565.4819,0.047915
1566.4137,0.049267
1567.3456,0.049461
1568.2774,0.049050
1569.2092,0.049139
1570.1411,0.050938
1571.0729,0.053347
1572.0047,0.052464
1572.9366,0.051307
1573.8684,0.051368
1574.8002,0.051633
1575.7321,0.052240
1576.6639,0.054755
1577.5957,0.058209
1578.5276,0.057919
1579.4594,0.056785
1580.3912,0.056597
1581.3231,0.057149
1582.2549,0.058058
1583.1867,0.058345
1584.1186,0.058743
1585.0504,0.059493
1585.9822,0.060210
1586.9141,0.061141
1587.8459,0.062014
1588.7778,0.062966
1589.7096,0.063910
1590.6414,0.064971
1591.5733,0.066094
1592.5051,0.066835
1593.4369,0.067817
1594.3688,0.069006
1595.3006,0.070340
1596.2324,0.071934
1597.1643,0.073031
1598.0961,0.073644
1599.0279,0.074380
1599.9598,0.075542
1600.8916,0.076965
1601.8234,0.078378
1602.7553,0.080313
1603.6871,0.082322
1604.6189,0.083807
1605.5508,0.084649
1606.4826,0.085767
1607.4144,0.087691
1608.3463,0.089896
1609.2781,0.091874
1610.2099,0.094089
1611.1418,0.096072
1612.0736,0.097218
1613.0054,0.098271
1613.9373,0.099743
1614.8691,0.101151
1615.8010,0.103267
1616.7328,0.107153
1617.6646,0.114288
1618.5965,0.118521
1619.5283,0.116558
1620.4601,0.116308
1621.3920,0.118087
1622.3238,0.119256
1623.2556,0.120353
1624.1875,0.124522
1625.1193,0.129929
1626.0511,0.131215
1626.9830,0.131401
1627.9148,0.133259
1628.8466,0.136314
1629.7785,0.137477
1630.7103,0.136283
1631.6421,0.136037
1632.5740,0.136699
1633.5058,0.136859
1634.4376,0.137552
1635.3695,0.140181
1636.3013,0.147813
1637.2331,0.154093
1638.1650,0.152151
1639.0968,0.149312
1640.0286,0.146464
1640.9605,0.144551
1641.8923,0.143109
1642.8242,0.141731
1643.7560,0.140484
1644.6878,0.139023
1645.6197,0.139167
1646.5515,0.141783
1647.4833,0.145382
1648.4152,0.144212
1649.3470,0.140706
1650.2788,0.137348
1651.2107,0.134434
1652.1425,0.132539
1653.0743,0.134911
1654.0062,0.144657
1654.9380,0.145780
1655.8698,0.138369
1656.8017,0.132413
1657.7335,0.129034
1658.6653,0.126905
1659.5972,0.124542
1660.5290,0.122659
1661.4608,0.121436
1662.3927,0.120151
1663.3245,0.118804
1664.2563,0.117771
1665.1882,0.115636
1666.1200,0.112919
1667.0518,0.110386
1667.9837,0.108214
1668.9155,0.106843
1669.8474,0.106290
1670.7792,0.105370
1671.7110,0.103037
1672.6429,0.100867
1673.5747,0.099055
1674.5065,0.097117
1675.4384,0.096102
1676.3702,0.095647
1677.3020,0.093276
1678.2339,0.090097
1679.1657,0.087514
1680.0975,0.085512
1681.0294,0.083799
1681.9612,0.082412
1682.8930,0.080598
1683.8249,0.078963
1684.7567,0.079387
1685.6885,0.079423
1686.6204,0.076050
1687.5522,0.073395
1688.4840,0.071884
1689.4159,0.070238
1690.3477,0.068829
1691.2795,0.067501
1692.2114,0.065548
1693.1432,0.063690
1694.0750,0.062179
1695.0069,0.061003
1695.9387,0.059906
1696.8706,0.058872
1697.8024,0.057739
1698.7342,0.055745
1699.6661,0.053861
1700.5979,0.052494
1701.5297,0.052604
1702.4616,0.051740
1703.3934,0.049491
1704.3252,0.048291
1705.2571,0.047909
1706.1889,0.047050
1707.1207,0.046185
1708.0526,0.045238
1708.9844,0.043724
1709.9162,0.042704
1710.8481,0.042338
1711.7799,0.041358
1712.7117,0.039860
1713.6436,0.038690
1714.5754,0.037791
1715.5072,0.037655
1716.4391,0.037577
1717.3709,0.036612
1718.3027,0.035928
1719.2346,0.035207
1720.1664,0.034526
1721.0982,0.033539
1722.0301,0.032565
1722.9619,0.032129
1723.8937,0.031777
1724.8256,0.031035
1725.7574,0.030339
1726.6893,0.029878
1727.6211,0.029238
1728.5529,0.028475
1729.4848,0.027862
1730.4166,0.027570
1731.3484,0.027403
1732.2803,0.026857
1733.2121,0.026202
1734.1439,0.025706
1735.0758,0.025535
1736.0076,0.025611
1736.9394,0.025020
1737.8713,0.024169
1738.8031,0.023331
1739.7349,0.022842
1740.6668,0.023223
1741.5986,0.023510
1742.5304,0.022900
1743.4623,0.022198
1744.3941,0.022036
1745.3259,0.022054
1746.2578,0.021400
1747.1896,0.020882
1748.1214,0.020581
1749.0533,0.020556
1749.9851,0.021025
1750.9169,0.020865
1751.8488,0.020091
1752.7806,0.019774
1753.7125,0.019741
1754.6443,0.019197
1755.5761,0.018677
1756.5080,0.018726
1757.4398,0.019182
1758.3716,0.019092
1759.3035,0.018501
1760.2353,0.018334
1761.1671,0.017947
1762.0990,0.017726
1763.0308,0.018244
1763.9626,0.018367
1764.8945,0.017744
1765.8263,0.017135
1766.7581,0.016826
1767.6900,0.016702
1768.6218,0.016626
1769.5536,0.016160
1770.4855,0.015287
1771.4173,0.015295
1772.3491,0.015779
1773.2810,0.015994
1774.2128,0.016097
1775.1446,0.015521
1776.0765,0.015217
1777.0083,0.015038
1777.9401,0.014427
1778.8720,0.014163
1779.8038,0.014412
1780.7357,0.014764
1781.6675,0.014981
1782.5993,0.014810
1783.5312,0.014548
1784.4630,0.014514
1785.3948,0.014321
1786.3267,0.013939
1787.2585,0.013898
1788.1903,0.013895
1789.1222,0.013535
1790.0540,0.013135
1790.9858,0.012669
1791.9177,0.012644
1792.8495,0.012330
1793.7813,0.011843
1794.7132,0.012633
1795.6450,0.012954
1796.5768,0.012684
1797.5087,0.012593
1798.4405,0.012766
1799.3723,0.012828
1800.3042,0.012358
1801.2360,0.011904
1802.1678,0.012059
1803.0997,0.012324
1804.0315,0.012647
1804.9633,0.012738
1805.8952,0.012282
1806.8270,0.011587
1807.7589,0.011757
1808.6907,0.012398
1809.6225,0.012058
1810.5544,0.011535
1811.4862,0.011607
1812.4180,0.011855
1813.3499,0.011777
1814.2817,0.011477
1815.2135,0.011071
1816.1454,0.010913
1817.0772,0.011056
1818.0090,0.010701
1818.9409,0.010375
1819.8727,0.010819
1820.8045,0.011133
1821.7364,0.011127
1822.6682,0.010875
1823.6000,0.010683
1824.5319,0.010993
1825.4637,0.010768
1826.3955,0.010309
1827.3274,0.010960
1828.2592,0.011050
1829.1910,0.009776
1830.1229,0.009042
1831.0547,0.009644
1831.9865,0.009923
1832.9184,0.009584
1833.8502,0.010046
1834.7821,0.010606
1835.7139,0.009942
1836.6457,0.009660
1837.5776,0.010483
1838.5094,0.011039
1839.4412,0.010953
1840.3731,0.010428
1841.3049,0.010071
1842.2367,0.009955
1843.1686,0.009508
1844.1004,0.009512
1845.0322,0.009580
1845.9641,0.009463
1846.8959,0.009567
1847.8277,0.009451
1848.7596,0.009069
1849.6914,0.009230
1850.6232,0.009957
1851.5551,0.010096
1852.4869,0.009898
1853.4187,0.009449
1854.3506,0.009175
1855.2824,0.009710
1856.2142,0.009901
1857.1461,0.009262
1858.0779,0.009176
1859.0097,0.009558
1859.9416,0.009534
1860.8734,0.009462
1861.8052,0.009705
1862.7371,0.009809
1863.6689,0.009625
1864.6008,0.009850
1865.5326,0.009762
1866.4644,0.009104
1867.3963,0.008762
1868.3281,0.008754
1869.2599,0.008839
1870.1918,0.009135
1871.1236,0.009796
1872.0554,0.010120
1872.9873,0.009601
1873.9191,0.008668
1874.8509,0.008436
1875.7828,0.008688
1876.7146,0.008430
1877.6464,0.008044
1878.5783,0.008009
1879.5101,0.008562
1880.4419,0.009666
1881.3738,0.010517
1882.3056,0.010306
1883.2374,0.009668
1884.1693,0.009168
1885.1011,0.008967
1886.0329,0.009540
1886.9648,0.009551
1887.8966,0.008693
1888.8284,0.008923
1889.7603,0.008969
1890.6921,0.007748
1891.6240,0.007865
1892.5558,0.008959
1893.4876,0.009155
1894.4195,0.008485
1895.3513,0.008301
1896.2831,0.008717
1897.2150,0.008843
1898.1468,0.009353
1899.0786,0.009259
1900.0105,0.008909
1900.9423,0.009350
1901.8741,0.009908
1902.8060,0.010301
1903.7378,0.009499
1904.6696,0.008408
1905.6015,0.008274
1906.5333,0.008103
1907.4651,0.007949
1908.3970,0.009258
1909.3288,0.009764
1910.2606,0.008497
1911.1925,0.008442
1912.1243,0.008854
1913.0561,0.008458
1913.9880,0.008696
1914.9198,0.008467
1915.8516,0.008037
1916.7835,0.009207
1917.7153,0.009901
1918.6472,0.009673
1919.5790,0.008974
1920.5108,0.008536
1921.4427,0.009188
1922.3745,0.008365
1923.3063,0.007502
1924.2382,0.008853
1925.1700,0.009779
1926.1018,0.009137
1927.0337,0.008863
1927.9655,0.009938
1928.8973,0.010552
1929.8292,0.009291
1930.7610,0.007477
1931.6928,0.006851
1932.6247,0.008496
1933.5565,0.009943
1934.4883,0.008839
1935.4202,0.007801
1936.3520,0.007995
1937.2838,0.008038
1938.2157,0.007140
1939.1475,0.006460
1940.0793,0.006645
1941.0112,0.006018
1941.9430,0.005525
1942.8748,0.005294
1943.8067,0.005936
1944.7385,0.006781
1945.6704,0.006707
1946.6022,0.006264
1947.5340,0.007410
1948.4659,0.008499
1949.3977,0.008291
1950.3295,0.007447
1951.2614,0.005717
1952.1932,0.005653
1953.1250,0.007465
1954.0569,0.008109
1954.9887,0.006806
1955.9205,0.005485
1956.8524,0.006174
1957.7842,0.007085
1958.7160,0.007794
1959.6479,0.008572
1960.5797,0.007990
1961.5115,0.006363
1962.4434,0.005373
1963.3752,0.003674
1964.3070,0.002572
1965.2389,0.003211
1966.1707,0.004365
1967.1025,0.002554
1968.0344,0.002157
1968.9662,0.004788
1969.8980,0.003687
1970.8299,0.002057
1971.7617,0.004098
1972.6936,0.006245
1973.6254,0.004661
1974.5572,0.002685
1975.4891,0.004207
1976.4209,0.005710
1977.3527,0.004454
1978.2846,0.002242
1979.2164,0.001471
1980.1482,0.002944
1981.0801,0.004605
1982.0119,0.005839
1982.9437,0.005604
1983.8756,0.004479
1984.8074,0.002958
1985.7392,0.003084
1986.6711,0.005364
1987.6029,0.007044
1988.5347,0.007408
1989.4666,0.006918
1990.3984,0.008024
1991.3302,0.006859
1992.2621,0.004157
1993.1939,0.004388
1994.1257,0.005213
1995.0576,0.003658
1995.9894,0.003590
1996.9212,0.006712
1997.8531,0.008205
1998.7849,0.007428
1999.7167,0.007489
2000.6486,0.008135
2001.5804,0.007387
2002.5123,0.006873
2003.4441,0.006758
2004.3759,0.007400
2005.3078,0.006158
2006.2396,0.002542
2007.1714,0.004752
2008.1033,0.006770
2009.0351,0.006217
2009.9669,0.006929
2010.8988,0.002530
2011.8306,0.000661
2012.7624,0.001866
2013.6943,0.003586
2014.6261,0.005608
2015.5579,0.003687
2016.4898,0.004329
2017.4216,0.006325
2018.3534,0.007174
2019.2853,0.006691
2020.2171,0.004811
2021.1489,0.005723
2022.0808,0.005318
2023.0126,0.003144
2023.9444,0.005920
2024.8763,0.005740
2025.8081,0.003534
2026.7399,0.007129
2027.6718,0.010713
2028.6036,0.007830
2029.5355,0.005720
2030.4673,0.007106
2031.3991,0.006913
2032.3310,0.003340
2033.2628,0.002025
2034.1946,0.005928
2035.1265,0.007454
2036.0583,0.004720
2036.9901,0.003008
2037.9220,0.004223
2038.8538,0.008607
2039.7856,0.010253
2040.7175,0.006421
2041.6493,0.003592
2042.5811,0.003460
2043.5130,0.004696
2044.4448,0.005669
2045.3766,0.006502
2046.3085,0.007397
2047.2403,0.009012
2048.1721,0.009470
2049.1040,0.007661
2050.0358,0.006996
2050.9676,0.007301
2051.8995,0.008597
2052.8313,0.009016
2053.7631,0.009795
2054.6950,0.009966
2055.6268,0.009318
2056.5587,0.010451
2057.4905,0.010974
2058.4223,0.009672
2059.3542,0.010006
2060.2860,0.010708
2061.2178,0.009984
2062.1497,0.009613
2063.0815,0.009619
2064.0133,0.010802
2064.9452,0.011734
2065.8770,0.010101
2066.8088,0.009731
2067.7407,0.011207
2068.6725,0.011559
2069.6043,0.011009
2070.5362,0.011317
2071.4680,0.011850
2072.3998,0.011781
2073.3317,0.010586
2074.2635,0.011252
2075.1953,0.012921
2076.1272,0.013876
2077.0590,0.013702
2077.9908,0.012118
2078.9227,0.011653
2079.8545,0.012608
2080.7863,0.013373
2081.7182,0.013149
2082.6500,0.012883
2083.5819,0.013512
2084.5137,0.013940
2085.4455,0.014499
2086.3774,0.015060
2087.3092,0.014681
2088.2410,0.013307
2089.1729,0.012394
2090.1047,0.011984
2091.0365,0.012408
2091.9684,0.012797
2092.9002,0.012586
2093.8320,0.012679
2094.7639,0.013268
2095.6957,0.013130
2096.6275,0.012498
2097.5594,0.013257
2098.4912,0.013151
2099.4230,0.011254
2100.3549,0.010555
2101.2867,0.012072
2102.2185,0.012615
2103.1504,0.013103
2104.0822,0.012735
2105.0140,0.011019
2105.9459,0.011620
2106.8777,0.012579
2107.8095,0.013559
2108.7414,0.014550
2109.6732,0.014383
2110.6051,0.014735
2111.5369,0.014851
2112.4687,0.014499
2113.4006,0.014215
2114.3324,0.014620
2115.2642,0.014166
2116.1961,0.013723
2117.1279,0.014904
2118.0597,0.015070
2118.9916,0.014203
2119.9234,0.013794
2120.8552,0.014885
2121.7871,0.014255
2122.7189,0.014061
2123.6507,0.014979
2124.5826,0.014661
2125.5144,0.014474
2126.4462,0.013955
2127.3781,0.012807
2128.3099,0.012226
2129.2417,0.012789
2130.1736,0.013565
2131.1054,0.013203
2132.0372,0.011892
2132.9691,0.010991
2133.9009,0.011076
2134.8327,0.011421
2135.7646,0.012238
2136.6964,0.012907
2137.6282,0.012808
2138.5601,0.010344
2139.4919,0.009328
2140.4238,0.011502
2141.3556,0.011977
2142.2874,0.010824
2143.2193,0.011069
2144.1511,0.011664
2145.0829,0.009887
2146.0148,0.009982
2146.9466,0.011354
2147.8784,0.010745
2148.8103,0.011776
2149.7421,0.012220
2150.6739,0.008499
2151.6058,0.005053
2152.5376,0.005133
2153.4694,0.008000
2154.4013,0.007038
2155.3331,0.003553
2156.2649,0.003291
2157.1968,0.005052
2158.1286,0.006158
2159.0604,0.007290
2159.9923,0.003806
2160.9241,0.002480
2161.8559,0.005793
2162.7878,0.004326
2163.7196,0.003598
2164.6514,0.006589
2165.5833,0.007296
2166.5151,0.007257
2167.4470,0.006295
2168.3788,0.004572
2169.3106,0.004995
2170.2425,0.005391
2171.1743,0.006144
2172.1061,0.009134
2173.0380,0.010599
2173.9698,0.009513
2174.9016,0.007538
2175.8335,0.006221
2176.7653,0.007630
2177.6971,0.008122
2178.6290,0.009851
2179.5608,0.010984
2180.4926,0.006762
2181.4245,0.004002
2182.3563,0.004797
2183.2881,0.006233
2184.2200,0.008470
2185.1518,0.008996
2186.0836,0.008382
2187.0155,0.008852
2187.9473,0.008196
2188.8791,0.008848
2189.8110,0.008903
2190.7428,0.008500
2191.6746,0.007285
2192.6065,0.005076
2193.5383,0.006125
2194.4702,0.009202
2195.4020,0.010413
2196.3338,0.008306
2197.2657,0.007590
2198.1975,0.010001
2199.1293,0.008908
2200.0612,0.010283
2200.9930,0.011597
2201.9248,0.009482
2202.8567,0.006473
2203.7885,0.006282
2204.7203,0.007939
2205.6522,0.008130
2206.5840,0.008986
2207.5158,0.009255
2208.4477,0.008767
2209.3795,0.010134
2210.3113,0.010523
2211.2432,0.010312
2212.1750,0.009166
2213.1068,0.007628
2214.0387,0.008704
2214.9705,0.011712
2215.9023,0.010220
2216.8342,0.007811
2217.7660,0.009120
2218.6978,0.008730
2219.6297,0.008042
2220.5615,0.008238
2221.4934,0.008809
2222.4252,0.010586
2223.3570,0.010910
2224.2889,0.009332
2225.2207,0.008459
2226.1525,0.008566
2227.0844,0.008215
2228.0162,0.009095
2228.9480,0.009600
2229.8799,0.008350
2230.8117,0.009041
2231.7435,0.010681
2232.6754,0.009063
2233.6072,0.009295
2234.5390,0.010620
2235.4709,0.008237
2236.4027,0.008847
2237.3345,0.010276
2238.2664,0.009997
2239.1982,0.007576
2240.1300,0.007041
2241.0619,0.009673
2241.9937,0.009517
2242.9255,0.007305
2243.8574,0.007568
2244.7892,0.008322
2245.7210,0.008605
2246.6529,0.009867
2247.5847,0.009749
2248.5166,0.009070
2249.4484,0.009095
2250.3802,0.008849
2251.3121,0.008339
2252.2439,0.009607
2253.1757,0.009939
2254.1076,0.008958
2255.0394,0.009841
2255.9712,0.010389
2256.9031,0.009741
2257.8349,0.009418
2258.7667,0.008755
2259.6986,0.009006
2260.6304,0.009885
2261.5622,0.008816
2262.4941,0.008729
2263.4259,0.009777
2264.3577,0.010202
2265.2896,0.011110
2266.2214,0.011057
2267.1532,0.010062
2268.0851,0.009336
2269.0169,0.007552
2269.9487,0.007475
2270.8806,0.009515
2271.8124,0.010274
2272.7442,0.009686
2273.6761,0.009820
2274.6079,0.009498
2275.5397,0.008898
2276.4716,0.007924
2277.4034,0.007797
2278.3353,0.009114
2279.2671,0.009304
2280.1989,0.008668
2281.1308,0.008263
2282.0626,0.008267
2282.9944,0.008390
2283.9263,0.007565
2284.8581,0.007260
2285.7899,0.008875
2286.7218,0.009716
2287.6536,0.009923
2288.5854,0.009236
2289.5173,0.008306
2290.4491,0.008590
2291.3809,0.009401
2292.3128,0.009717
2293.2446,0.009146
2294.1764,0.009670
2295.1083,0.010190
2296.0401,0.009829
2296.9719,0.008917
2297.9038,0.008562
2298.8356,0.008951
2299.7674,0.008962
2300.6993,0.008874
2301.6311,0.009168
2302.5629,0.008691
2303.4948,0.007868
2304.4266,0.008883
2305.3585,0.009599
2306.2903,0.009213
2307.2221,0.009317
2308.1540,0.009642
2309.0858,0.009908
2310.0176,0.010298
2310.9495,0.009753
2311.8813,0.008735
2312.8131,0.008112
2313.7450,0.009092
2314.6768,0.008977
2315.6086,0.008668
2316.5405,0.008836
2317.4723,0.008958
2318.4041,0.009806
2319.3360,0.009922
2320.2678,0.009112
2321.1996,0.008521
2322.1315,0.008562
2323.0633,0.008757
2323.9951,0.008211
2324.9270,0.009507
2325.8588,0.009821
2326.7906,0.008468
2327.7225,0.007588
2328.6543,0.008495
2329.5861,0.009536
2330.5180,0.009088
2331.4498,0.008977
2332.3817,0.009424
2333.3135,0.009748
2334.2453,0.008796
2335.1772,0.007711
2336.1090,0.008060
2337.0408,0.008219
2337.9727,0.007992
2338.9045,0.008010
2339.8363,0.007820
2340.7682,0.008448
2341.7000,0.008485
2342.6318,0.008277
2343.5637,0.008253
2344.4955,0.008076
2345.4273,0.007521
2346.3592,0.007901
2347.2910,0.008455
2348.2228,0.008635
2349.1547,0.008636
2350.0865,0.007536
2351.0183,0.007684
2351.9502,0.008611
2352.8820,0.008282
2353.8138,0.007691
2354.7457,0.008003
2355.6775,0.007659
2356.6093,0.007735
2357.5412,0.008344
2358.4730,0.008422
2359.4049,0.007695
2360.3367,0.007379
2361.2685,0.008502
2362.2004,0.008306
2363.1322,0.007275
2364.0640,0.007294
2364.9959,0.007452
2365.9277,0.008058
2366.8595,0.007290
2367.7914,0.006828
2368.7232,0.006367
2369.6550,0.005914
2370.5869,0.006100
2371.5187,0.006301
2372.4505,0.006081
2373.3824,0.006793
2374.3142,0.007370
2375.2460,0.006811
2376.1779,0.006813
2377.1097,0.006898
2378.0415,0.006122
2378.9734,0.006588
2379.9052,0.007243
2380.8370,0.007418
2381.7689,0.007245
2382.7007,0.007389
2383.6325,0.007594
2384.5644,0.007494
2385.4962,0.007620
2386.4281,0.007580
2387.3599,0.007031
2388.2917,0.007126
2389.2236,0.006742
2390.1554,0.006193
2391.0872,0.006570
2392.0191,0.006754
2392.9509,0.006929
2393.8827,0.007102
2394.8146,0.007070
2395.7464,0.007455
2396.6782,0.007152
2397.6101,0.006718
2398.5419,0.006427
2399.4737,0.006610
2400.4056,0.006730
2401.3374,0.006928
2402.2692,0.007052
2403.2011,0.006583
2404.1329,0.006623
2405.0647,0.007722
2405.9966,0.008305
2406.9284,0.007783
2407.8602,0.007024
2408.7921,0.006837
2409.7239,0.007130
2410.6557,0.007655
2411.5876,0.006843
2412.5194,0.006278
2413.4512,0.006676
2414.3831,0.006150
2415.3149,0.005703
2416.2468,0.005943
2417.1786,0.006196
2418.1104,0.006686
2419.0423,0.006678
2419.9741,0.005900
2420.9059,0.005422
2421.8378,0.005812
2422.7696,0.006198
2423.7014,0.006566
2424.6333,0.006165
2425.5651,0.005971
2426.4969,0.006247
2427.4288,0.005438
2428.3606,0.004898
2429.2924,0.004957
2430.2243,0.005352
2431.1561,0.005777
2432.0879,0.006080
2433.0198,0.006636
2433.9516,0.006282
2434.8834,0.005814
2435.8153,0.004881
2436.7471,0.004205
2437.6789,0.005823
2438.6108,0.006932
2439.5426,0.006328
2440.4744,0.006305
2441.4063,0.005279
2442.3381,0.004141
2443.2700,0.005773
2444.2018,0.006000
2445.1336,0.005182
2446.0655,0.005723
2446.9973,0.005911
2447.9291,0.005812
2448.8610,0.005124
2449.7928,0.004577
2450.7246,0.004600
2451.6565,0.004277
2452.5883,0.005341
2453.5201,0.005805
2454.4520,0.005308
2455.3838,0.005444
2456.3156,0.005612
2457.2475,0.005096
2458.1793,0.004409
2459.1111,0.004938
2460.0430,0.005789
2460.9748,0.005713
2461.9066,0.004764
2462.8385,0.004334
2463.7703,0.004440
2464.7021,0.004818
2465.6340,0.005557
2466.5658,0.005802
2467.4976,0.005571
2468.4295,0.005866
2469.3613,0.005736
2470.2932,0.005722
2471.2250,0.006214
2472.1568,0.005163
2473.0887,0.004332
2474.0205,0.004131
2474.9523,0.004526
2475.8842,0.005059
2476.8160,0.004732
2477.7478,0.004552
2478.6797,0.005964
2479.6115,0.005436
2480.5433,0.004582
2481.4752,0.004648
2482.4070,0.005168
2483.3388,0.005308
2484.2707,0.005987
2485.2025,0.006522
2486.1343,0.005315
2487.0662,0.004520
2487.9980,0.004580
2488.9298,0.005036
2489.8617,0.005344
2490.7935,0.005040
2491.7253,0.005529
2492.6572,0.006010
2493.5890,0.005990
2494.5208,0.005811
2495.4527,0.005515
2496.3845,0.004510
2497.3164,0.004373
2498.2482,0.004988
2499.1800,0.006001
2500.1119,0.005374
2501.0437,0.004395
2501.9755,0.004933
2502.9074,0.005541
2503.8392,0.005550
2504.7710,0.005476
2505.7029,0.005259
2506.6347,0.005882
2507.5665,0.006993
2508.4984,0.006987
2509.4302,0.005072
2510.3620,0.004444
2511.2939,0.004602
2512.2257,0.004212
2513.1575,0.004419
2514.0894,0.005093
2515.0212,0.005713
2515.9530,0.005248
2516.8849,0.004446
2517.8167,0.004899
2518.7485,0.005556
2519.6804,0.005516
2520.6122,0.005422
2521.5440,0.005145
2522.4759,0.004750
2523.4077,0.004363
2524.3396,0.004455
2525.2714,0.005131
2526.2032,0.004885
2527.1351,0.004376
2528.0669,0.003713
2528.9987,0.003159
2529.9306,0.003249
2530.8624,0.004204
2531.7942,0.005017
2532.7261,0.004363
2533.6579,0.004649
2534.5897,0.004719
2535.5216,0.003908
2536.4534,0.004631
2537.3852,0.005080
2538.3171,0.004178
2539.2489,0.004694
2540.1807,0.005686
2541.1126,0.006113
2542.0444,0.006145
2542.9762,0.005423
2543.9081,0.004435
2544.8399,0.003907
2545.7717,0.004441
2546.7036,0.005437
2547.6354,0.004983
2548.5672,0.004239
2549.4991,0.004017
2550.4309,0.003732
2551.3627,0.003607
2552.2946,0.004613
2553.2264,0.005532
2554.1583,0.005706
2555.0901,0.004540
2556.0219,0.004031
2556.9538,0.004579
2557.8856,0.004640
2558.8174,0.004078
2559.7493,0.003817
2560.6811,0.003917
2561.6129,0.004968
2562.5448,0.005200
2563.4766,0.005335
2564.4084,0.004998
2565.3403,0.003893
2566.2721,0.003630
2567.2039,0.004011
2568.1358,0.004187
2569.0676,0.004144
2569.9994,0.004193
2570.9313,0.003853
2571.8631,0.002992
2572.7949,0.003675
2573.7268,0.004790
2574.6586,0.004606
2575.5904,0.004549
2576.5223,0.004465
2577.4541,0.004445
2578.3859,0.005234
2579.3178,0.005375
2580.2496,0.003725
2581.1815,0.003319
2582.1133,0.004763
2583.0451,0.005047
2583.9770,0.004779
2584.9088,0.004679
2585.8406,0.004394
2586.7725,0.003710
2587.7043,0.004007
2588.6361,0.004772
2589.5680,0.004996
2590.4998,0.004393
2591.4316,0.004427
2592.3635,0.004722
2593.2953,0.004834
2594.2271,0.005361
2595.1590,0.005181
2596.0908,0.003977
2597.0226,0.003697
2597.9545,0.004407
2598.8863,0.004895
2599.8181,0.004505
2600.7500,0.004691
2601.6818,0.005012
2602.6136,0.004889
2603.5455,0.004648
2604.4773,0.004344
2605.4091,0.004019
2606.3410,0.003761
2607.2728,0.004234
2608.2047,0.004850
2609.1365,0.005441
2610.0683,0.005240
2611.0002,0.004516
2611.9320,0.004351
2612.8638,0.004981
2613.7957,0.004924
2614.7275,0.004429
2615.6593,0.004728
2616.5912,0.005693
2617.5230,0.005715
2618.4548,0.005537
2619.3867,0.005283
2620.3185,0.004731
2621.2503,0.005125
2622.1822,0.005255
2623.1140,0.005051
2624.0458,0.005208
2624.9777,0.005535
2625.9095,0.005622
2626.8413,0.005676
2627.7732,0.005381
2628.7050,0.004980
2629.6368,0.005246
2630.5687,0.005832
2631.5005,0.005721
2632.4323,0.005507
2633.3642,0.005512
2634.2960,0.005722
2635.2279,0.006059
2636.1597,0.006030
2637.0915,0.005876
2638.0234,0.005697
2638.9552,0.005556
2639.8870,0.005473
2640.8189,0.005692
2641.7507,0.006065
2642.6825,0.006462
2643.6144,0.006208
2644.5462,0.005864
2645.4780,0.005811
2646.4099,0.006135
2647.3417,0.006216
2648.2735,0.006018
2649.2054,0.006014
2650.1372,0.006262
2651.0690,0.006367
2652.0009,0.006131
2652.9327,0.006013
2653.8645,0.006271
2654.7964,0.006228
2655.7282,0.006056
2656.6600,0.005970
2657.5919,0.005754
2658.5237,0.005747
2659.4555,0.006249
2660.3874,0.006347
2661.3192,0.006255
2662.2511,0.006094
2663.1829,0.005925
2664.1147,0.006578
2665.0466,0.007296
2665.9784,0.007032
2666.9102,0.006538
2667.8421,0.006336
2668.7739,0.006721
2669.7057,0.006941
2670.6376,0.007060
2671.5694,0.007186
2672.5012,0.007208
2673.4331,0.007075
2674.3649,0.007020
2675.2967,0.007387
2676.2286,0.007439
2677.1604,0.006928
2678.0922,0.007314
2679.0241,0.007691
2679.9559,0.007540
2680.8877,0.007440
2681.8196,0.007189
2682.7514,0.007049
2683.6832,0.007171
2684.6151,0.007122
2685.5469,0.007045
2686.4787,0.007496
2687.4106,0.008081
2688.3424,0.007971
2689.2742,0.007464
2690.2061,0.007346
2691.1379,0.007593
2692.0698,0.007979
2693.0016,0.008229
2693.9334,0.008108
2694.8653,0.007392
2695.7971,0.006800
2696.7289,0.007047
2697.6608,0.007839
2698.5926,0.007860
2699.5244,0.007671
2700.4563,0.007780
2701.3881,0.008210
2702.3199,0.008806
2703.2518,0.008727
2704.1836,0.008515
2705.1154,0.008355
2706.0473,0.008087
2706.9791,0.008347
2707.9109,0.008546
2708.8428,0.008929
2709.7746,0.009269
2710.7064,0.009255
2711.6383,0.008947
2712.5701,0.008643
2713.5019,0.008887
2714.4338,0.009169
2715.3656,0.008982
2716.2974,0.008947
2717.2293,0.009012
2718.1611,0.009349
2719.0930,0.009801
2720.0248,0.009506
2720.9566,0.009273
2721.8885,0.009201
2722.8203,0.009176
2723.7521,0.009282
2724.6840,0.009342
2725.6158,0.009640
2726.5476,0.009942
2727.4795,0.010417
2728.4113,0.010561
2729.3431,0.010465
2730.2750,0.010286
2731.2068,0.010193
2732.1386,0.010172
2733.0705,0.010548
2734.0023,0.010688
2734.9341,0.010300
2735.8660,0.010138
2736.7978,0.010177
2737.7296,0.010407
2738.6615,0.010592
2739.5933,0.010996
2740.5251,0.011240
2741.4570,0.011196
2742.3888,0.011155
2743.3206,0.010988
2744.2525,0.011260
2745.1843,0.011359
2746.1162,0.011150
2747.0480,0.010904
2747.9798,0.010989
2748.9117,0.010838
2749.8435,0.010498
2750.7753,0.011133
2751.7072,0.011888
2752.6390,0.011959
2753.5708,0.011908
2754.5027,0.011739
2755.4345,0.011325
2756.3663,0.011102
2757.2982,0.010994
2758.2300,0.011125
2759.1618,0.011563
2760.0937,0.011940
2761.0255,0.011781
2761.9573,0.011643
2762.8892,0.011952
2763.8210,0.012037
2764.7528,0.011477
2765.6847,0.011250
2766.6165,0.011574
2767.5483,0.012075
2768.4802,0.012344
2769.4120,0.012142
2770.3438,0.012035
2771.2757,0.012267
2772.2075,0.012213
2773.1394,0.012224
2774.0712,0.012299
2775.0030,0.012378
2775.9349,0.012323
2776.8667,0.012282
2777.7985,0.012438
2778.7304,0.012555
2779.6622,0.012342
2780.5940,0.012293
2781.5259,0.012562
2782.4577,0.013151
2783.3895,0.013355
2784.3214,0.012903
2785.2532,0.012779
2786.1850,0.013028
2787.1169,0.013520
2788.0487,0.013812
2788.9805,0.013908
2789.9124,0.013761
2790.8442,0.013926
2791.7760,0.014146
2792.7079,0.013943
2793.6397,0.013926
2794.5715,0.013991
2795.5034,0.014127
2796.4352,0.014489
2797.3670,0.015116
2798.2989,0.015577
2799.2307,0.015176
2800.1626,0.015122
2801.0944,0.015602
2802.0262,0.015515
2802.9581,0.015403
2803.8899,0.015616
2804.8217,0.016012
2805.7536,0.016181
2806.6854,0.016397
2807.6172,0.016838
2808.5491,0.017250
2809.4809,0.017710
2810.4127,0.017551
2811.3446,0.016963
2812.2764,0.017064
2813.2082,0.017407
2814.1401,0.017302
2815.0719,0.017623
2816.0037,0.018025
2816.9356,0.018259
2817.8674,0.018652
2818.7992,0.018562
2819.7311,0.018724
2820.6629,0.019015
2821.5947,0.018903
2822.5266,0.018977
2823.4584,0.019339
2824.3902,0.019853
2825.3221,0.020175
2826.2539,0.020272
2827.1857,0.020184
2828.1176,0.019949
2829.0494,0.019731
2829.9813,0.019875
2830.9131,0.020316
2831.8449,0.020434
2832.7768,0.020765
2833.7086,0.020966
2834.6404,0.020816
2835.5723,0.021470
2836.5041,0.022049
2837.4359,0.022039
2838.3678,0.022170
2839.2996,0.022379
2840.2314,0.022272
2841.1633,0.022560
2842.0951,0.023394
2843.0269,0.023701
2843.9588,0.023234
2844.8906,0.023101
2845.8224,0.023236
2846.7543,0.023739
2847.6861,0.024337
2848.6179,0.024178
2849.5498,0.024413
2850.4816,0.024953
2851.4134,0.025068
2852.3453,0.024943
2853.2771,0.024897
2854.2089,0.025286
2855.1408,0.026155
2856.0726,0.026755
2857.0045,0.026547
2857.9363,0.026568
2858.8681,0.026878
2859.8000,0.027426
2860.7318,0.027905
2861.6636,0.028053
2862.5955,0.028406
2863.5273,0.028743
2864.4591,0.028883
2865.3910,0.029497
2866.3228,0.030355
2867.2546,0.031150
2868.1865,0.031343
2869.1183,0.031461
2870.0501,0.031925
2870.9820,0.032585
2871.9138,0.033460
2872.8456,0.034018
2873.7775,0.034169
2874.7093,0.034963
2875.6411,0.035968
2876.5730,0.036258
2877.5048,0.036766
2878.4366,0.037405
2879.3685,0.037536
2880.3003,0.038073
2881.2321,0.038814
2882.1640,0.038950
2883.0958,0.039100
2884.0277,0.039432
2884.9595,0.039660
2885.8913,0.040287
2886.8232,0.040512
2887.7550,0.040731
2888.6868,0.041622
2889.6187,0.042297
2890.5505,0.042413
2891.4823,0.042959
2892.4142,0.043982
2893.3460,0.044229
2894.2778,0.044301
2895.2097,0.044611
2896.1415,0.045225
2897.0733,0.045406
2898.0052,0.045150
2898.9370,0.045510
2899.8688,0.046107
2900.8007,0.046214
2901.7325,0.046592
2902.6643,0.047166
2903.5962,0.047013
2904.5280,0.046965
2905.4598,0.047267
2906.3917,0.047748
2907.3235,0.047643
2908.2553,0.046491
2909.1872,0.045685
2910.1190,0.045297
2911.0509,0.044771
2911.9827,0.044695
2912.9145,0.044773
2913.8464,0.044363
2914.7782,0.043907
2915.7100,0.043983
2916.6419,0.044221
2917.5737,0.044175
2918.5055,0.043882
2919.4374,0.043745
2920.3692,0.044008
2921.3010,0.043999
2922.2329,0.043311
2923.1647,0.043411
2924.0965,0.044240
2925.0284,0.044352
2925.9602,0.044508
2926.8920,0.044881
2927.8239,0.045480
2928.7557,0.046544
2929.6875,0.046761
2930.6194,0.046480
2931.5512,0.046701
2932.4830,0.047240
2933.4149,0.048141
2934.3467,0.048737
2935.2785,0.048011
2936.2104,0.047674
2937.1422,0.047733
2938.0741,0.047482
2939.0059,0.047844
2939.9377,0.047813
2940.8696,0.047297
2941.8014,0.047886
2942.7332,0.049232
2943.6651,0.049709
2944.5969,0.049688
2945.5287,0.049626
2946.4606,0.049490
2947.3924,0.049748
2948.3242,0.050024
2949.2561,0.049442
2950.1879,0.048830
2951.1197,0.048955
2952.0516,0.048786
2952.9834,0.048910
2953.9152,0.049709
2954.8471,0.050490
2955.7789,0.050653
2956.7107,0.051007
2957.6426,0.051614
2958.5744,0.051729
2959.5062,0.051929
2960.4381,0.052883
2961.3699,0.054423
2962.3017,0.055765
2963.2336,0.056343
2964.1654,0.057052
2965.0972,0.058695
2966.0291,0.060238
2966.9609,0.061622
2967.8928,0.063512
2968.8246,0.065725
2969.7564,0.067852
2970.6883,0.069768
2971.6201,0.072148
2972.5519,0.074900
2973.4838,0.077249
2974.4156,0.079703
2975.3474,0.082520
2976.2793,0.084530
2977.2111,0.086365
2978.1429,0.088350
2979.0748,0.089637
2980.0066,0.090378
2980.9384,0.089998
2981.8703,0.089464
2982.8021,0.089241
2983.7339,0.087582
2984.6658,0.086071
2985.5976,0.085268
2986.5294,0.083328
2987.4613,0.080248
2988.3931,0.077533
2989.3249,0.076124
2990.2568,0.074363
2991.1886,0.072069
2992.1204,0.070510
2993.0523,0.069222
2993.9841,0.067368
2994.9160,0.065032
2995.8478,0.063174
2996.7796,0.061688
2997.7115,0.060615
2998.6433,0.059633
2999.5751,0.058882
3000.5070,0.058886
3001.4388,0.058970
3002.3706,0.058792
3003.3025,0.058082
3004.2343,0.057784
3005.1661,0.057998
3006.0980,0.057625
3007.0298,0.057202
3007.9616,0.057317
3008.8935,0.057223
3009.8253,0.057119
3010.7571,0.057559
3011.6890,0.057802
3012.6208,0.058456
3013.5526,0.059192
3014.4845,0.058930
3015.4163,0.058945
3016.3481,0.059242
3017.2800,0.059392
3018.2118,0.059772
3019.1436,0.060093
3020.0755,0.060795
3021.0073,0.061500
3021.9392,0.061992
3022.8710,0.062156
3023.8028,0.061845
3024.7347,0.062944
3025.6665,0.064181
3026.5983,0.064438
3027.5302,0.064579
3028.4620,0.064499
3029.3938,0.064902
3030.3257,0.065445
3031.2575,0.065801
3032.1893,0.066358
3033.1212,0.066741
3034.0530,0.067596
3034.9848,0.069029
3035.9167,0.069324
3036.8485,0.069388
3037.7803,0.070110
3038.7122,0.070635
3039.6440,0.071615
3040.5758,0.072981
3041.5077,0.073416
3042.4395,0.072922
3043.3713,0.072971
3044.3032,0.073994
3045.2350,0.075266
3046.1668,0.076377
3047.0987,0.076719
3048.0305,0.076378
3048.9624,0.076867
3049.8942,0.078348
3050.8260,0.079349
3051.7579,0.080026
3052.6897,0.080657
3053.6215,0.080999
3054.5534,0.081866
3055.4852,0.082869
3056.4170,0.083408
3057.3489,0.082912
3058.2807,0.083250
3059.2125,0.084984
3060.1444,0.086704
3061.0762,0.087670
3062.0080,0.087896
3062.9399,0.088457
3063.8717,0.088860
3064.8035,0.089185
3065.7354,0.089977
3066.6672,0.090869
3067.5990,0.092214
3068.5309,0.093553
3069.4627,0.094514
3070.3945,0.095571
3071.3264,0.095884
3072.2582,0.095213
3073.1900,0.095850
3074.1219,0.098390
3075.0537,0.099904
3075.9856,0.100104
3076.9174,0.100816
3077.8492,0.101402
3078.7811,0.101751
3079.7129,0.102224
3080.6447,0.103104
3081.5766,0.104319
3082.5084,0.105828
3083.4402,0.107280
3084.3721,0.108189
3085.3039,0.108530
3086.2357,0.109377
3087.1676,0.110000
3088.0994,0.110181
3089.0312,0.111050
3089.9631,0.112343
3090.8949,0.113549
3091.8267,0.114430
3092.7586,0.114438
3093.6904,0.115544
3094.6222,0.117909
3095.5541,0.119180
3096.4859,0.120387
3097.4177,0.121682
3098.3496,0.121637
3099.2814,0.121976
3100.2132,0.123319
3101.1451,0.124868
3102.0769,0.125736
3103.0087,0.126570
3103.9406,0.127637
3104.8724,0.128995
3105.8043,0.130262
3106.7361,0.131334
3107.6679,0.132942
3108.5998,0.133673
3109.5316,0.133615
3110.4634,0.134484
3111.3953,0.136058
3112.3271,0.137968
3113.2589,0.138878
3114.1908,0.140179
3115.1226,0.141986
3116.0544,0.142890
3116.9863,0.143639
3117.9181,0.144545
3118.8499,0.145225
3119.7818,0.146500
3120.7136,0.147677
3121.6454,0.148450
3122.5773,0.149994
3123.5091,0.151286
3124.4409,0.150956
3125.3728,0.152108
3126.3046,0.154403
3127.2364,0.156471
3128.1683,0.158725
3129.1001,0.160025
3130.0319,0.161080
3130.9638,0.161739
3131.8956,0.161413
3132.8275,0.162472
3133.7593,0.164021
3134.6911,0.164415
3135.6230,0.165848
3136.5548,0.168315
3137.4866,0.169862
3138.4185,0.171734
3139.3503,0.172973
3140.2821,0.172969
3141.2140,0.174213
3142.1458,0.175528
3143.0776,0.176405
3144.0095,0.177606
3144.9413,0.178606
3145.8731,0.180262
3146.8050,0.181591
3147.7368,0.183874
3148.6686,0.186191
3149.6005,0.187744
3150.5323,0.188458
3151.4641,0.189531
3152.3960,0.191386
3153.3278,0.191562
3154.2596,0.190899
3155.1915,0.191769
3156.1233,0.193416
3157.0551,0.195734
3157.9870,0.197580
3158.9188,0.199502
3159.8507,0.200545
3160.7825,0.201907
3161.7143,0.203414
3162.6462,0.203431
3163.5780,0.204706
3164.5098,0.206628
3165.4417,0.207315
3166.3735,0.209018
3167.3053,0.210469
3168.2372,0.211336
3169.1690,0.212872
3170.1008,0.214344
3171.0327,0.215610
3171.9645,0.216389
3172.8963,0.217111
3173.8282,0.218805
3174.7600,0.221366
3175.6918,0.222865
3176.6237,0.222672
3177.5555,0.224828
3178.4873,0.228202
3179.4192,0.229021
3180.3510,0.229705
3181.2828,0.230855
3182.2147,0.231072
3183.1465,0.231387
3184.0783,0.232677
3185.0102,0.234866
3185.9420,0.236302
3186.8739,0.237251
3187.8057,0.237774
3188.7375,0.239669
3189.6694,0.242231
3190.6012,0.244354
3191.5330,0.245256
3192.4649,0.245344
3193.3967,0.245618
3194.3285,0.247112
3195.2604,0.248250
3196.1922,0.249060
3197.1240,0.249153
3198.0559,0.250181
3198.9877,0.250502
3199.9195,0.251447
3200.8514,0.252463
3201.7832,0.254178
3202.7150,0.255872
3203.6469,0.257091
3204.5787,0.258359
3205.5105,0.259326
3206.4424,0.260177
3207.3742,0.262039
3208.3060,0.261891
3209.2379,0.262640
3210.1697,0.263347
3211.1015,0.262976
3212.0334,0.263634
3212.9652,0.266903
3213.8971,0.270282
3214.8289,0.271630
3215.7607,0.269982
3216.6926,0.269881
3217.6244,0.271461
3218.5562,0.272010
3219.4881,0.272631
3220.4199,0.274884
3221.3517,0.275529
3222.2836,0.275195
3223.2154,0.275921
3224.1472,0.277616
3225.0791,0.276893
3226.0109,0.276276
3226.9427,0.277765
3227.8746,0.280108
3228.8064,0.279861
3229.7382,0.278939
3230.6701,0.280058
3231.6019,0.282230
3232.5337,0.283925
3233.4656,0.285259
3234.3974,0.284605
3235.3292,0.284126
3236.2611,0.283047
3237.1929,0.281800
3238.1247,0.281955
3239.0566,0.283188
3239.9884,0.285121
3240.9202,0.287629
3241.8521,0.287846
3242.7839,0.286583
3243.7158,0.286887
3244.6476,0.289384
3245.5794,0.290571
3246.5113,0.291978
3247.4431,0.292172
3248.3749,0.291140
3249.3068,0.291126
3250.2386,0.291701
3251.1704,0.290044
3252.1023,0.289630
3253.0341,0.291329
3253.9659,0.293406
3254.8978,0.294021
3255.8296,0.293765
3256.7614,0.292588
3257.6933,0.292949
3258.6251,0.293240
3259.5569,0.292071
3260.4888,0.291255
3261.4206,0.291090
3262.3524,0.290080
3263.2843,0.292288
3264.2161,0.294754
3265.1479,0.295964
3266.0798,0.295646
3267.0116,0.295425
3267.9434,0.295504
3268.8753,0.295198
3269.8071,0.294673
3270.7390,0.294707
3271.6708,0.294736
3272.6026,0.295522
3273.5345,0.294672
3274.4663,0.294117
3275.3981,0.295431
3276.3300,0.296899
3277.2618,0.297206
3278.1936,0.297252
3279.1255,0.294607
3280.0573,0.293212
3280.9891,0.294527
3281.9210,0.296406
3282.8528,0.295749
3283.7846,0.295514
3284.7165,0.295177
3285.6483,0.295512
3286.5801,0.296331
3287.5120,0.296846
3288.4438,0.296878
3289.3756,0.296359
3290.3075,0.295432
3291.2393,0.295911
3292.1711,0.296509
3293.1030,0.298080
3294.0348,0.296760
3294.9666,0.296949
3295.8985,0.298062
3296.8303,0.296213
3297.7622,0.295705
3298.6940,0.296946
3299.6258,0.295537
3300.5577,0.294061
3301.4895,0.296932
3302.4213,0.300211
3303.3532,0.297751
3304.2850,0.297395
3305.2168,0.298759
3306.1487,0.300322
3307.0805,0.300407
3308.0123,0.299186
3308.9442,0.298626
3309.8760,0.298679
3310.8078,0.296048
3311.7397,0.296689
3312.6715,0.298687
3313.6033,0.299373
3314.5352,0.296705
3315.4670,0.295996
3316.3988,0.296853
3317.3307,0.297629
3318.2625,0.299535
3319.1943,0.299987
3320.1262,0.297773
3321.0580,0.297691
3321.9898,0.298351
3322.9217,0.300590
3323.8535,0.301550
3324.7854,0.302759
3325.7172,0.301737
3326.6490,0.300281
3327.5809,0.300705
3328.5127,0.299752
3329.4445,0.299372
3330.3764,0.300341
3331.3082,0.299321
3332.2400,0.299220
3333.1719,0.298571
3334.1037,0.299558
3335.0355,0.300928
3335.9674,0.301516
3336.8992,0.299963
3337.8310,0.301750
3338.7629,0.303273
3339.6947,0.300906
3340.6265,0.300484
3341.5584,0.301231
3342.4902,0.298592
3343.4220,0.298925
3344.3539,0.298893
3345.2857,0.300345
3346.2175,0.300943
3347.1494,0.299751
3348.0812,0.300377
3349.0130,0.302452
3349.9449,0.302036
3350.8767,0.300675
3351.8086,0.300235
3352.7404,0.300084
3353.6722,0.299018
3354.6041,0.300511
3355.5359,0.300052
3356.4677,0.298725
3357.3996,0.299968
3358.3314,0.301178
3359.2632,0.301772
3360.1951,0.303250
3361.1269,0.301410
3362.0587,0.299320
3362.9906,0.299812
3363.9224,0.300892
3364.8542,0.298626
3365.7861,0.297452
3366.7179,0.297116
3367.6497,0.298819
3368.5816,0.297029
3369.5134,0.294313
3370.4452,0.295328
3371.3771,0.296563
3372.3089,0.294635
3373.2407,0.294228
3374.1726,0.294976
3375.1044,0.294971
3376.0362,0.294033
3376.9681,0.294853
3377.8999,0.293108
3378.8317,0.293338
3379.7636,0.293159
3380.6954,0.292511
3381.6273,0.292455
3382.5591,0.291095
3383.4909,0.288749
3384.4228,0.289756
3385.3546,0.291551
3386.2864,0.291806
3387.2183,0.289390
3388.1501,0.291762
3389.0819,0.289802
3390.0138,0.287097
3390.9456,0.287220
3391.8774,0.287950
3392.8093,0.285852
3393.7411,0.285657
3394.6729,0.285185
3395.6048,0.283775
3396.5366,0.279473
3397.4684,0.279003
3398.4003,0.282866
3399.3321,0.284140
3400.2639,0.282437
3401.1958,0.282097
3402.1276,0.279862
3403.0594,0.275328
3403.9913,0.273494
3404.9231,0.274816
3405.8549,0.274313
3406.7868,0.275585
3407.7186,0.273884
3408.6505,0.271918
3409.5823,0.268505
3410.5141,0.270994
3411.4460,0.273587
3412.3778,0.271590
3413.3096,0.268658
3414.2415,0.268447
3415.1733,0.269278
3416.1051,0.268425
3417.0370,0.265229
3417.9688,0.262848
3418.9006,0.262398
3419.8325,0.264016
3420.7643,0.264068
3421.6961,0.262848
3422.6280,0.259238
3423.5598,0.258855
3424.4916,0.258920
3425.4235,0.258215
3426.3553,0.257146
3427.2871,0.258730
3428.2190,0.257368
3429.1508,0.254540
3430.0826,0.252368
3431.0145,0.253134
3431.9463,0.252266
3432.8781,0.249879
3433.8100,0.248275
3434.7418,0.249402
3435.6737,0.248244
3436.6055,0.245499
3437.5373,0.243043
3438.4692,0.243518
3439.4010,0.238874
3440.3328,0.238265
3441.2647,0.240096
3442.1965,0.239736
3443.1283,0.239177
3444.0602,0.237794
3444.9920,0.233078
3445.9238,0.232463
3446.8557,0.234595
3447.7875,0.236969
3448.7193,0.236693
3449.6512,0.234043
3450.5830,0.229729
3451.5148,0.229587
3452.4467,0.230833
3453.3785,0.229040
3454.3103,0.224821
3455.2422,0.224086
3456.1740,0.223924
3457.1058,0.221274
3458.0377,0.218112
3458.9695,0.221415
3459.9013,0.223104
3460.8332,0.222305
3461.7650,0.217756
3462.6969,0.215752
3463.6287,0.215461
3464.5605,0.214763
3465.4924,0.214224
3466.4242,0.213968
3467.3560,0.212798
3468.2879,0.213839
3469.2197,0.209539
3470.1515,0.204451
3471.0834,0.202100
3472.0152,0.203046
3472.9470,0.203856
3473.8789,0.202708
3474.8107,0.202734
3475.7425,0.203213
3476.6744,0.200290
3477.6062,0.197654
3478.5380,0.196404
3479.4699,0.197680
3480.4017,0.198765
3481.3335,0.200138
3482.2654,0.197830
3483.1972,0.196630
3484.1290,0.195641
3485.0609,0.194687
3485.9927,0.190811
3486.9245,0.189557
3487.8564,0.190375
3488.7882,0.190079
3489.7201,0.188784
3490.6519,0.186042
3491.5837,0.182178
3492.5156,0.182116
3493.4474,0.183053
3494.3792,0.183235
3495.3111,0.181088
3496.2429,0.179214
3497.1747,0.178343
3498.1066,0.179612
3499.0384,0.178717
3499.9702,0.174664
3500.9021,0.172569
3501.8339,0.174464
3502.7657,0.174921
3503.6976,0.172250
3504.6294,0.169383
3505.5612,0.170031
3506.4931,0.168393
3507.4249,0.165966
3508.3567,0.163781
3509.2886,0.166408
3510.2204,0.171324
3511.1522,0.167774
3512.0841,0.163012
3513.0159,0.161189
3513.9477,0.157354
3514.8796,0.154987
3515.8114,0.153405
3516.7432,0.153954
3517.6751,0.153311
3518.6069,0.153142
3519.5388,0.154369
3520.4706,0.153393
3521.4024,0.150443
3522.3343,0.150158
3523.2661,0.148766
3524.1979,0.147661
3525.1298,0.147947
3526.0616,0.148621
3526.9934,0.148551
3527.9253,0.147380
3528.8571,0.144081
3529.7889,0.142513
3530.7208,0.144467
3531.6526,0.144285
3532.5844,0.140586
3533.5163,0.141651
3534.4481,0.142399
3535.3799,0.138488
3536.3118,0.135902
3537.2436,0.137395
3538.1754,0.137983
3539.1073,0.135735
3540.0391,0.131386
3540.9709,0.130529
3541.9028,0.130203
3542.8346,0.129292
3543.7664,0.129071
3544.6983,0.130500
3545.6301,0.128113
3546.5620,0.122945
3547.4938,0.120674
3548.4256,0.122104
3549.3575,0.123771
3550.2893,0.122949
3551.2211,0.121834
3552.1530,0.121231
3553.0848,0.121257
3554.0166,0.122651
3554.9485,0.121598
3555.8803,0.117648
3556.8121,0.116038
3557.7440,0.114372
3558.6758,0.112412
3559.6076,0.112037
3560.5395,0.110460
3561.4713,0.111602
3562.4031,0.112571
3563.3350,0.111549
3564.2668,0.110674
3565.1986,0.111293
3566.1305,0.109759
3567.0623,0.109264
3567.9941,0.105748
3568.9260,0.105210
3569.8578,0.106512
3570.7896,0.103468
3571.7215,0.100519
3572.6533,0.101055
3573.5852,0.098857
3574.5170,0.097488
3575.4488,0.097542
3576.3807,0.097894
3577.3125,0.094930
3578.2443,0.095202
3579.1762,0.095457
3580.1080,0.092762
3581.0398,0.091407
3581.9717,0.090774
3582.9035,0.089672
3583.8353,0.090287
3584.7672,0.091077
3585.6990,0.088573
3586.6308,0.087030
3587.5627,0.084793
3588.4945,0.083653
3589.4263,0.087069
3590.3582,0.087833
3591.2900,0.085598
3592.2218,0.083759
3593.1537,0.083522
3594.0855,0.082519
3595.0173,0.081846
3595.9492,0.081446
3596.8810,0.078441
3597.8128,0.075621
3598.7447,0.074708
3599.6765,0.075397
3600.6084,0.076512
3601.5402,0.076403
3602.4720,0.075824
3603.4039,0.073685
3604.3357,0.071768
3605.2675,0.070651
3606.1994,0.069985
3607.1312,0.068848
3608.0630,0.068670
3608.9949,0.069339
3609.9267,0.068823
3610.8585,0.069128
3611.7904,0.069621
3612.7222,0.066771
3613.6540,0.065188
3614.5859,0.065660
3615.5177,0.065501
3616.4495,0.063790
3617.3814,0.063859
3618.3132,0.063159
3619.2450,0.063143
3620.1769,0.061529
3621.1087,0.059246
3622.0405,0.058064
3622.9724,0.058977
3623.9042,0.059234
3624.8360,0.059315
3625.7679,0.058490
3626.6997,0.057876
3627.6316,0.055929
3628.5634,0.054717
3629.4952,0.055700
3630.4271,0.055482
3631.3589,0.053301
3632.2907,0.048957
3633.2226,0.050172
3634.1544,0.052169
3635.0862,0.051204
3636.0181,0.050671
3636.9499,0.050882
3637.8817,0.049632
3638.8136,0.047369
3639.7454,0.046873
3640.6772,0.047630
3641.6091,0.048339
3642.5409,0.046376
3643.4727,0.045457
3644.4046,0.046029
3645.3364,0.045715
3646.2682,0.042839
3647.2001,0.041270
3648.1319,0.041753
3649.0637,0.042544
3649.9956,0.041481
3650.9274,0.040576
3651.8592,0.039904
3652.7911,0.039844
3653.7229,0.039069
3654.6547,0.038660
3655.5866,0.036551
3656.5184,0.035402
3657.4503,0.036167
3658.3821,0.034452
3659.3139,0.033286
3660.2458,0.032841
3661.1776,0.032313
3662.1094,0.031502
3663.0413,0.029323
3663.9731,0.028399
3664.9049,0.028321
3665.8368,0.028646
3666.7686,0.028129
3667.7004,0.027189
3668.6323,0.025559
3669.5641,0.024512
3670.4959,0.024484
3671.4278,0.024174
3672.3596,0.022645
3673.2914,0.021634
3674.2233,0.021015
3675.1551,0.020549
3676.0869,0.020365
3677.0188,0.020438
3677.9506,0.018260
3678.8824,0.015723
3679.8143,0.016152
3680.7461,0.015374
3681.6779,0.016272
3682.6098,0.017352
3683.5416,0.015420
3684.4735,0.014488
3685.4053,0.015005
3686.3371,0.013856
3687.2690,0.012908
3688.2008,0.012385
3689.1326,0.012515
3690.0645,0.011590
3690.9963,0.009137
3691.9281,0.008245
3692.8600,0.009328
3693.7918,0.009570
3694.7236,0.010323
3695.6555,0.011492
3696.5873,0.010871
3697.5191,0.008465
3698.4510,0.007671
3699.3828,0.008308
3700.3146,0.008735
3701.2465,0.009236
3702.1783,0.009294
3703.1101,0.007469
3704.0420,0.006004
3704.9738,0.007254
3705.9056,0.007972
3706.8375,0.006488
3707.7693,0.005072
3708.7011,0.005051
3709.6330,0.005220
3710.5648,0.004246
3711.4967,0.003293
3712.4285,0.003443
3713.3603,0.004698
3714.2922,0.005227
3715.2240,0.004048
3716.1558,0.003126
3717.0877,0.003327
3718.0195,0.004409
3718.9513,0.005647
3719.8832,0.005736
3720.8150,0.005214
3721.7468,0.003649
3722.6787,0.002944
3723.6105,0.003915
3724.5423,0.004851
3725.4742,0.005669
3726.4060,0.006242
3727.3378,0.005407
3728.2697,0.003533
3729.2015,0.002191
3730.1333,0.002949
3731.0652,0.004159
3731.9970,0.004656
3732.9288,0.002943
3733.8607,0.000840
3734.7925,0.001731
3735.7243,0.003954
3736.6562,0.002742
3737.5880,-0.000439
3738.5199,0.000140
3739.4517,0.001063
3740.3835,0.001548
3741.3154,0.002169
3742.2472,0.002400
3743.1790,0.002695
3744.1109,0.001253
3745.0427,0.000269
3745.9745,-0.000399
3746.9064,-0.000336
3747.8382,0.000900
3748.7700,0.000072
3749.7019,-0.001276
3750.6337,-0.001184
3751.5655,-0.001030
3752.4974,0.000046
3753.4292,0.000923
3754.3610,0.000334
3755.2929,-0.000117
3756.2247,-0.000071
3757.1565,0.000870
3758.0884,0.001299
3759.0202,0.000629
3759.9520,0.001046
3760.8839,0.001958
3761.8157,0.001132
3762.7475,0.000621
3763.6794,0.001744
3764.6112,0.001877
3765.5431,0.002835
3766.4749,0.002615
3767.4067,0.000894
3768.3386,0.000551
3769.2704,0.001178
3770.2022,0.001623
3771.1341,0.002139
3772.0659,0.002444
3772.9977,0.001883
3773.9296,0.001855
3774.8614,0.001399
3775.7932,0.001125
3776.7251,0.002041
3777.6569,0.002009
3778.5887,0.001711
3779.5206,0.001120
3780.4524,-0.000205
3781.3842,-0.000193
3782.3161,0.001248
3783.2479,0.002218
3784.1797,0.001823
3785.1116,0.001723
3786.0434,0.002223
3786.9752,0.002680
3787.9071,0.002756
3788.8389,0.002413
3789.7707,0.001458
3790.7026,0.000780
3791.6344,0.000567
3792.5662,0.001073
3793.4981,0.001101
3794.4299,0.001712
3795.3618,0.002112
3796.2936,0.001447
3797.2254,0.000978
3798.1573,0.000572
3799.0891,-0.000356
3800.0209,-0.000283
3800.9528,-0.000239
3801.8846,-0.000115
3802.8164,0.000675
3803.7483,0.001198
3804.6801,-0.000295
3805.6119,-0.000138
3806.5438,0.001397
3807.4756,0.001615
3808.4074,0.000400
3809.3393,0.000137
3810.2711,-0.000366
3811.2029,0.000115
3812.1348,0.001340
3813.0666,0.001577
3813.9984,0.000932
3814.9303,0.000741
3815.8621,0.001326
3816.7939,0.001982
3817.7258,0.002021
3818.6576,0.001322
3819.5894,0.000815
3820.5213,-0.000356
3821.4531,-0.002066
3822.3850,-0.001360
3823.3168,-0.000013
3824.2486,0.000410
3825.1805,-0.000645
3826.1123,-0.000998
3827.0441,0.000449
3827.9760,0.001782
3828.9078,0.001896
3829.8396,0.001828
3830.7715,0.000840
3831.7033,-0.000225
3832.6351,0.000084
3833.5670,-0.000100
3834.4988,-0.000972
3835.4306,-0.000807
3836.3625,0.000031
3837.2943,0.001457
3838.2261,0.001195
3839.1580,-0.000798
3840.0898,-0.000656
3841.0216,0.000054
3841.9535,0.000470
3842.8853,0.001525
3843.8171,0.001136
3844.7490,0.000506
3845.6808,0.000430
3846.6126,0.000490
3847.5445,0.001125
3848.4763,0.000011
3849.4082,-0.000676
3850.3400,0.000244
3851.2718,-0.000325
3852.2037,-0.000879
3853.1355,0.000099
3854.0673,0.000914
3854.9992,-0.000578
3855.9310,-0.001243
3856.8628,-0.000529
3857.7947,-0.001803
3858.7265,-0.000589
3859.6583,0.000956
3860.5902,0.001363
3861.5220,0.001397
3862.4538,0.001054
3863.3857,0.000430
3864.3175,-0.000703
3865.2493,-0.001501
3866.1812,-0.000673
3867.1130,0.000100
3868.0448,0.000590
3868.9767,0.000164
3869.9085,-0.000597
3870.8403,-0.000569
3871.7722,0.000361
3872.7040,-0.000296
3873.6358,-0.001220
3874.5677,-0.000239
3875.4995,0.000225
3876.4314,-0.000135
3877.3632,0.000514
3878.2950,0.001709
3879.2269,0.001115
3880.1587,0.000212
3881.0905,-0.000106
3882.0224,-0.000339
3882.9542,0.000531
3883.8860,0.000295
3884.8179,-0.000248
3885.7497,0.000089
3886.6815,0.000289
3887.6134,0.001222
3888.5452,0.001594
3889.4770,-0.000430
3890.4089,-0.001404
3891.3407,-0.000543
3892.2725,-0.000492
3893.2044,-0.000432
3894.1362,0.000305
3895.0680,0.000030
3895.9999,0.000403
3896.9317,0.000532
3897.8635,0.000141
3898.7954,0.000530
3899.7272,0.000691
3900.6590,-0.000161
3901.5909,0.000543
3902.5227,0.001499
3903.4546,0.000545
3904.3864,-0.000392
3905.3182,-0.000016
3906.2501,0.000341
3907.1819,0.000302
3908.1137,0.001274
3909.0456,0.001425
3909.9774,0.000694
3910.9092,0.000793
3911.8411,0.001019
3912.7729,0.000604
3913.7047,0.000701
3914.6366,0.000045
3915.5684,-0.000883
3916.5002,0.000223
3917.4321,0.001145
3918.3639,0.000655
3919.2957,0.000269
3920.2276,0.000699
3921.1594,0.001123
3922.0912,0.001331
3923.0231,0.001533
3923.9549,0.001561
3924.8867,0.001429
3925.8186,0.001331
3926.7504,0.000035
3927.6822,-0.000896
3928.6141,0.000098
3929.5459,0.000877
3930.4777,0.001152
3931.4096,0.001384
3932.3414,0.000560
3933.2733,-0.000085
3934.2051,0.000710
3935.1369,0.002077
3936.0688,0.002427
3937.0006,0.001833
3937.9324,0.000645
3938.8643,-0.000463
3939.7961,-0.000336
3940.7279,0.000371
3941.6598,0.001146
3942.5916,0.001627
3943.5234,0.001216
3944.4553,0.000685
3945.3871,0.000291
3946.3189,0.001097
3947.2508,0.001792
3948.1826,0.001259
3949.1144,0.001251
3950.0463,0.001379
3950.9781,0.001567
3951.9099,0.001402
3952.8418,0.000390
3953.7736,0.000422
3954.7054,0.002109
3955.6373,0.002514
3956.5691,0.001065
3957.5009,0.000576
3958.4328,0.000273
3959.3646,0.000324
3960.2965,0.000085
3961.2283,-0.000035
3962.1601,0.000675
3963.0920,0.000767
3964.0238,0.001378
3964.9556,0.002127
3965.8875,0.001997
3966.8193,0.001732
3967.7511,0.001368
3968.6830,0.001076
3969.6148,0.001272
3970.5466,0.000572
3971.4785,-0.000644
3972.4103,-0.000255
3973.3421,0.000937
3974.2740,0.001404
3975.2058,0.001972
3976.1376,0.002461
3977.0695,0.001745
3978.0013,0.000524
3978.9331,0.000362
3979.8650,0.001429
3980.7968,0.001890
3981.7286,0.001178
3982.6605,0.000981
3983.5923,0.001413
3984.5241,0.001354
3985.4560,0.001090
3986.3878,0.001479
3987.3197,0.001693
3988.2515,0.001889
3989.1833,0.002257
3990.1152,0.002083
3991.0470,0.001671
3991.9788,0.000763
3992.9107,0.000091
3993.8425,-0.000521
3994.7743,0.000092
3995.7062,0.000696
3996.6380,0.000305
3997.5698,0.000621
3998.5017,0.001484
3999.4335,0.002442
4000.3653,0.002980
