Wavenumber,Intensity
650.4205,0.396712
651.3523,0.380669
652.2841,0.377958
653.2160,0.389455
654.1478,0.399698
655.0796,0.399275
656.0115,0.390817
656.9433,0.386046
657.8751,0.379935
658.8070,0.372379
659.7388,0.369938
660.6706,0.382151
661.6025,0.385879
662.5343,0.376885
663.4661,0.372418
664.3980,0.373577
665.3298,0.369861
666.2616,0.366950
667.1935,0.361360
668.1253,0.366887
669.0571,0.386401
669.9890,0.382981
670.9208,0.374671
671.8526,0.373410
672.7845,0.371666
673.7163,0.366675
674.6481,0.362115
675.5800,0.365411
676.5118,0.362528
677.4437,0.357718
678.3755,0.359740
679.3073,0.365708
680.2392,0.360034
681.1710,0.355441
682.1028,0.352570
683.0347,0.350256
683.9665,0.349085
684.8983,0.350103
685.8302,0.347396
686.7620,0.347655
687.6938,0.345358
688.6257,0.344087
689.5575,0.343468
690.4893,0.341143
691.4212,0.340754
692.3530,0.339548
693.2848,0.335096
694.2167,0.335074
695.1485,0.336037
696.0803,0.339072
697.0122,0.343515
697.9440,0.338151
698.8758,0.327228
699.8077,0.325396
700.7395,0.323663
701.6713,0.322135
702.6032,0.322382
703.5350,0.323167
704.4669,0.325114
705.3987,0.324178
706.3305,0.318844
707.2624,0.317253
708.1942,0.315643
709.1260,0.313569
710.0579,0.310612
710.9897,0.311662
711.9215,0.311258
712.8534,0.311759
713.7852,0.310704
714.7170,0.309629
715.6489,0.310096
716.5807,0.309618
717.5125,0.306880
718.4444,0.305353
719.3762,0.302358
720.3080,0.299947
721.2399,0.299426
722.1717,0.299516
723.1035,0.296225
724.0354,0.293902
724.9672,0.293849
725.8990,0.294032
726.8309,0.292961
727.7627,0.290988
728.6945,0.291028
729.6264,0.292918
730.5582,0.289016
731.4901,0.285956
732.4219,0.285560
733.3537,0.285157
734.2856,0.285346
735.2174,0.285090
736.1492,0.280937
737.0811,0.277635
738.0129,0.273841
738.9447,0.275462
739.8766,0.275936
740.8084,0.272067
741.7402,0.268291
742.6721,0.268373
743.6039,0.268694
744.5357,0.267959
745.4676,0.267922
746.3994,0.267362
747.3312,0.262765
748.2631,0.261412
749.1949,0.261981
750.1267,0.261075
751.0586,0.257921
751.9904,0.256354
752.9222,0.256180
753.8541,0.254365
754.7859,0.253778
755.7177,0.252524
756.6496,0.249079
757.5814,0.247239
758.5132,0.246541
759.4451,0.245906
760.3769,0.244117
761.3088,0.243111
762.2406,0.242787
763.1724,0.242619
764.1043,0.240869
765.0361,0.240275
765.9679,0.239287
766.8998,0.235918
767.8316,0.232861
768.7634,0.231375
769.6953,0.230344
770.6271,0.229496
771.5589,0.227857
772.4908,0.226843
773.4226,0.227187
774.3544,0.227258
775.2863,0.225595
776.2181,0.223585
777.1499,0.222556
778.0818,0.222589
779.0136,0.220583
779.9454,0.218894
780.8773,0.216593
781.8091,0.213649
782.7409,0.213008
783.6728,0.213262
784.6046,0.211574
785.5364,0.210604
786.4683,0.209989
787.4001,0.207836
788.3320,0.206288
789.2638,0.206292
790.1956,0.206109
791.1275,0.205266
792.0593,0.202388
792.9911,0.199071
793.9230,0.198675
794.8548,0.199316
795.7866,0.198861
796.7185,0.197650
797.6503,0.196716
798.5821,0.195748
799.5140,0.194054
800.4458,0.192545
801.3776,0.191082
802.3095,0.190502
803.2413,0.190194
804.1731,0.189204
805.1050,0.186739
806.0368,0.185509
806.9686,0.184849
807.9005,0.183323
808.8323,0.182183
809.7641,0.180782
810.6960,0.178574
811.6278,0.177131
812.5596,0.176104
813.4915,0.174320
814.4233,0.172327
815.3552,0.171280
816.2870,0.169131
817.2188,0.168267
818.1507,0.167205
819.0825,0.165990
820.0143,0.165424
820.9462,0.164322
821.8780,0.162636
822.8098,0.161612
823.7417,0.161594
824.6735,0.161230
825.6053,0.160343
826.5372,0.158781
827.4690,0.156708
828.4008,0.155180
829.3327,0.153665
830.2645,0.153004
831.1963,0.152212
832.1282,0.151041
833.0600,0.149932
833.9918,0.148486
834.9237,0.147772
835.8555,0.147509
836.7873,0.145646
837.7192,0.144477
838.6510,0.144274
839.5828,0.143081
840.5147,0.141275
841.4465,0.141455
842.3784,0.140229
843.3102,0.139055
844.2420,0.138573
845.1739,0.137501
846.1057,0.136331
847.0375,0.135809
847.9694,0.135183
848.9012,0.134483
849.8330,0.133181
850.7649,0.132353
851.6967,0.131527
852.6285,0.130521
853.5604,0.129130
854.4922,0.128352
855.4240,0.128561
856.3559,0.127999
857.2877,0.126726
858.2195,0.126614
859.1514,0.126740
860.0832,0.125792
861.0150,0.124435
861.9469,0.125061
862.8787,0.125399
863.8105,0.124983
864.7424,0.124731
865.6742,0.124614
866.6060,0.125736
867.5379,0.127338
868.4697,0.128732
869.4016,0.130699
870.3334,0.132287
871.2652,0.134287
872.1971,0.137272
873.1289,0.141483
874.0607,0.145922
874.9926,0.149854
875.9244,0.153294
876.8562,0.155234
877.7881,0.155904
878.7199,0.154902
879.6517,0.151548
880.5836,0.147375
881.5154,0.141662
882.4472,0.134765
883.3791,0.128727
884.3109,0.124052
885.2427,0.118827
886.1746,0.112922
887.1064,0.108927
888.0382,0.105999
888.9701,0.102715
889.9019,0.100229
890.8337,0.098810
891.7656,0.096891
892.6974,0.094847
893.6292,0.093230
894.5611,0.091569
895.4929,0.090030
896.4247,0.088787
897.3566,0.087661
898.2884,0.086801
899.2203,0.086129
900.1521,0.085560
901.0839,0.085172
902.0158,0.084674
902.9476,0.084148
903.8794,0.083029
904.8113,0.081923
905.7431,0.081563
906.6749,0.080889
907.6068,0.080180
908.5386,0.080151
909.4704,0.079881
910.4023,0.078905
911.3341,0.078250
912.2659,0.077985
913.1978,0.077434
914.1296,0.076537
915.0614,0.075913
915.9933,0.075649
916.9251,0.075442
917.8569,0.074969
918.7888,0.074267
919.7206,0.073776
920.6524,0.073821
921.5843,0.073239
922.5161,0.072976
923.4479,0.072908
924.3798,0.072185
925.3116,0.071322
926.2435,0.070991
927.1753,0.070530
928.1071,0.070072
929.0390,0.069769
929.9708,0.069472
930.9026,0.069249
931.8345,0.068867
932.7663,0.068065
933.6981,0.067196
934.6300,0.066850
935.5618,0.066921
936.4936,0.066742
937.4255,0.066020
938.3573,0.065581
939.2891,0.065197
940.2210,0.064933
941.1528,0.064716
942.0846,0.064442
943.0165,0.063802
943.9483,0.063316
944.8801,0.063226
945.8120,0.062524
946.7438,0.062132
947.6756,0.062445
948.6075,0.062578
949.5393,0.062443
950.4711,0.062202
951.4030,0.061590
952.3348,0.061171
953.2667,0.060753
954.1985,0.060393
955.1303,0.060114
956.0622,0.059710
956.9940,0.059778
957.9258,0.060007
958.8577,0.059867
959.7895,0.059058
960.7213,0.058357
961.6532,0.058012
962.5850,0.057943
963.5168,0.058194
964.4487,0.058239
965.3805,0.057950
966.3123,0.057558
967.2442,0.057523
968.1760,0.057798
969.1078,0.057992
970.0397,0.057792
970.9715,0.057500
971.9033,0.057395
972.8352,0.057079
973.7670,0.056902
974.6988,0.057518
975.6307,0.057656
976.5625,0.057488
977.4943,0.057624
978.4262,0.057618
979.3580,0.057655
980.2899,0.057727
981.2217,0.057896
982.1535,0.057725
983.0854,0.057633
984.0172,0.057680
984.9490,0.057737
985.8809,0.057999
986.8127,0.058427
987.7445,0.058826
988.6764,0.059013
989.6082,0.059107
990.5400,0.059436
991.4719,0.059900
992.4037,0.059993
993.3355,0.060007
994.2674,0.060298
995.1992,0.060345
996.1310,0.060463
997.0629,0.060644
997.9947,0.060454
998.9265,0.060556
999.8584,0.060933
1000.7902,0.061297
1001.7220,0.061385
1002.6539,0.061262
1003.5857,0.061379
1004.5175,0.061446
1005.4494,0.061240
1006.3812,0.061106
1007.3131,0.061232
1008.2449,0.061348
1009.1767,0.061972
1010.1086,0.062693
1011.0404,0.062783
1011.9722,0.062984
1012.9041,0.063684
1013.8359,0.064435
1014.7677,0.065207
1015.6996,0.065782
1016.6314,0.066426
1017.5632,0.067184
1018.4951,0.068119
1019.4269,0.069317
1020.3587,0.070707
1021.2906,0.072262
1022.2224,0.073753
1023.1542,0.075223
1024.0861,0.077117
1025.0179,0.079242
1025.9497,0.081444
1026.8816,0.083847
1027.8134,0.087028
1028.7452,0.090543
1029.6771,0.094248
1030.6089,0.098315
1031.5407,0.103100
1032.4726,0.108780
1033.4044,0.115220
1034.3362,0.122867
1035.2681,0.131616
1036.1999,0.141325
1037.1318,0.152297
1038.0636,0.164135
1038.9954,0.176466
1039.9273,0.189050
1040.8591,0.201182
1041.7909,0.211940
1042.7228,0.220265
1043.6546,0.225011
1044.5864,0.225776
1045.5183,0.222601
1046.4501,0.215528
1047.3819,0.205447
1048.3138,0.193313
1049.2456,0.179809
1050.1774,0.165756
1051.1093,0.152084
1052.0411,0.139272
1052.9729,0.127284
1053.9048,0.116504
1054.8366,0.107411
1055.7684,0.099668
1056.7003,0.093284
1057.6321,0.087830
1058.5639,0.083276
1059.4958,0.079763
1060.4276,0.076901
1061.3594,0.074608
1062.2913,0.072866
1063.2231,0.071766
1064.1550,0.070899
1065.0868,0.070431
1066.0186,0.070244
1066.9505,0.070223
1067.8823,0.070713
1068.8141,0.071240
1069.7460,0.071759
1070.6778,0.072712
1071.6096,0.073944
1072.5415,0.075294
1073.4733,0.076705
1074.4051,0.078556
1075.3370,0.080632
1076.2688,0.082565
1077.2006,0.084744
1078.1325,0.086971
1079.0643,0.089249
1079.9961,0.091745
1080.9280,0.093781
1081.8598,0.095681
1082.7916,0.097590
1083.7235,0.098936
1084.6553,0.099453
1085.5871,0.099577
1086.5190,0.099197
1087.4508,0.097907
1088.3826,0.095813
1089.3145,0.093295
1090.2463,0.090202
1091.1782,0.086548
1092.1100,0.083077
1093.0418,0.079549
1093.9737,0.075789
1094.9055,0.072577
1095.8373,0.069621
1096.7692,0.066635
1097.7010,0.063969
1098.6328,0.061723
1099.5647,0.059803
1100.4965,0.058166
1101.4283,0.056836
1102.3602,0.055593
1103.2920,0.054516
1104.2238,0.053615
1105.1557,0.052627
1106.0875,0.051780
1107.0193,0.051151
1107.9512,0.050627
1108.8830,0.050229
1109.8148,0.049912
1110.7467,0.049456
1111.6785,0.049108
1112.6103,0.049069
1113.5422,0.048837
1114.4740,0.048734
1115.4058,0.048768
1116.3377,0.048521
1117.2695,0.048149
1118.2014,0.047850
1119.1332,0.047765
1120.0650,0.047913
1120.9969,0.047949
1121.9287,0.047766
1122.8605,0.047543
1123.7924,0.047386
1124.7242,0.047330
1125.6560,0.047328
1126.5879,0.047207
1127.5197,0.047054
1128.4515,0.046943
1129.3834,0.046961
1130.3152,0.047180
1131.2470,0.047156
1132.1789,0.046940
1133.1107,0.046891
1134.0425,0.046867
1134.9744,0.046700
1135.9062,0.046534
1136.8380,0.046624
1137.7699,0.046532
1138.7017,0.046146
1139.6335,0.046022
1140.5654,0.045972
1141.4972,0.045883
1142.4290,0.045900
1143.3609,0.045569
1144.2927,0.045230
1145.2246,0.045099
1146.1564,0.044985
1147.0882,0.045114
1148.0201,0.045016
1148.9519,0.044769
1149.8837,0.044546
1150.8156,0.044556
1151.7474,0.044551
1152.6792,0.044435
1153.6111,0.044588
1154.5429,0.044413
1155.4747,0.044057
1156.4066,0.044204
1157.3384,0.044304
1158.2702,0.044046
1159.2021,0.043882
1160.1339,0.043864
1161.0657,0.043673
1161.9976,0.043358
1162.9294,0.043112
1163.8612,0.043006
1164.7931,0.042846
1165.7249,0.042565
1166.6567,0.042362
1167.5886,0.042368
1168.5204,0.042458
1169.4522,0.042186
1170.3841,0.041909
1171.3159,0.041880
1172.2477,0.041723
1173.1796,0.041684
1174.1114,0.041684
1175.0433,0.041617
1175.9751,0.041545
1176.9069,0.041338
1177.8388,0.041384
1178.7706,0.041596
1179.7024,0.041497
1180.6343,0.041235
1181.5661,0.041290
1182.4979,0.041534
1183.4298,0.041556
1184.3616,0.041470
1185.2934,0.041386
1186.2253,0.041351
1187.1571,0.041269
1188.0889,0.041338
1189.0208,0.041572
1189.9526,0.041562
1190.8844,0.041370
1191.8163,0.041320
1192.7481,0.041442
1193.6799,0.041648
1194.6118,0.041721
1195.5436,0.041695
1196.4754,0.041775
1197.4073,0.041876
1198.3391,0.041901
1199.2709,0.041720
1200.2028,0.041505
1201.1346,0.041572
1202.0665,0.041602
1202.9983,0.041815
1203.9301,0.042084
1204.8620,0.042010
1205.7938,0.041909
1206.7256,0.041932
1207.6575,0.042171
1208.5893,0.042340
1209.5211,0.042245
1210.4530,0.042313
1211.3848,0.042419
1212.3166,0.042400
1213.2485,0.042383
1214.1803,0.042583
1215.1121,0.042685
1216.0440,0.042501
1216.9758,0.042341
1217.9076,0.042386
1218.8395,0.042527
1219.7713,0.042598
1220.7031,0.042681
1221.6350,0.042721
1222.5668,0.042712
1223.4986,0.042549
1224.4305,0.042349
1225.3623,0.042435
1226.2941,0.042639
1227.2260,0.042749
1228.1578,0.042838
1229.0897,0.042900
1230.0215,0.042951
1230.9533,0.042944
1231.8852,0.043023
1232.8170,0.043187
1233.7488,0.043259
1234.6807,0.043311
1235.6125,0.043387
1236.5443,0.043556
1237.4762,0.043638
1238.4080,0.043596
1239.3398,0.043743
1240.2717,0.044031
1241.2035,0.044094
1242.1353,0.043807
1243.0672,0.043836
1243.9990,0.044201
1244.9308,0.044268
1245.8627,0.044174
1246.7945,0.044510
1247.7263,0.044974
1248.6582,0.044905
1249.5900,0.044897
1250.5218,0.045218
1251.4537,0.045405
1252.3855,0.045383
1253.3173,0.045564
1254.2492,0.046057
1255.1810,0.046247
1256.1129,0.046350
1257.0447,0.046614
1257.9765,0.046907
1258.9084,0.047290
1259.8402,0.047537
1260.7720,0.047799
1261.7039,0.048208
1262.6357,0.048607
1263.5675,0.048949
1264.4994,0.049307
1265.4312,0.049794
1266.3630,0.050297
1267.2949,0.050911
1268.2267,0.051455
1269.1585,0.051823
1270.0904,0.052147
1271.0222,0.052584
1271.9540,0.053181
1272.8859,0.053509
1273.8177,0.053559
1274.7495,0.053685
1275.6814,0.053516
1276.6132,0.053051
1277.5450,0.052791
1278.4769,0.052727
1279.4087,0.052294
1280.3405,0.051834
1281.2724,0.051627
1282.2042,0.051058
1283.1361,0.050499
1284.0679,0.050340
1284.9997,0.050238
1285.9316,0.050061
1286.8634,0.050025
1287.7952,0.050093
1288.7271,0.049878
1289.6589,0.049777
1290.5907,0.050014
1291.5226,0.050100
1292.4544,0.050030
1293.3862,0.049998
1294.3181,0.049985
1295.2499,0.050161
1296.1817,0.050476
1297.1136,0.050671
1298.0454,0.050657
1298.9772,0.050725
1299.9091,0.051032
1300.8409,0.051257
1301.7727,0.051411
1302.7046,0.051677
1303.6364,0.052002
1304.5682,0.052278
1305.5001,0.052425
1306.4319,0.052716
1307.3637,0.053110
1308.2956,0.053268
1309.2274,0.053305
1310.1592,0.053385
1311.0911,0.053476
1312.0229,0.053649
1312.9548,0.053938
1313.8866,0.054447
1314.8184,0.054962
1315.7503,0.055035
1316.6821,0.054913
1317.6139,0.055147
1318.5458,0.055450
1319.4776,0.055724
1320.4094,0.056105
1321.3413,0.056114
1322.2731,0.055800
1323.2049,0.055685
1324.1368,0.055791
1325.0686,0.055894
1326.0004,0.055990
1326.9323,0.056127
1327.8641,0.056169
1328.7959,0.055907
1329.7278,0.055605
1330.6596,0.055450
1331.5914,0.055325
1332.5233,0.055154
1333.4551,0.054848
1334.3869,0.054606
1335.3188,0.054310
1336.2506,0.054049
1337.1824,0.054053
1338.1143,0.053948
1339.0461,0.054109
1339.9780,0.054203
1340.9098,0.053872
1341.8416,0.053236
1342.7735,0.052690
1343.7053,0.052258
1344.6371,0.051874
1345.5690,0.051667
1346.5008,0.051431
1347.4326,0.051245
1348.3645,0.051060
1349.2963,0.050852
1350.2281,0.050711
1351.1600,0.050552
1352.0918,0.050314
1353.0236,0.050030
1353.9555,0.049757
1354.8873,0.049641
1355.8191,0.049866
1356.7510,0.050029
1357.6828,0.049786
1358.6146,0.049507
1359.5465,0.049614
1360.4783,0.049759
1361.4101,0.049993
1362.3420,0.050364
1363.2738,0.051107
1364.2056,0.051749
1365.1375,0.051008
1366.0693,0.050468
1367.0012,0.050895
1367.9330,0.051609
1368.8648,0.052216
1369.7967,0.052819
1370.7285,0.053229
1371.6603,0.053752
1372.5922,0.054702
1373.5240,0.056331
1374.4558,0.058266
1375.3877,0.059729
1376.3195,0.060321
1377.2513,0.060399
1378.1832,0.060991
1379.1150,0.062021
1380.0468,0.062550
1380.9787,0.062679
1381.9105,0.062874
1382.8423,0.063135
1383.7742,0.063213
1384.7060,0.063326
1385.6378,0.063491
1386.5697,0.063316
1387.5015,0.063326
1388.4333,0.063978
1389.3652,0.063499
1390.2970,0.062279
1391.2288,0.061340
1392.1607,0.060766
1393.0925,0.060309
1394.0244,0.060228
1394.9562,0.060906
1395.8880,0.061560
1396.8199,0.061153
1397.7517,0.060680
1398.6835,0.060837
1399.6154,0.061538
1400.5472,0.061950
1401.4790,0.061547
1402.4109,0.061002
1403.3427,0.060942
1404.2745,0.061263
1405.2064,0.062137
1406.1382,0.063101
1407.0700,0.062972
1408.0019,0.062629
1408.9337,0.062524
1409.8655,0.062508
1410.7974,0.062658
1411.7292,0.063015
1412.6610,0.063228
1413.5929,0.063062
1414.5247,0.062858
1415.4565,0.062678
1416.3884,0.062303
1417.3202,0.062248
1418.2520,0.062860
1419.1839,0.063835
1420.1157,0.065037
1421.0476,0.064556
1421.9794,0.062936
1422.9112,0.062223
1423.8431,0.062287
1424.7749,0.062474
1425.7067,0.062272
1426.6386,0.061370
1427.5704,0.060568
1428.5022,0.060208
1429.4341,0.060012
1430.3659,0.059945
1431.2977,0.059797
1432.2296,0.058929
1433.1614,0.057788
1434.0932,0.056910
1435.0251,0.056261
1435.9569,0.056303
1436.8887,0.057615
1437.8206,0.058637
1438.7524,0.057181
1439.6842,0.055952
1440.6161,0.055854
1441.5479,0.055954
1442.4797,0.055834
1443.4116,0.055790
1444.3434,0.056100
1445.2752,0.056516
1446.2071,0.056949
1447.1389,0.057631
1448.0707,0.058997
1449.0026,0.060524
1449.9344,0.060654
1450.8663,0.060149
1451.7981,0.060475
1452.7299,0.061196
1453.6618,0.060888
1454.5936,0.059889
1455.5254,0.059599
1456.4573,0.059769
1457.3891,0.060315
1458.3209,0.060635
1459.2528,0.058879
1460.1846,0.056591
1461.1164,0.054343
1462.0483,0.052421
1462.9801,0.050974
1463.9119,0.050436
1464.8438,0.050692
1465.7756,0.051046
1466.7074,0.050028
1467.6393,0.048222
1468.5711,0.047156
1469.5029,0.046436
1470.4348,0.045790
1471.3666,0.045871
1472.2984,0.046934
1473.2303,0.048145
1474.1621,0.047921
1475.0939,0.046827
1476.0258,0.046781
1476.9576,0.047507
1477.8895,0.047407
1478.8213,0.046867
1479.7531,0.046981
1480.6850,0.047353
1481.6168,0.047414
1482.5486,0.047256
1483.4805,0.047184
1484.4123,0.046812
1485.3441,0.046394
1486.2760,0.046294
1487.2078,0.046281
1488.1396,0.046508
1489.0715,0.046644
1490.0033,0.046254
1490.9351,0.046270
1491.8670,0.045468
1492.7988,0.043827
1493.7306,0.043155
1494.6625,0.043040
1495.5943,0.042995
1496.5261,0.043293
1497.4580,0.043797
1498.3898,0.043522
1499.3216,0.043174
1500.2535,0.043011
1501.1853,0.042694
1502.1171,0.042609
1503.0490,0.042688
1503.9808,0.042400
1504.9127,0.041696
1505.8445,0.041613
1506.7763,0.043467
1507.7082,0.045242
1508.6400,0.043919
1509.5718,0.042468
1510.5037,0.042356
1511.4355,0.042789
1512.3673,0.042998
1513.2992,0.042677
1514.2310,0.042507
1515.1628,0.042531
1516.0947,0.042375
1517.0265,0.042693
1517.9583,0.043878
1518.8902,0.043720
1519.8220,0.042572
1520.7538,0.042730
1521.6857,0.043782
1522.6175,0.044195
1523.5493,0.043756
1524.4812,0.043230
1525.4130,0.043741
1526.3448,0.044350
1527.2767,0.044096
1528.2085,0.043777
1529.1403,0.043828
1530.0722,0.043356
1531.0040,0.043090
1531.9359,0.043347
1532.8677,0.043977
1533.7995,0.044976
1534.7314,0.045769
1535.6632,0.044665
1536.5950,0.043212
1537.5269,0.042926
1538.4587,0.043239
1539.3905,0.044057
1540.3224,0.046050
1541.2542,0.046660
1542.1860,0.046301
1543.1179,0.046962
1544.0497,0.046586
1544.9815,0.046046
1545.9134,0.046933
1546.8452,0.046562
1547.7770,0.045736
1548.7089,0.045701
1549.6407,0.045956
1550.5725,0.046516
1551.5044,0.047014
1552.4362,0.046787
1553.3680,0.046744
1554.2999,0.047120
1555.2317,0.047740
1556.1635,0.047588
1557.0954,0.046567
1558.0272,0.046862
1558.9591,0.049572
1559.8909,0.053793
1560.8227,0.054273
1561.7546,0.051832
1562.6864,0.050366
1563.6182,0.050034
1564.5501,0.050135
1565.4819,0.050799
1566.4137,0.051268
1567.3456,0.051279
1568.2774,0.051528
1569.2092,0.052149
1570.1411,0.053504
1571.0729,0.054635
1572.0047,0.054095
1572.9366,0.053449
1573.8684,0.053415
1574.8002,0.053714
1575.7321,0.054534
1576.6639,0.056759
1577.5957,0.059273
1578.5276,0.059217
1579.4594,0.058534
1580.3912,0.058405
1581.3231,0.058918
1582.2549,0.059742
1583.1867,0.060491
1584.1186,0.061383
1585.0504,0.062253
1585.9822,0.062617
1586.9141,0.062801
1587.8459,0.063766
1588.7778,0.065278
1589.7096,0.066332
1590.6414,0.067000
1591.5733,0.067578
1592.5051,0.068710
1593.4369,0.070013
1594.3688,0.070986
1595.3006,0.072198
1596.2324,0.073538
1597.1643,0.074564
1598.0961,0.075474
1599.0279,0.076441
1599.9598,0.077821
1600.8916,0.079345
1601.8234,0.081183
1602.7553,0.083103
1603.6871,0.084553
1604.6189,0.085622
1605.5508,0.087145
1606.4826,0.088614
1607.4144,0.090311
1608.3463,0.092555
1609.2781,0.094811
1610.2099,0.096838
1611.1418,0.098506
1612.0736,0.099413
1613.0054,0.100482
1613.9373,0.101971
1614.8691,0.103676
1615.8010,0.105712
1616.7328,0.109767
1617.6646,0.116540
1618.5965,0.119919
1619.5283,0.118438
1620.4601,0.118277
1621.3920,0.119419
1622.3238,0.121137
1623.2556,0.123784
1624.1875,0.128818
1625.1193,0.132721
1626.0511,0.133014
1626.9830,0.133020
1627.9148,0.135229
1628.8466,0.139129
1629.7785,0.140657
1630.7103,0.139394
1631.6421,0.139114
1632.5740,0.138764
1633.5058,0.139225
1634.4376,0.140568
1635.3695,0.143442
1636.3013,0.149283
1637.2331,0.152955
1638.1650,0.151066
1639.0968,0.150096
1640.0286,0.148278
1640.9605,0.147226
1641.8923,0.146796
1642.8242,0.145593
1643.7560,0.144805
1644.6878,0.143929
1645.6197,0.143046
1646.5515,0.144714
1647.4833,0.147185
1648.4152,0.145865
1649.3470,0.142703
1650.2788,0.139430
1651.2107,0.137168
1652.1425,0.136747
1653.0743,0.138708
1654.0062,0.146325
1654.9380,0.147699
1655.8698,0.140333
1656.8017,0.133988
1657.7335,0.131010
1658.6653,0.129565
1659.5972,0.127873
1660.5290,0.125934
1661.4608,0.124327
1662.3927,0.122991
1663.3245,0.122128
1664.2563,0.120946
1665.1882,0.118096
1666.1200,0.114635
1667.0518,0.112367
1667.9837,0.111268
1668.9155,0.110438
1669.8474,0.109677
1670.7792,0.108013
1671.7110,0.105557
1672.6429,0.103921
1673.5747,0.101973
1674.5065,0.099505
1675.4384,0.097975
1676.3702,0.097754
1677.3020,0.095724
1678.2339,0.092634
1679.1657,0.090809
1680.0975,0.089630
1681.0294,0.087687
1681.9612,0.085056
1682.8930,0.083371
1683.8249,0.083002
1684.7567,0.083188
1685.6885,0.082355
1686.6204,0.078518
1687.5522,0.075795
1688.4840,0.074428
1689.4159,0.073112
1690.3477,0.071668
1691.2795,0.070057
1692.2114,0.068206
1693.1432,0.066269
1694.0750,0.064420
1695.0069,0.063483
1695.9387,0.063561
1696.8706,0.063349
1697.8024,0.059997
1698.7342,0.056781
1699.6661,0.056025
1700.5979,0.056763
1701.5297,0.056127
1702.4616,0.052544
1703.3934,0.051260
1704.3252,0.050957
1705.2571,0.050304
1706.1889,0.049919
1707.1207,0.048680
1708.0526,0.047081
1708.9844,0.045440
1709.9162,0.044257
1710.8481,0.043207
1711.7799,0.041991
1712.7117,0.041158
1713.6436,0.040582
1714.5754,0.040042
1715.5072,0.039491
1716.4391,0.038904
1717.3709,0.038381
1718.3027,0.037961
1719.2346,0.037344
1720.1664,0.035573
1721.0982,0.034116
1722.0301,0.033341
1722.9619,0.033217
1723.8937,0.033167
1724.8256,0.032177
1725.7574,0.031305
1726.6893,0.031243
1727.6211,0.031197
1728.5529,0.030559
1729.4848,0.029710
1730.4166,0.029156
1731.3484,0.029025
1732.2803,0.027952
1733.2121,0.027363
1734.1439,0.028019
1735.0758,0.029055
1736.0076,0.027907
1736.9394,0.025916
1737.8713,0.025504
1738.8031,0.024997
1739.7349,0.024433
1740.6668,0.024684
1741.5986,0.024444
1742.5304,0.023676
1743.4623,0.023504
1744.3941,0.023277
1745.3259,0.022985
1746.2578,0.022770
1747.1896,0.022238
1748.1214,0.022235
1749.0533,0.022740
1749.9851,0.022599
1750.9169,0.021423
1751.8488,0.020372
1752.7806,0.019842
1753.7125,0.019690
1754.6443,0.020428
1755.5761,0.020587
1756.5080,0.020090
1757.4398,0.020070
1758.3716,0.019547
1759.3035,0.018856
1760.2353,0.018442
1761.1671,0.018458
1762.0990,0.018678
1763.0308,0.018891
1763.9626,0.018669
1764.8945,0.018134
1765.8263,0.017982
1766.7581,0.017548
1767.6900,0.017318
1768.6218,0.017566
1769.5536,0.017371
1770.4855,0.016813
1771.4173,0.016870
1772.3491,0.016806
1773.2810,0.016338
1774.2128,0.015828
1775.1446,0.015408
1776.0765,0.015623
1777.0083,0.015795
1777.9401,0.015891
1778.8720,0.015776
1779.8038,0.015539
1780.7357,0.015005
1781.6675,0.015120
1782.5993,0.014848
1783.5312,0.014553
1784.4630,0.014696
1785.3948,0.014247
1786.3267,0.014076
1787.2585,0.014576
1788.1903,0.014527
1789.1222,0.014385
1790.0540,0.014298
1790.9858,0.013925
1791.9177,0.014056
1792.8495,0.014341
1793.7813,0.013854
1794.7132,0.013632
1795.6450,0.013635
1796.5768,0.013301
1797.5087,0.013110
1798.4405,0.013293
1799.3723,0.013502
1800.3042,0.013381
1801.2360,0.012527
1802.1678,0.012531
1803.0997,0.012868
1804.0315,0.012762
1804.9633,0.011919
1805.8952,0.011565
1806.8270,0.012410
1807.7589,0.012933
1808.6907,0.012685
1809.6225,0.012482
1810.5544,0.012326
1811.4862,0.012368
1812.4180,0.012567
1813.3499,0.012391
1814.2817,0.012350
1815.2135,0.012356
1816.1454,0.012099
1817.0772,0.011977
1818.0090,0.011824
1818.9409,0.012260
1819.8727,0.012567
1820.8045,0.011864
1821.7364,0.011256
1822.6682,0.011091
1823.6000,0.011312
1824.5319,0.011715
1825.4637,0.011736
1826.3955,0.011648
1827.3274,0.011009
1828.2592,0.010450
1829.1910,0.011398
1830.1229,0.011845
1831.0547,0.011064
1831.9865,0.010665
1832.9184,0.011108
1833.8502,0.010751
1834.7821,0.009817
1835.7139,0.009790
1836.6457,0.010371
1837.5776,0.010091
1838.5094,0.009859
1839.4412,0.010102
1840.3731,0.009864
1841.3049,0.010449
1842.2367,0.011607
1843.1686,0.011311
1844.1004,0.011003
1845.0322,0.010879
1845.9641,0.009205
1846.8959,0.008579
1847.8277,0.009865
1848.7596,0.010039
1849.6914,0.009903
1850.6232,0.010032
1851.5551,0.010148
1852.4869,0.009978
1853.4187,0.010337
1854.3506,0.010404
1855.2824,0.010539
1856.2142,0.010640
1857.1461,0.010203
1858.0779,0.009976
1859.0097,0.009417
1859.9416,0.009677
1860.8734,0.010361
1861.8052,0.010349
1862.7371,0.009917
1863.6689,0.008843
1864.6008,0.008766
1865.5326,0.009194
1866.4644,0.008850
1867.3963,0.009038
1868.3281,0.009940
1869.2599,0.010458
1870.1918,0.009927
1871.1236,0.008610
1872.0554,0.008151
1872.9873,0.008806
1873.9191,0.009279
1874.8509,0.009166
1875.7828,0.009254
1876.7146,0.009660
1877.6464,0.009724
1878.5783,0.009248
1879.5101,0.009619
1880.4419,0.010041
1881.3738,0.009163
1882.3056,0.008672
1883.2374,0.008945
1884.1693,0.009212
1885.1011,0.009562
1886.0329,0.010016
1886.9648,0.009540
1887.8966,0.009882
1888.8284,0.010252
1889.7603,0.009167
1890.6921,0.008588
1891.6240,0.009065
1892.5558,0.009340
1893.4876,0.008477
1894.4195,0.008076
1895.3513,0.008850
1896.2831,0.009355
1897.2150,0.009031
1898.1468,0.008978
1899.0786,0.008785
1900.0105,0.008706
1900.9423,0.008617
1901.8741,0.008523
1902.8060,0.008659
1903.7378,0.009332
1904.6696,0.009100
1905.6015,0.008683
1906.5333,0.008827
1907.4651,0.008862
1908.3970,0.009762
1909.3288,0.010103
1910.2606,0.009155
1911.1925,0.009034
1912.1243,0.009092
1913.0561,0.009560
1913.9880,0.010060
1914.9198,0.009840
1915.8516,0.008783
1916.7835,0.008373
1917.7153,0.009108
1918.6472,0.009494
1919.5790,0.008798
1920.5108,0.008827
1921.4427,0.010557
1922.3745,0.010568
1923.3063,0.009078
1924.2382,0.009081
1925.1700,0.009150
1926.1018,0.009177
1927.0337,0.008922
1927.9655,0.008449
1928.8973,0.008343
1929.8292,0.008778
1930.7610,0.008458
1931.6928,0.007864
1932.6247,0.007535
1933.5565,0.007402
1934.4883,0.006961
1935.4202,0.007643
1936.3520,0.009070
1937.2838,0.010030
1938.2157,0.009316
1939.1475,0.007768
1940.0793,0.007747
1941.0112,0.008073
1941.9430,0.007893
1942.8748,0.008890
1943.8067,0.009686
1944.7385,0.009545
1945.6704,0.007160
1946.6022,0.005732
1947.5340,0.007126
1948.4659,0.008179
1949.3977,0.007904
1950.3295,0.007126
1951.2614,0.006061
1952.1932,0.006066
1953.1250,0.007182
1954.0569,0.007643
1954.9887,0.008829
1955.9205,0.009217
1956.8524,0.008058
1957.7842,0.005525
1958.7160,0.004939
1959.6479,0.006176
1960.5797,0.008061
1961.5115,0.008944
1962.4434,0.008402
1963.3752,0.006095
1964.3070,0.003898
1965.2389,0.003309
1966.1707,0.001950
1967.1025,0.002623
1968.0344,0.003926
1968.9662,0.005131
1969.8980,0.005305
1970.8299,0.005399
1971.7617,0.007397
1972.6936,0.005283
1973.6254,0.000044
1974.5572,0.001900
1975.4891,0.005845
1976.4209,0.003847
1977.3527,0.004549
1978.2846,0.005371
1979.2164,0.004264
1980.1482,0.002953
1981.0801,0.002666
1982.0119,0.005517
1982.9437,0.006308
1983.8756,0.005216
1984.8074,0.005045
1985.7392,0.005366
1986.6711,0.005595
1987.6029,0.005061
1988.5347,0.005410
1989.4666,0.004907
1990.3984,0.003850
1991.3302,0.003632
1992.2621,0.005002
1993.1939,0.006912
1994.1257,0.002885
1995.0576,-0.000563
1995.9894,0.002545
1996.9212,0.006544
1997.8531,0.008887
1998.7849,0.008755
1999.7167,0.006783
2000.6486,0.006369
2001.5804,0.007576
2002.5123,0.007755
2003.4441,0.008630
2004.3759,0.008748
2005.3078,0.005549
2006.2396,0.002951
2007.1714,0.003708
2008.1033,0.006443
2009.0351,0.005975
2009.9669,0.003834
2010.8988,0.006463
2011.8306,0.009875
2012.7624,0.008311
2013.6943,0.005785
2014.6261,0.003914
2015.5579,0.003165
2016.4898,0.002278
2017.4216,0.000932
2018.3534,0.001967
2019.2853,0.004819
2020.2171,0.006007
2021.1489,0.004158
2022.0808,0.004406
2023.0126,0.006968
2023.9444,0.005973
2024.8763,0.004348
2025.8081,0.003767
2026.7399,0.002492
2027.6718,0.002288
2028.6036,0.003568
2029.5355,0.003749
2030.4673,0.004602
2031.3991,0.007567
2032.3310,0.005787
2033.2628,0.003478
2034.1946,0.005915
2035.1265,0.007147
2036.0583,0.006735
2036.9901,0.005829
2037.9220,0.004973
2038.8538,0.002811
2039.7856,0.002915
2040.7175,0.006070
2041.6493,0.008851
2042.5811,0.007072
2043.5130,0.004124
2044.4448,0.005978
2045.3766,0.008024
2046.3085,0.007709
2047.2403,0.006111
2048.1721,0.005350
2049.1040,0.007386
2050.0358,0.009241
2050.9676,0.009221
2051.8995,0.010985
2052.8313,0.011154
2053.7631,0.009638
2054.6950,0.010139
2055.6268,0.010070
2056.5587,0.010370
2057.4905,0.012217
2058.4223,0.012214
2059.3542,0.010945
2060.2860,0.009992
2061.2178,0.009889
2062.1497,0.011055
2063.0815,0.011966
2064.0133,0.011596
2064.9452,0.010374
2065.8770,0.009478
2066.8088,0.011327
2067.7407,0.011764
2068.6725,0.010924
2069.6043,0.012458
2070.5362,0.013661
2071.4680,0.013417
2072.3998,0.013620
2073.3317,0.012807
2074.2635,0.010762
2075.1953,0.011418
2076.1272,0.013652
2077.0590,0.014118
2077.9908,0.014557
2078.9227,0.015316
2079.8545,0.013832
2080.7863,0.012020
2081.7182,0.012476
2082.6500,0.013570
2083.5819,0.013177
2084.5137,0.013341
2085.4455,0.014884
2086.3774,0.015845
2087.3092,0.015239
2088.2410,0.012727
2089.1729,0.011911
2090.1047,0.014860
2091.0365,0.016489
2091.9684,0.016156
2092.9002,0.015543
2093.8320,0.014054
2094.7639,0.013242
2095.6957,0.014468
2096.6275,0.015062
2097.5594,0.013857
2098.4912,0.011788
2099.4230,0.011187
2100.3549,0.012449
2101.2867,0.012984
2102.2185,0.012488
2103.1504,0.013605
2104.0822,0.014400
2105.0140,0.012724
2105.9459,0.012450
2106.8777,0.013335
2107.8095,0.013972
2108.7414,0.015456
2109.6732,0.015898
2110.6051,0.016205
2111.5369,0.016094
2112.4687,0.015583
2113.4006,0.015378
2114.3324,0.014417
2115.2642,0.014049
2116.1961,0.014186
2117.1279,0.014069
2118.0597,0.014016
2118.9916,0.014053
2119.9234,0.014801
2120.8552,0.014118
2121.7871,0.013007
2122.7189,0.014474
2123.6507,0.016193
2124.5826,0.015816
2125.5144,0.014750
2126.4462,0.014760
2127.3781,0.014535
2128.3099,0.012791
2129.2417,0.012988
2130.1736,0.013826
2131.1054,0.012712
2132.0372,0.012981
2132.9691,0.014908
2133.9009,0.014384
2134.8327,0.012228
2135.7646,0.011600
2136.6964,0.012471
2137.6282,0.013048
2138.5601,0.013452
2139.4919,0.012855
2140.4238,0.012019
2141.3556,0.012014
2142.2874,0.011072
2143.2193,0.010863
2144.1511,0.011971
2145.0829,0.011640
2146.0148,0.010736
2146.9466,0.010104
2147.8784,0.010419
2148.8103,0.010612
2149.7421,0.009762
2150.6739,0.011988
2151.6058,0.014677
2152.5376,0.012952
2153.4694,0.010402
2154.4013,0.008158
2155.3331,0.007465
2156.2649,0.009079
2157.1968,0.010309
2158.1286,0.009956
2159.0604,0.008310
2159.9923,0.006953
2160.9241,0.006226
2161.8559,0.004229
2162.7878,0.000837
2163.7196,0.003379
2164.6514,0.007259
2165.5833,0.005460
2166.5151,0.006318
2167.4470,0.009003
2168.3788,0.010009
2169.3106,0.008539
2170.2425,0.006594
2171.1743,0.006249
2172.1061,0.006432
2173.0380,0.006031
2173.9698,0.004651
2174.9016,0.003360
2175.8335,0.005469
2176.7653,0.010203
2177.6971,0.011482
2178.6290,0.007716
2179.5608,0.006741
2180.4926,0.009282
2181.4245,0.010140
2182.3563,0.010336
2183.2881,0.009957
2184.2200,0.008403
2185.1518,0.007794
2186.0836,0.007942
2187.0155,0.007485
2187.9473,0.006801
2188.8791,0.005757
2189.8110,0.005802
2190.7428,0.008282
2191.6746,0.009050
2192.6065,0.008013
2193.5383,0.009383
2194.4702,0.011491
2195.4020,0.011150
2196.3338,0.009690
2197.2657,0.009681
2198.1975,0.009853
2199.1293,0.009057
2200.0612,0.009898
2200.9930,0.010420
2201.9248,0.008215
2202.8567,0.006542
2203.7885,0.009122
2204.7203,0.009220
2205.6522,0.006553
2206.5840,0.006990
2207.5158,0.010793
2208.4477,0.013677
2209.3795,0.012132
2210.3113,0.010356
2211.2432,0.009831
2212.1750,0.008598
2213.1068,0.008773
2214.0387,0.008649
2214.9705,0.009358
2215.9023,0.013688
2216.8342,0.014771
2217.7660,0.011922
2218.6978,0.010734
2219.6297,0.010207
2220.5615,0.008741
2221.4934,0.008010
2222.4252,0.008934
2223.3570,0.008820
2224.2889,0.006845
2225.2207,0.006707
2226.1525,0.010273
2227.0844,0.011597
2228.0162,0.010497
2228.9480,0.011093
2229.8799,0.010567
2230.8117,0.008910
2231.7435,0.008978
2232.6754,0.011182
2233.6072,0.011864
2234.5390,0.010210
2235.4709,0.009627
2236.4027,0.009820
2237.3345,0.010391
2238.2664,0.010676
2239.1982,0.010307
2240.1300,0.010278
2241.0619,0.010490
2241.9937,0.009670
2242.9255,0.008531
2243.8574,0.008749
2244.7892,0.009133
2245.7210,0.009847
2246.6529,0.010823
2247.5847,0.010274
2248.5166,0.009597
2249.4484,0.009841
2250.3802,0.009804
2251.3121,0.008752
2252.2439,0.008571
2253.1757,0.008943
2254.1076,0.009494
2255.0394,0.009445
2255.9712,0.009003
2256.9031,0.009579
2257.8349,0.011187
2258.7667,0.011837
2259.6986,0.011515
2260.6304,0.011010
2261.5622,0.012126
2262.4941,0.013098
2263.4259,0.010579
2264.3577,0.008458
2265.2896,0.009323
2266.2214,0.009915
2267.1532,0.008436
2268.0851,0.008101
2269.0169,0.009739
2269.9487,0.010331
2270.8806,0.009650
2271.8124,0.009125
2272.7442,0.008697
2273.6761,0.008846
2274.6079,0.009851
2275.5397,0.011374
2276.4716,0.011324
2277.4034,0.010295
2278.3353,0.010759
2279.2671,0.010648
2280.1989,0.008636
2281.1308,0.008231
2282.0626,0.009991
2282.9944,0.010433
2283.9263,0.009921
2284.8581,0.009824
2285.7899,0.009992
2286.7218,0.010116
2287.6536,0.010343
2288.5854,0.011091
2289.5173,0.011688
2290.4491,0.010595
2291.3809,0.009148
2292.3128,0.008704
2293.2446,0.009810
2294.1764,0.010318
2295.1083,0.009494
2296.0401,0.009070
2296.9719,0.009643
2297.9038,0.010860
2298.8356,0.011151
2299.7674,0.010295
2300.6993,0.009851
2301.6311,0.010080
2302.5629,0.009644
2303.4948,0.008805
2304.4266,0.009386
2305.3585,0.010665
2306.2903,0.010815
2307.2221,0.009962
2308.1540,0.009393
2309.0858,0.009682
2310.0176,0.009810
2310.9495,0.009670
2311.8813,0.010072
2312.8131,0.010319
2313.7450,0.009426
2314.6768,0.008591
2315.6086,0.008651
2316.5405,0.008952
2317.4723,0.009366
2318.4041,0.009830
2319.3360,0.009799
2320.2678,0.009731
2321.1996,0.009872
2322.1315,0.009704
2323.0633,0.008399
2323.9951,0.008099
2324.9270,0.008909
2325.8588,0.009293
2326.7906,0.008941
2327.7225,0.009002
2328.6543,0.009134
2329.5861,0.009389
2330.5180,0.009740
2331.4498,0.009406
2332.3817,0.008989
2333.3135,0.009180
2334.2453,0.009200
2335.1772,0.008223
2336.1090,0.008287
2337.0408,0.009087
2337.9727,0.009579
2338.9045,0.009632
2339.8363,0.009278
2340.7682,0.008706
2341.7000,0.008799
2342.6318,0.009147
2343.5637,0.009100
2344.4955,0.008326
2345.4273,0.008314
2346.3592,0.007988
2347.2910,0.007905
2348.2228,0.008662
2349.1547,0.008930
2350.0865,0.008303
2351.0183,0.008208
2351.9502,0.008818
2352.8820,0.009256
2353.8138,0.009474
2354.7457,0.009106
2355.6775,0.008760
2356.6093,0.008807
2357.5412,0.009031
2358.4730,0.008266
2359.4049,0.007306
2360.3367,0.007867
2361.2685,0.008739
2362.2004,0.008422
2363.1322,0.007184
2364.0640,0.006221
2364.9959,0.006481
2365.9277,0.008039
2366.8595,0.007967
2367.7914,0.007726
2368.7232,0.008770
2369.6550,0.009636
2370.5869,0.008903
2371.5187,0.007597
2372.4505,0.007129
2373.3824,0.007315
2374.3142,0.008029
2375.2460,0.008176
2376.1779,0.007909
2377.1097,0.008060
2378.0415,0.007937
2378.9734,0.007431
2379.9052,0.007275
2380.8370,0.007560
2381.7689,0.007594
2382.7007,0.007979
2383.6325,0.007763
2384.5644,0.007070
2385.4962,0.007226
2386.4281,0.007300
2387.3599,0.007147
2388.2917,0.007859
2389.2236,0.008237
2390.1554,0.008025
2391.0872,0.007807
2392.0191,0.007737
2392.9509,0.007990
2393.8827,0.008014
2394.8146,0.007549
2395.7464,0.007803
2396.6782,0.008046
2397.6101,0.007573
2398.5419,0.007153
2399.4737,0.006960
2400.4056,0.006987
2401.3374,0.007032
2402.2692,0.007175
2403.2011,0.007125
2404.1329,0.007124
2405.0647,0.007032
2405.9966,0.007450
2406.9284,0.007786
2407.8602,0.007619
2408.7921,0.007158
2409.7239,0.006749
2410.6557,0.006798
2411.5876,0.007179
2412.5194,0.007525
2413.4512,0.007403
2414.3831,0.006868
2415.3149,0.006522
2416.2468,0.007032
2417.1786,0.007633
2418.1104,0.007029
2419.0423,0.006159
2419.9741,0.006673
2420.9059,0.006893
2421.8378,0.006907
2422.7696,0.007193
2423.7014,0.006921
2424.6333,0.006125
2425.5651,0.005987
2426.4969,0.006861
2427.4288,0.006841
2428.3606,0.005721
2429.2924,0.005881
2430.2243,0.005986
2431.1561,0.005920
2432.0879,0.006608
2433.0198,0.007015
2433.9516,0.006661
2434.8834,0.006028
2435.8153,0.006218
2436.7471,0.006566
2437.6789,0.006071
2438.6108,0.005546
2439.5426,0.005831
2440.4744,0.006676
2441.4063,0.007049
2442.3381,0.006352
2443.2700,0.005286
2444.2018,0.005236
2445.1336,0.005395
2446.0655,0.005552
2446.9973,0.006534
2447.9291,0.007209
2448.8610,0.006858
2449.7928,0.005913
2450.7246,0.005278
2451.6565,0.005464
2452.5883,0.005985
2453.5201,0.006726
2454.4520,0.006271
2455.3838,0.006290
2456.3156,0.007093
2457.2475,0.007146
2458.1793,0.005997
2459.1111,0.005194
2460.0430,0.005516
2460.9748,0.006359
2461.9066,0.006117
2462.8385,0.005323
2463.7703,0.005206
2464.7021,0.005263
2465.6340,0.005502
2466.5658,0.005877
2467.4976,0.005771
2468.4295,0.006469
2469.3613,0.006992
2470.2932,0.006168
2471.2250,0.005424
2472.1568,0.004993
2473.0887,0.005154
2474.0205,0.005876
2474.9523,0.006586
2475.8842,0.005864
2476.8160,0.005592
2477.7478,0.005919
2478.6797,0.005739
2479.6115,0.005955
2480.5433,0.005599
2481.4752,0.004965
2482.4070,0.005123
2483.3388,0.004787
2484.2707,0.004796
2485.2025,0.005214
2486.1343,0.005689
2487.0662,0.006242
2487.9980,0.006144
2488.9298,0.005637
2489.8617,0.005445
2490.7935,0.005431
2491.7253,0.005089
2492.6572,0.005033
2493.5890,0.004797
2494.5208,0.005188
2495.4527,0.005755
2496.3845,0.006113
2497.3164,0.006292
2498.2482,0.006022
2499.1800,0.005924
2500.1119,0.005814
2501.0437,0.006090
2501.9755,0.005817
2502.9074,0.005017
2503.8392,0.004898
2504.7710,0.005275
2505.7029,0.006287
2506.6347,0.006535
2507.5665,0.005517
2508.4984,0.005093
2509.4302,0.005664
2510.3620,0.005772
2511.2939,0.005431
2512.2257,0.005021
2513.1575,0.005327
2514.0894,0.006014
2515.0212,0.005194
2515.9530,0.004674
2516.8849,0.005001
2517.8167,0.005153
2518.7485,0.005532
2519.6804,0.005896
2520.6122,0.005755
2521.5440,0.005417
2522.4759,0.004615
2523.4077,0.004379
2524.3396,0.005160
2525.2714,0.004875
2526.2032,0.004451
2527.1351,0.004485
2528.0669,0.005108
2528.9987,0.005921
2529.9306,0.005571
2530.8624,0.004561
2531.7942,0.004713
2532.7261,0.004897
2533.6579,0.005341
2534.5897,0.005263
2535.5216,0.004555
2536.4534,0.004820
2537.3852,0.005669
2538.3171,0.006150
2539.2489,0.005886
2540.1807,0.005962
2541.1126,0.005156
2542.0444,0.004528
2542.9762,0.004062
2543.9081,0.004185
2544.8399,0.005996
2545.7717,0.006685
2546.7036,0.006011
2547.6354,0.005384
2548.5672,0.005228
2549.4991,0.005266
2550.4309,0.005233
2551.3627,0.005414
2552.2946,0.005380
2553.2264,0.005493
2554.1583,0.005783
2555.0901,0.005313
2556.0219,0.004489
2556.9538,0.004092
2557.8856,0.004444
2558.8174,0.004718
2559.7493,0.004660
2560.6811,0.004165
2561.6129,0.003811
2562.5448,0.004391
2563.4766,0.004568
2564.4084,0.004866
2565.3403,0.004552
2566.2721,0.004374
2567.2039,0.004697
2568.1358,0.004824
2569.0676,0.004518
2569.9994,0.004630
2570.9313,0.004660
2571.8631,0.004646
2572.7949,0.004891
2573.7268,0.005646
2574.6586,0.005453
2575.5904,0.004921
2576.5223,0.005272
2577.4541,0.005369
2578.3859,0.004803
2579.3178,0.003999
2580.2496,0.003976
2581.1815,0.004829
2582.1133,0.005956
2583.0451,0.005649
2583.9770,0.004944
2584.9088,0.004494
2585.8406,0.004780
2586.7725,0.005205
2587.7043,0.005006
2588.6361,0.005734
2589.5680,0.005628
2590.4998,0.005046
2591.4316,0.004935
2592.3635,0.004767
2593.2953,0.005094
2594.2271,0.005360
2595.1590,0.005304
2596.0908,0.004998
2597.0226,0.004255
2597.9545,0.004375
2598.8863,0.005383
2599.8181,0.005659
2600.7500,0.005277
2601.6818,0.004767
2602.6136,0.004245
2603.5455,0.004243
2604.4773,0.004916
2605.4091,0.004897
2606.3410,0.004711
2607.2728,0.005144
2608.2047,0.005144
2609.1365,0.005344
2610.0683,0.005473
2611.0002,0.005095
2611.9320,0.004938
2612.8638,0.005744
2613.7957,0.005425
2614.7275,0.004795
2615.6593,0.005039
2616.5912,0.005153
2617.5230,0.005056
2618.4548,0.004822
2619.3867,0.004621
2620.3185,0.005354
2621.2503,0.005320
2622.1822,0.004526
2623.1140,0.004602
2624.0458,0.005194
2624.9777,0.005380
2625.9095,0.005093
2626.8413,0.004842
2627.7732,0.005350
2628.7050,0.006254
2629.6368,0.006372
2630.5687,0.006327
2631.5005,0.006494
2632.4323,0.006144
2633.3642,0.005908
2634.2960,0.006269
2635.2279,0.005926
2636.1597,0.005515
2637.0915,0.005823
2638.0234,0.006193
2638.9552,0.006149
2639.8870,0.005742
2640.8189,0.005916
2641.7507,0.006439
2642.6825,0.006724
2643.6144,0.006520
2644.5462,0.006327
2645.4780,0.006408
2646.4099,0.006590
2647.3417,0.006229
2648.2735,0.006107
2649.2054,0.006431
2650.1372,0.006562
2651.0690,0.006331
2652.0009,0.006079
2652.9327,0.006213
2653.8645,0.006716
2654.7964,0.006893
2655.7282,0.006398
2656.6600,0.006303
2657.5919,0.006719
2658.5237,0.006839
2659.4555,0.006680
2660.3874,0.006650
2661.3192,0.006988
2662.2511,0.006945
2663.1829,0.006341
2664.1147,0.006598
2665.0466,0.006960
2665.9784,0.006802
2666.9102,0.006655
2667.8421,0.006916
2668.7739,0.007161
2669.7057,0.006828
2670.6376,0.006585
2671.5694,0.006895
2672.5012,0.007399
2673.4331,0.007074
2674.3649,0.007187
2675.2967,0.007490
2676.2286,0.007420
2677.1604,0.007307
2678.0922,0.007099
2679.0241,0.006999
2679.9559,0.006879
2680.8877,0.006619
2681.8196,0.007132
2682.7514,0.007878
2683.6832,0.007973
2684.6151,0.007458
2685.5469,0.007690
2686.4787,0.008096
2687.4106,0.008072
2688.3424,0.008056
2689.2742,0.008214
2690.2061,0.008424
2691.1379,0.008115
2692.0698,0.007912
2693.0016,0.008146
2693.9334,0.008003
2694.8653,0.008037
2695.7971,0.008179
2696.7289,0.008220
2697.6608,0.008533
2698.5926,0.008352
2699.5244,0.007889
2700.4563,0.008475
2701.3881,0.009096
2702.3199,0.008681
2703.2518,0.008205
2704.1836,0.008508
2705.1154,0.008564
2706.0473,0.008415
2706.9791,0.008496
2707.9109,0.008596
2708.8428,0.008576
2709.7746,0.008525
2710.7064,0.008589
2711.6383,0.008886
2712.5701,0.009125
2713.5019,0.009307
2714.4338,0.009525
2715.3656,0.009399
2716.2974,0.009188
2717.2293,0.009529
2718.1611,0.009745
2719.0930,0.009648
2720.0248,0.009046
2720.9566,0.008973
2721.8885,0.009223
2722.8203,0.009397
2723.7521,0.009896
2724.6840,0.009957
2725.6158,0.009467
2726.5476,0.009598
2727.4795,0.010011
2728.4113,0.010392
2729.3431,0.010778
2730.2750,0.011034
2731.2068,0.011004
2732.1386,0.010911
2733.0705,0.010283
2734.0023,0.010170
2734.9341,0.010517
2735.8660,0.010659
2736.7978,0.010703
2737.7296,0.010459
2738.6615,0.010085
2739.5933,0.010272
2740.5251,0.010734
2741.4570,0.010613
2742.3888,0.010833
2743.3206,0.011003
2744.2525,0.010815
2745.1843,0.010937
2746.1162,0.011003
2747.0480,0.011419
2747.9798,0.011394
2748.9117,0.011447
2749.8435,0.011758
2750.7753,0.011712
2751.7072,0.011801
2752.6390,0.012190
2753.5708,0.012020
2754.5027,0.011606
2755.4345,0.011674
2756.3663,0.011882
2757.2982,0.011889
2758.2300,0.011788
2759.1618,0.011645
2760.0937,0.011515
2761.0255,0.011628
2761.9573,0.011799
2762.8892,0.011710
2763.8210,0.011839
2764.7528,0.011892
2765.6847,0.011807
2766.6165,0.011918
2767.5483,0.011695
2768.4802,0.011797
2769.4120,0.012075
2770.3438,0.012183
2771.2757,0.012212
2772.2075,0.012032
2773.1394,0.012215
2774.0712,0.012143
2775.0030,0.012365
2775.9349,0.013216
2776.8667,0.013076
2777.7985,0.012429
2778.7304,0.012666
2779.6622,0.012921
2780.5940,0.013047
2781.5259,0.013262
2782.4577,0.013122
2783.3895,0.012948
2784.3214,0.012946
2785.2532,0.013108
2786.1850,0.013470
2787.1169,0.012996
2788.0487,0.012932
2788.9805,0.013514
2789.9124,0.013718
2790.8442,0.013504
2791.7760,0.013799
2792.7079,0.014414
2793.6397,0.014357
2794.5715,0.014235
2795.5034,0.014705
2796.4352,0.014991
2797.3670,0.015270
2798.2989,0.015343
2799.2307,0.015236
2800.1626,0.015088
2801.0944,0.015060
2802.0262,0.015270
2802.9581,0.015549
2803.8899,0.015950
2804.8217,0.015966
2805.7536,0.016362
2806.6854,0.016388
2807.6172,0.016484
2808.5491,0.016416
2809.4809,0.016054
2810.4127,0.016835
2811.3446,0.017751
2812.2764,0.017750
2813.2082,0.017369
2814.1401,0.017826
2815.0719,0.017975
2816.0037,0.017644
2816.9356,0.017788
2817.8674,0.017998
2818.7992,0.018327
2819.7311,0.018693
2820.6629,0.018555
2821.5947,0.018311
2822.5266,0.018527
2823.4584,0.019248
2824.3902,0.019917
2825.3221,0.020106
2826.2539,0.019959
2827.1857,0.020153
2828.1176,0.020475
2829.0494,0.020389
2829.9813,0.020240
2830.9131,0.020500
2831.8449,0.020942
2832.7768,0.021131
2833.7086,0.021203
2834.6404,0.021481
2835.5723,0.021058
2836.5041,0.020632
2837.4359,0.021266
2838.3678,0.022101
2839.2996,0.022162
2840.2314,0.021982
2841.1633,0.022202
2842.0951,0.023096
2843.0269,0.023297
2843.9588,0.022958
2844.8906,0.022917
2845.8224,0.023240
2846.7543,0.023459
2847.6861,0.023264
2848.6179,0.023216
2849.5498,0.023653
2850.4816,0.024306
2851.4134,0.024767
2852.3453,0.024611
2853.2771,0.024529
2854.2089,0.025152
2855.1408,0.025184
2856.0726,0.025003
2857.0045,0.025568
2857.9363,0.025865
2858.8681,0.026636
2859.8000,0.027301
2860.7318,0.027215
2861.6636,0.027234
2862.5955,0.027740
2863.5273,0.027972
2864.4591,0.028500
2865.3910,0.029272
2866.3228,0.029553
2867.2546,0.029599
2868.1865,0.029775
2869.1183,0.030542
2870.0501,0.031806
2870.9820,0.032445
2871.9138,0.032680
2872.8456,0.033114
2873.7775,0.033461
2874.7093,0.033409
2875.6411,0.033964
2876.5730,0.035117
2877.5048,0.036810
2878.4366,0.037465
2879.3685,0.036893
2880.3003,0.036803
2881.2321,0.037433
2882.1640,0.038259
2883.0958,0.038595
2884.0277,0.038256
2884.9595,0.038290
2885.8913,0.038564
2886.8232,0.038814
2887.7550,0.039165
2888.6868,0.039840
2889.6187,0.040654
2890.5505,0.041130
2891.4823,0.041918
2892.4142,0.042809
2893.3460,0.042946
2894.2778,0.043086
2895.2097,0.043107
2896.1415,0.043447
2897.0733,0.044113
2898.0052,0.044595
2898.9370,0.045357
2899.8688,0.046306
2900.8007,0.046592
2901.7325,0.046732
2902.6643,0.047034
2903.5962,0.047250
2904.5280,0.047017
2905.4598,0.046606
2906.3917,0.046475
2907.3235,0.046110
2908.2553,0.045390
2909.1872,0.044946
2910.1190,0.044846
2911.0509,0.044404
2911.9827,0.043848
2912.9145,0.044243
2913.8464,0.044526
2914.7782,0.044066
2915.7100,0.043934
2916.6419,0.044717
2917.5737,0.044458
2918.5055,0.043179
2919.4374,0.042621
2920.3692,0.042723
2921.3010,0.043185
2922.2329,0.043821
2923.1647,0.043700
2924.0965,0.043676
2925.0284,0.044122
2925.9602,0.044276
2926.8920,0.044255
2927.8239,0.044918
2928.7557,0.045780
2929.6875,0.046245
2930.6194,0.046143
2931.5512,0.046429
2932.4830,0.046423
2933.4149,0.045968
2934.3467,0.046575
2935.2785,0.047379
2936.2104,0.048065
2937.1422,0.048304
2938.0741,0.047702
2939.0059,0.047716
2939.9377,0.048306
2940.8696,0.048363
2941.8014,0.048325
2942.7332,0.048909
2943.6651,0.049364
2944.5969,0.049663
2945.5287,0.050031
2946.4606,0.049801
2947.3924,0.049372
2948.3242,0.049741
2949.2561,0.049665
2950.1879,0.049637
2951.1197,0.050211
2952.0516,0.050096
2952.9834,0.049978
2953.9152,0.050675
2954.8471,0.051261
2955.7789,0.051718
2956.7107,0.052289
2957.6426,0.052940
2958.5744,0.052891
2959.5062,0.052650
2960.4381,0.052821
2961.3699,0.053689
2962.3017,0.055384
2963.2336,0.057069
2964.1654,0.057763
2965.0972,0.058312
2966.0291,0.059898
2966.9609,0.062104
2967.8928,0.064185
2968.8246,0.065645
2969.7564,0.067220
2970.6883,0.069157
2971.6201,0.071493
2972.5519,0.074129
2973.4838,0.076104
2974.4156,0.078265
2975.3474,0.080770
2976.2793,0.082928
2977.2111,0.085029
2978.1429,0.087032
2979.0748,0.088149
2980.0066,0.089519
2980.9384,0.090386
2981.8703,0.090045
2982.8021,0.089685
2983.7339,0.088881
2984.6658,0.087115
2985.5976,0.085549
2986.5294,0.084132
2987.4613,0.082606
2988.3931,0.080455
2989.3249,0.077959
2990.2568,0.075871
2991.1886,0.073723
2992.1204,0.071543
2993.0523,0.070025
2993.9841,0.068802
2994.9160,0.067508
2995.8478,0.066132
2996.7796,0.065102
2997.7115,0.063908
2998.6433,0.062874
2999.5751,0.062545
3000.5070,0.062149
3001.4388,0.060909
3002.3706,0.060868
3003.3025,0.061209
3004.2343,0.060749
3005.1661,0.059959
3006.0980,0.059727
3007.0298,0.060408
3007.9616,0.061219
3008.8935,0.061415
3009.8253,0.061426
3010.7571,0.061471
3011.6890,0.061362
3012.6208,0.061428
3013.5526,0.061698
3014.4845,0.061999
3015.4163,0.062631
3016.3481,0.063868
3017.2800,0.064234
3018.2118,0.063187
3019.1436,0.063790
3020.0755,0.064915
3021.0073,0.064966
3021.9392,0.065217
3022.8710,0.066061
3023.8028,0.066464
3024.7347,0.067035
3025.6665,0.068295
3026.5983,0.068115
3027.5302,0.067452
3028.4620,0.068414
3029.3938,0.069698
3030.3257,0.070358
3031.2575,0.070561
3032.1893,0.071782
3033.1212,0.072705
3034.0530,0.072890
3034.9848,0.073236
3035.9167,0.073415
3036.8485,0.073796
3037.7803,0.074770
3038.7122,0.075941
3039.6440,0.076639
3040.5758,0.077554
3041.5077,0.078764
3042.4395,0.078993
3043.3713,0.078787
3044.3032,0.078570
3045.2350,0.078787
3046.1668,0.080135
3047.0987,0.081758
3048.0305,0.082173
3048.9624,0.082353
3049.8942,0.082788
3050.8260,0.083923
3051.7579,0.085840
3052.6897,0.086831
3053.6215,0.086733
3054.5534,0.088019
3055.4852,0.090201
3056.4170,0.090402
3057.3489,0.089728
3058.2807,0.090931
3059.2125,0.091950
3060.1444,0.091890
3061.0762,0.092743
3062.0080,0.093587
3062.9399,0.094315
3063.8717,0.095553
3064.8035,0.096212
3065.7354,0.096862
3066.6672,0.097823
3067.5990,0.099018
3068.5309,0.100109
3069.4627,0.100988
3070.3945,0.101516
3071.3264,0.102016
3072.2582,0.103144
3073.1900,0.104163
3074.1219,0.104293
3075.0537,0.105142
3075.9856,0.106463
3076.9174,0.107558
3077.8492,0.108834
3078.7811,0.109924
3079.7129,0.110778
3080.6447,0.111457
3081.5766,0.111769
3082.5084,0.112169
3083.4402,0.113828
3084.3721,0.115577
3085.3039,0.116196
3086.2357,0.116894
3087.1676,0.118492
3088.0994,0.120086
3089.0312,0.120576
3089.9631,0.120479
3090.8949,0.121086
3091.8267,0.122785
3092.7586,0.124098
3093.6904,0.125706
3094.6222,0.127663
3095.5541,0.128095
3096.4859,0.127745
3097.4177,0.128540
3098.3496,0.130482
3099.2814,0.132724
3100.2132,0.134440
3101.1451,0.135019
3102.0769,0.135234
3103.0087,0.136412
3103.9406,0.137490
3104.8724,0.138202
3105.8043,0.139255
3106.7361,0.140620
3107.6679,0.141944
3108.5998,0.142907
3109.5316,0.144236
3110.4634,0.146025
3111.3953,0.147231
3112.3271,0.147842
3113.2589,0.148564
3114.1908,0.150408
3115.1226,0.151819
3116.0544,0.152231
3116.9863,0.153578
3117.9181,0.155189
3118.8499,0.155909
3119.7818,0.156285
3120.7136,0.157532
3121.6454,0.158988
3122.5773,0.159413
3123.5091,0.160259
3124.4409,0.162087
3125.3728,0.163613
3126.3046,0.165105
3127.2364,0.166212
3128.1683,0.167015
3129.1001,0.168753
3130.0319,0.171734
3130.9638,0.173700
3131.8956,0.173555
3132.8275,0.174251
3133.7593,0.176144
3134.6911,0.177724
3135.6230,0.179194
3136.5548,0.180211
3137.4866,0.181774
3138.4185,0.182911
3139.3503,0.183867
3140.2821,0.184958
3141.2140,0.185635
3142.1458,0.186748
3143.0776,0.188151
3144.0095,0.189555
3144.9413,0.191722
3145.8731,0.193244
3146.8050,0.194131
3147.7368,0.195474
3148.6686,0.196974
3149.6005,0.198251
3150.5323,0.199280
3151.4641,0.200615
3152.3960,0.201917
3153.3278,0.203653
3154.2596,0.206362
3155.1915,0.207752
3156.1233,0.208110
3157.0551,0.209476
3157.9870,0.211133
3158.9188,0.211706
3159.8507,0.213173
3160.7825,0.215284
3161.7143,0.216778
3162.6462,0.218048
3163.5780,0.219063
3164.5098,0.219666
3165.4417,0.220998
3166.3735,0.221219
3167.3053,0.221852
3168.2372,0.224314
3169.1690,0.226539
3170.1008,0.227494
3171.0327,0.228700
3171.9645,0.230057
3172.8963,0.231341
3173.8282,0.232299
3174.7600,0.235007
3175.6918,0.238795
3176.6237,0.240925
3177.5555,0.240693
3178.4873,0.239691
3179.4192,0.239811
3180.3510,0.241308
3181.2828,0.242713
3182.2147,0.244371
3183.1465,0.244753
3184.0783,0.246051
3185.0102,0.249260
3185.9420,0.251692
3186.8739,0.252134
3187.8057,0.253062
3188.7375,0.254038
3189.6694,0.254377
3190.6012,0.255532
3191.5330,0.256470
3192.4649,0.256464
3193.3967,0.258483
3194.3285,0.260162
3195.2604,0.261672
3196.1922,0.263024
3197.1240,0.263658
3198.0559,0.264392
3198.9877,0.265729
3199.9195,0.267237
3200.8514,0.269108
3201.7832,0.269638
3202.7150,0.269960
3203.6469,0.270367
3204.5787,0.271386
3205.5105,0.273956
3206.4424,0.275453
3207.3742,0.274763
3208.3060,0.274397
3209.2379,0.276287
3210.1697,0.279192
3211.1015,0.279738
3212.0334,0.279194
3212.9652,0.279149
3213.8971,0.281245
3214.8289,0.283712
3215.7607,0.284633
3216.6926,0.285171
3217.6244,0.285933
3218.5562,0.285775
3219.4881,0.287167
3220.4199,0.288381
3221.3517,0.288604
3222.2836,0.288921
3223.2154,0.290101
3224.1472,0.290865
3225.0791,0.289896
3226.0109,0.288892
3226.9427,0.289042
3227.8746,0.290661
3228.8064,0.294249
3229.7382,0.295265
3230.6701,0.295213
3231.6019,0.295901
3232.5337,0.296248
3233.4656,0.296052
3234.3974,0.297271
3235.3292,0.297370
3236.2611,0.295966
3237.1929,0.296073
3238.1247,0.298543
3239.0566,0.298707
3239.9884,0.299156
3240.9202,0.300100
3241.8521,0.301916
3242.7839,0.301963
3243.7158,0.301811
3244.6476,0.303009
3245.5794,0.305006
3246.5113,0.303175
3247.4431,0.301666
3248.3749,0.302536
3249.3068,0.303450
3250.2386,0.304090
3251.1704,0.304429
3252.1023,0.303186
3253.0341,0.303086
3253.9659,0.302661
3254.8978,0.302978
3255.8296,0.304628
3256.7614,0.305924
3257.6933,0.305566
3258.6251,0.305691
3259.5569,0.305492
3260.4888,0.306761
3261.4206,0.306144
3262.3524,0.305549
3263.2843,0.305221
3264.2161,0.305462
3265.1479,0.306476
3266.0798,0.307010
3267.0116,0.307207
3267.9434,0.307383
3268.8753,0.307715
3269.8071,0.309245
3270.7390,0.306701
3271.6708,0.306619
3272.6026,0.308457
3273.5345,0.307458
3274.4663,0.307625
3275.3981,0.309258
3276.3300,0.308149
3277.2618,0.307123
3278.1936,0.307720
3279.1255,0.307732
3280.0573,0.305864
3280.9891,0.305657
3281.9210,0.306404
3282.8528,0.308225
3283.7846,0.308493
3284.7165,0.309100
3285.6483,0.310312
3286.5801,0.310968
3287.5120,0.310058
3288.4438,0.308585
3289.3756,0.309123
3290.3075,0.309088
3291.2393,0.308809
3292.1711,0.308853
3293.1030,0.306263
3294.0348,0.307106
3294.9666,0.307699
3295.8985,0.309133
3296.8303,0.310253
3297.7622,0.309504
3298.6940,0.307775
3299.6258,0.307653
3300.5577,0.307630
3301.4895,0.307635
3302.4213,0.307711
3303.3532,0.309254
3304.2850,0.308531
3305.2168,0.307710
3306.1487,0.307449
3307.0805,0.309288
3308.0123,0.308572
3308.9442,0.306233
3309.8760,0.305534
3310.8078,0.305576
3311.7397,0.305830
3312.6715,0.308572
3313.6033,0.309434
3314.5352,0.310945
3315.4670,0.310003
3316.3988,0.309791
3317.3307,0.310251
3318.2625,0.309478
3319.1943,0.308235
3320.1262,0.306915
3321.0580,0.307157
3321.9898,0.310109
3322.9217,0.311434
3323.8535,0.312574
3324.7854,0.311287
3325.7172,0.309111
3326.6490,0.307536
3327.5809,0.308946
3328.5127,0.308789
3329.4445,0.308945
3330.3764,0.308156
3331.3082,0.307749
3332.2400,0.307884
3333.1719,0.308363
3334.1037,0.309658
3335.0355,0.310809
3335.9674,0.310655
3336.8992,0.310411
3337.8310,0.309661
3338.7629,0.309261
3339.6947,0.307814
3340.6265,0.309358
3341.5584,0.310497
3342.4902,0.310957
3343.4220,0.308641
3344.3539,0.308234
3345.2857,0.307837
3346.2175,0.307315
3347.1494,0.306171
3348.0812,0.307085
3349.0130,0.308101
3349.9449,0.310095
3350.8767,0.310382
3351.8086,0.309117
3352.7404,0.305944
3353.6722,0.305174
3354.6041,0.306075
3355.5359,0.306534
3356.4677,0.307036
3357.3996,0.306479
3358.3314,0.305426
3359.2632,0.306921
3360.1951,0.307123
3361.1269,0.307954
3362.0587,0.309530
3362.9906,0.309702
3363.9224,0.305775
3364.8542,0.304401
3365.7861,0.305732
3366.7179,0.306862
3367.6497,0.303560
3368.5816,0.303358
3369.5134,0.303822
3370.4452,0.304591
3371.3771,0.302810
3372.3089,0.301839
3373.2407,0.300033
3374.1726,0.299510
3375.1044,0.299426
3376.0362,0.297456
3376.9681,0.296556
3377.8999,0.298142
3378.8317,0.297132
3379.7636,0.297894
3380.6954,0.298222
3381.6273,0.299409
3382.5591,0.299714
3383.4909,0.300465
3384.4228,0.298415
3385.3546,0.296100
3386.2864,0.294428
3387.2183,0.297177
3388.1501,0.299641
3389.0819,0.300206
3390.0138,0.298377
3390.9456,0.296734
3391.8774,0.294612
3392.8093,0.294160
3393.7411,0.292511
3394.6729,0.290719
3395.6048,0.288481
3396.5366,0.287449
3397.4684,0.287498
3398.4003,0.286569
3399.3321,0.286635
3400.2639,0.288692
3401.1958,0.286298
3402.1276,0.284311
3403.0594,0.283067
3403.9913,0.283381
3404.9231,0.281335
3405.8549,0.280817
3406.7868,0.280251
3407.7186,0.279017
3408.6505,0.277849
3409.5823,0.277635
3410.5141,0.276353
3411.4460,0.276688
3412.3778,0.273014
3413.3096,0.271603
3414.2415,0.269803
3415.1733,0.270662
3416.1051,0.269380
3417.0370,0.265961
3417.9688,0.265342
3418.9006,0.267721
3419.8325,0.265142
3420.7643,0.263084
3421.6961,0.263506
3422.6280,0.265082
3423.5598,0.264545
3424.4916,0.263723
3425.4235,0.263597
3426.3553,0.260900
3427.2871,0.258007
3428.2190,0.260732
3429.1508,0.260998
3430.0826,0.257294
3431.0145,0.254790
3431.9463,0.256404
3432.8781,0.253873
3433.8100,0.251636
3434.7418,0.252359
3435.6737,0.253858
3436.6055,0.249966
3437.5373,0.247706
3438.4692,0.245596
3439.4010,0.245064
3440.3328,0.242236
3441.2647,0.239359
3442.1965,0.235616
3443.1283,0.237939
3444.0602,0.238800
3444.9920,0.238119
3445.9238,0.237097
3446.8557,0.238132
3447.7875,0.238154
3448.7193,0.237246
3449.6512,0.235619
3450.5830,0.236931
3451.5148,0.234977
3452.4467,0.230773
3453.3785,0.226716
3454.3103,0.228836
3455.2422,0.229722
3456.1740,0.227752
3457.1058,0.224092
3458.0377,0.222984
3458.9695,0.219950
3459.9013,0.219492
3460.8332,0.220768
3461.7650,0.219296
3462.6969,0.217504
3463.6287,0.218687
3464.5605,0.219010
3465.4924,0.219862
3466.4242,0.218580
3467.3560,0.215223
3468.2879,0.212447
3469.2197,0.212400
3470.1515,0.209347
3471.0834,0.208353
3472.0152,0.208278
3472.9470,0.208142
3473.8789,0.205935
3474.8107,0.204639
3475.7425,0.204476
3476.6744,0.203813
3477.6062,0.200387
3478.5380,0.198771
3479.4699,0.199371
3480.4017,0.199532
3481.3335,0.197920
3482.2654,0.195932
3483.1972,0.193559
3484.1290,0.191178
3485.0609,0.188992
3485.9927,0.191390
3486.9245,0.192954
3487.8564,0.192029
3488.7882,0.189452
3489.7201,0.188926
3490.6519,0.189567
3491.5837,0.186750
3492.5156,0.182374
3493.4474,0.183286
3494.3792,0.183903
3495.3111,0.185254
3496.2429,0.184251
3497.1747,0.182741
3498.1066,0.180278
3499.0384,0.176456
3499.9702,0.173774
3500.9021,0.174023
3501.8339,0.174410
3502.7657,0.171549
3503.6976,0.170753
3504.6294,0.170561
3505.5612,0.170157
3506.4931,0.171688
3507.4249,0.171644
3508.3567,0.170991
3509.2886,0.167026
3510.2204,0.164805
3511.1522,0.165086
3512.0841,0.165161
3513.0159,0.163389
3513.9477,0.163550
3514.8796,0.163352
3515.8114,0.161696
3516.7432,0.156903
3517.6751,0.156638
3518.6069,0.157703
3519.5388,0.155070
3520.4706,0.151810
3521.4024,0.151531
3522.3343,0.151402
3523.2661,0.153526
3524.1979,0.154389
3525.1298,0.152429
3526.0616,0.149882
3526.9934,0.146944
3527.9253,0.143999
3528.8571,0.142390
3529.7889,0.141996
3530.7208,0.140537
3531.6526,0.139682
3532.5844,0.140512
3533.5163,0.139730
3534.4481,0.139343
3535.3799,0.137898
3536.3118,0.136313
3537.2436,0.133241
3538.1754,0.133218
3539.1073,0.133740
3540.0391,0.133287
3540.9709,0.129802
3541.9028,0.128184
3542.8346,0.131963
3543.7664,0.133746
3544.6983,0.130042
3545.6301,0.126632
3546.5620,0.125127
3547.4938,0.124615
3548.4256,0.124127
3549.3575,0.122543
3550.2893,0.121531
3551.2211,0.120817
3552.1530,0.119056
3553.0848,0.118702
3554.0166,0.118913
3554.9485,0.120128
3555.8803,0.118983
3556.8121,0.117141
3557.7440,0.115103
3558.6758,0.114093
3559.6076,0.113723
3560.5395,0.112764
3561.4713,0.110397
3562.4031,0.108313
3563.3350,0.107904
3564.2668,0.108324
3565.1986,0.108704
3566.1305,0.109093
3567.0623,0.108836
3567.9941,0.108519
3568.9260,0.104759
3569.8578,0.102483
3570.7896,0.102111
3571.7215,0.100343
3572.6533,0.100005
3573.5852,0.100708
3574.5170,0.100312
3575.4488,0.099451
3576.3807,0.096556
3577.3125,0.095757
3578.2443,0.096773
3579.1762,0.095665
3580.1080,0.093518
3581.0398,0.091851
3581.9717,0.090899
3582.9035,0.092057
3583.8353,0.091516
3584.7672,0.089149
3585.6990,0.086403
3586.6308,0.087964
3587.5627,0.089097
3588.4945,0.087442
3589.4263,0.086529
3590.3582,0.084438
3591.2900,0.081790
3592.2218,0.082155
3593.1537,0.081894
3594.0855,0.080946
3595.0173,0.080409
3595.9492,0.080245
3596.8810,0.080589
3597.8128,0.080145
3598.7447,0.078615
3599.6765,0.077315
3600.6084,0.076738
3601.5402,0.075768
3602.4720,0.073638
3603.4039,0.073724
3604.3357,0.073606
3605.2675,0.072283
3606.1994,0.071098
3607.1312,0.070989
3608.0630,0.070305
3608.9949,0.069259
3609.9267,0.067429
3610.8585,0.065178
3611.7904,0.064426
3612.7222,0.065332
3613.6540,0.067229
3614.5859,0.067174
3615.5177,0.065285
3616.4495,0.065843
3617.3814,0.064880
3618.3132,0.063477
3619.2450,0.063279
3620.1769,0.063350
3621.1087,0.061535
3622.0405,0.060183
3622.9724,0.060070
3623.9042,0.059396
3624.8360,0.058658
3625.7679,0.057508
3626.6997,0.056805
3627.6316,0.054954
3628.5634,0.054296
3629.4952,0.055551
3630.4271,0.055209
3631.3589,0.055216
3632.2907,0.054034
3633.2226,0.051860
3634.1544,0.050629
3635.0862,0.050416
3636.0181,0.050232
3636.9499,0.049481
3637.8817,0.048648
3638.8136,0.047695
3639.7454,0.047431
3640.6772,0.046915
3641.6091,0.045819
3642.5409,0.045765
3643.4727,0.045952
3644.4046,0.044910
3645.3364,0.043762
3646.2682,0.042903
3647.2001,0.042636
3648.1319,0.042893
3649.0637,0.042146
3649.9956,0.039770
3650.9274,0.039136
3651.8592,0.039386
3652.7911,0.038713
3653.7229,0.036619
3654.6547,0.034572
3655.5866,0.034866
3656.5184,0.035244
3657.4503,0.035406
3658.3821,0.035035
3659.3139,0.032833
3660.2458,0.031757
3661.1776,0.031949
3662.1094,0.031214
3663.0413,0.029960
3663.9731,0.028776
3664.9049,0.028266
3665.8368,0.028629
3666.7686,0.028824
3667.7004,0.028682
3668.6323,0.027277
3669.5641,0.025568
3670.4959,0.024797
3671.4278,0.025485
3672.3596,0.024119
3673.2914,0.021738
3674.2233,0.020400
3675.1551,0.019352
3676.0869,0.020697
3677.0188,0.021040
3677.9506,0.018388
3678.8824,0.014988
3679.8143,0.015135
3680.7461,0.016806
3681.6779,0.017243
3682.6098,0.017590
3683.5416,0.017162
3684.4735,0.015876
3685.4053,0.015238
3686.3371,0.014660
3687.2690,0.013982
3688.2008,0.013255
3689.1326,0.014272
3690.0645,0.015171
3690.9963,0.013384
3691.9281,0.010118
3692.8600,0.008550
3693.7918,0.009863
3694.7236,0.010273
3695.6555,0.009552
3696.5873,0.009970
3697.5191,0.010187
3698.4510,0.009630
3699.3828,0.008848
3700.3146,0.008782
3701.2465,0.008245
3702.1783,0.007247
3703.1101,0.007449
3704.0420,0.007692
3704.9738,0.006973
3705.9056,0.006730
3706.8375,0.007079
3707.7693,0.006438
3708.7011,0.005763
3709.6330,0.005934
3710.5648,0.006284
3711.4967,0.006382
3712.4285,0.004929
3713.3603,0.003668
3714.2922,0.005789
3715.2240,0.006980
3716.1558,0.004933
3717.0877,0.003669
3718.0195,0.004173
3718.9513,0.005222
3719.8832,0.006367
3720.8150,0.005084
3721.7468,0.003515
3722.6787,0.004118
3723.6105,0.003986
3724.5423,0.003586
3725.4742,0.004207
3726.4060,0.004494
3727.3378,0.003921
3728.2697,0.002857
3729.2015,0.002410
3730.1333,0.002793
3731.0652,0.002445
3731.9970,0.003587
3732.9288,0.005343
3733.8607,0.005584
3734.7925,0.003470
3735.7243,0.001173
3736.6562,0.001050
3737.5880,0.003257
3738.5199,0.004012
3739.4517,0.002601
3740.3835,0.002393
3741.3154,0.002464
3742.2472,0.002148
3743.1790,0.003112
3744.1109,0.002988
3745.0427,0.002476
3745.9745,0.003017
3746.9064,0.003296
3747.8382,0.002302
3748.7700,0.001659
3749.7019,0.002707
3750.6337,0.003649
3751.5655,0.003037
3752.4974,0.002461
3753.4292,-0.000238
3754.3610,-0.000830
3755.2929,0.001745
3756.2247,0.002679
3757.1565,0.001603
3758.0884,0.001193
3759.0202,0.001260
3759.9520,0.001866
3760.8839,0.001688
3761.8157,0.001605
3762.7475,0.002692
3763.6794,0.003424
3764.6112,0.002944
3765.5431,0.002579
3766.4749,0.002548
3767.4067,0.002161
3768.3386,0.002256
3769.2704,0.002610
3770.2022,0.002106
3771.1341,0.003083
3772.0659,0.003544
3772.9977,0.003096
3773.9296,0.002100
3774.8614,0.001649
3775.7932,0.002523
3776.7251,0.002700
3777.6569,0.001813
3778.5887,0.001731
3779.5206,0.001834
3780.4524,0.001859
3781.3842,0.000982
3782.3161,-0.000518
3783.2479,0.000148
3784.1797,0.001906
3785.1116,0.002764
3786.0434,0.002836
3786.9752,0.002104
3787.9071,0.001342
3788.8389,0.001458
3789.7707,0.001447
3790.7026,0.001223
3791.6344,0.002332
3792.5662,0.003376
3793.4981,0.003311
3794.4299,0.002524
3795.3618,0.002185
3796.2936,0.002044
3797.2254,0.002136
3798.1573,0.002443
3799.0891,0.001862
3800.0209,0.000236
3800.9528,-0.000460
3801.8846,0.000176
3802.8164,0.002112
3803.7483,0.002752
3804.6801,0.000782
3805.6119,0.000185
3806.5438,0.001324
3807.4756,0.001439
3808.4074,0.001238
3809.3393,0.001383
3810.2711,0.001118
3811.2029,0.000515
3812.1348,0.001894
3813.0666,0.002761
3813.9984,0.001949
3814.9303,0.001593
3815.8621,0.002347
3816.7939,0.003078
3817.7258,0.003094
3818.6576,0.002647
3819.5894,0.001487
3820.5213,0.000585
3821.4531,0.001906
3822.3850,0.001878
3823.3168,0.001565
3824.2486,0.000696
3825.1805,-0.000779
3826.1123,-0.000110
3827.0441,0.000910
3827.9760,0.001975
3828.9078,0.002021
3829.8396,0.000491
3830.7715,-0.000038
3831.7033,0.000876
3832.6351,0.001437
3833.5670,0.001141
3834.4988,0.001241
3835.4306,0.002474
3836.3625,0.003657
3837.2943,0.003330
3838.2261,0.001400
3839.1580,-0.001539
3840.0898,-0.001379
3841.0216,0.000305
3841.9535,0.001388
3842.8853,0.003047
3843.8171,0.003509
3844.7490,0.001717
3845.6808,0.000616
3846.6126,0.002162
3847.5445,0.002389
3848.4763,0.001021
3849.4082,0.001633
3850.3400,0.001913
3851.2718,0.000919
3852.2037,0.000833
3853.1355,0.002374
3854.0673,0.002528
3854.9992,0.002470
3855.9310,0.001941
3856.8628,-0.000215
3857.7947,-0.001893
3858.7265,-0.000265
3859.6583,0.001287
3860.5902,0.001180
3861.5220,0.000640
3862.4538,0.000554
3863.3857,0.000963
3864.3175,0.002220
3865.2493,0.002264
3866.1812,0.001140
3867.1130,0.001526
3868.0448,0.001912
3868.9767,0.000900
3869.9085,0.000906
3870.8403,0.001586
3871.7722,0.001486
3872.7040,0.000209
3873.6358,-0.000041
3874.5677,0.000332
3875.4995,0.000467
3876.4314,0.000592
3877.3632,0.000375
3878.2950,0.000286
3879.2269,0.000134
3880.1587,0.000034
3881.0905,0.001239
3882.0224,0.001668
3882.9542,0.001378
3883.8860,0.001401
3884.8179,0.001545
3885.7497,0.002274
3886.6815,0.002483
3887.6134,0.001214
3888.5452,0.000779
3889.4770,0.000867
3890.4089,0.000769
3891.3407,0.001103
3892.2725,0.002024
3893.2044,0.002393
3894.1362,0.001362
3895.0680,0.001026
3895.9999,0.002382
3896.9317,0.002563
3897.8635,0.001500
3898.7954,0.001396
3899.7272,0.002304
3900.6590,0.001853
3901.5909,0.001001
3902.5227,0.001580
3903.4546,0.000731
3904.3864,-0.000012
3905.3182,0.001158
3906.2501,0.001345
3907.1819,0.000750
3908.1137,-0.000060
3909.0456,0.000325
3909.9774,0.000739
3910.9092,0.001127
3911.8411,0.001153
3912.7729,0.000511
3913.7047,0.000693
3914.6366,0.001796
3915.5684,0.002029
3916.5002,0.001768
3917.4321,0.001421
3918.3639,0.001284
3919.2957,0.001509
3920.2276,0.001388
3921.1594,0.000589
3922.0912,0.000710
3923.0231,0.001055
3923.9549,0.000901
3924.8867,0.000768
3925.8186,0.001053
3926.7504,0.001968
3927.6822,0.002225
3928.6141,0.001997
3929.5459,0.002595
3930.4777,0.002453
3931.4096,0.001989
3932.3414,0.001776
3933.2733,0.001541
3934.2051,0.002130
3935.1369,0.002371
3936.0688,0.001420
3937.0006,0.001563
3937.9324,0.002260
3938.8643,0.002437
3939.7961,0.002182
3940.7279,0.001599
3941.6598,0.001194
3942.5916,0.001202
3943.5234,0.000834
3944.4553,0.000450
3945.3871,0.000532
3946.3189,0.000867
3947.2508,0.001079
3948.1826,0.001211
3949.1144,0.000830
3950.0463,0.000843
3950.9781,0.001308
3951.9099,0.001180
3952.8418,0.001015
3953.7736,0.001729
3954.7054,0.002387
3955.6373,0.002746
3956.5691,0.002330
3957.5009,0.001733
3958.4328,0.001978
3959.3646,0.001644
3960.2965,0.000323
3961.2283,0.000915
3962.1601,0.002078
3963.0920,0.001812
3964.0238,0.001032
3964.9556,0.000812
3965.8875,0.000809
3966.8193,0.001045
3967.7511,0.001589
3968.6830,0.002005
3969.6148,0.001428
3970.5466,0.001207
3971.4785,0.001874
3972.4103,0.002271
3973.3421,0.001573
3974.2740,0.001812
3975.2058,0.002219
3976.1376,0.001429
3977.0695,0.001485
3978.0013,0.002251
3978.9331,0.002435
3979.8650,0.001987
3980.7968,0.000728
3981.7286,0.000319
3982.6605,0.000898
3983.5923,0.001590
3984.5241,0.001706
3985.4560,0.001450
3986.3878,0.001418
3987.3197,0.001750
3988.2515,0.001957
3989.1833,0.001949
3990.1152,0.001104
3991.0470,0.000665
3991.9788,0.001023
3992.9107,0.001429
3993.8425,0.001730
3994.7743,0.001359
3995.7062,0.000968
3996.6380,0.002061
3997.5698,0.003071
3998.5017,0.002457
3999.4335,0.001652
4000.3653,0.001812
