Wavenumber,Intensity
650.4205,0.384235
651.3523,0.376454
652.2841,0.368496
653.2160,0.360218
654.1478,0.357837
655.0796,0.356982
656.0115,0.358341
656.9433,0.368519
657.8751,0.365411
658.8070,0.358425
659.7388,0.364063
660.6706,0.357969
661.6025,0.349405
662.5343,0.355584
663.4661,0.349702
664.3980,0.341941
665.3298,0.346845
666.2616,0.344374
667.1935,0.339270
668.1253,0.357269
669.0571,0.377830
669.9890,0.372983
670.9208,0.366231
671.8526,0.364072
672.7845,0.358894
673.7163,0.349923
674.6481,0.346418
675.5800,0.343932
676.5118,0.338808
677.4437,0.337773
678.3755,0.343123
679.3073,0.347024
680.2392,0.337051
681.1710,0.330642
682.1028,0.334682
683.0347,0.339324
683.9665,0.337521
684.8983,0.333348
685.8302,0.327408
686.7620,0.320953
687.6938,0.325787
688.6257,0.331729
689.5575,0.329321
690.4893,0.325901
691.4212,0.319465
692.3530,0.315911
693.2848,0.320344
694.2167,0.323658
695.1485,0.318508
696.0803,0.314817
697.0122,0.315301
697.9440,0.314378
698.8758,0.310605
699.8077,0.308925
700.7395,0.308762
701.6713,0.306647
702.6032,0.306488
703.5350,0.309816
704.4669,0.309807
705.3987,0.305646
706.3305,0.302170
707.2624,0.305452
708.1942,0.308623
709.1260,0.305215
710.0579,0.300102
710.9897,0.298283
711.9215,0.298022
712.8534,0.297840
713.7852,0.295718
714.7170,0.292433
715.6489,0.291193
716.5807,0.293219
717.5125,0.293783
718.4444,0.290324
719.3762,0.284399
720.3080,0.283894
721.2399,0.284289
722.1717,0.281680
723.1035,0.281628
724.0354,0.281508
724.9672,0.278969
725.8990,0.278400
726.8309,0.278184
727.7627,0.277827
728.6945,0.273231
729.6264,0.269045
730.5582,0.272312
731.4901,0.274117
732.4219,0.269397
733.3537,0.269020
734.2856,0.271354
735.2174,0.269430
736.1492,0.266652
737.0811,0.266318
738.0129,0.263186
738.9447,0.258710
739.8766,0.258930
740.8084,0.258573
741.7402,0.254755
742.6721,0.252399
743.6039,0.251320
744.5357,0.251450
745.4676,0.251593
746.3994,0.251723
747.3312,0.250450
748.2631,0.247962
749.1949,0.245381
750.1267,0.242427
751.0586,0.241222
751.9904,0.241345
752.9222,0.239851
753.8541,0.239282
754.7859,0.239461
755.7177,0.237083
756.6496,0.234569
757.5814,0.234197
758.5132,0.233302
759.4451,0.232862
760.3769,0.232735
761.3088,0.231123
762.2406,0.229770
763.1724,0.229463
764.1043,0.225990
765.0361,0.224008
765.9679,0.224292
766.8998,0.222743
767.8316,0.220828
768.7634,0.218797
769.6953,0.217861
770.6271,0.219581
771.5589,0.218637
772.4908,0.216712
773.4226,0.215200
774.3544,0.211964
775.2863,0.209491
776.2181,0.210309
777.1499,0.210731
778.0818,0.210087
779.0136,0.208317
779.9454,0.205588
780.8773,0.203462
781.8091,0.202588
782.7409,0.201680
783.6728,0.200856
784.6046,0.199904
785.5364,0.199269
786.4683,0.198491
787.4001,0.196777
788.3320,0.195324
789.2638,0.194927
790.1956,0.194377
791.1275,0.193660
792.0593,0.191436
792.9911,0.188675
793.9230,0.187022
794.8548,0.187252
795.7866,0.186729
796.7185,0.185272
797.6503,0.183486
798.5821,0.181541
799.5140,0.180345
800.4458,0.180518
801.3776,0.181326
802.3095,0.181544
803.2413,0.180387
804.1731,0.178050
805.1050,0.175860
806.0368,0.174401
806.9686,0.173087
807.9005,0.171463
808.8323,0.170029
809.7641,0.169088
810.6960,0.167704
811.6278,0.166215
812.5596,0.164603
813.4915,0.163542
814.4233,0.162649
815.3552,0.160376
816.2870,0.158930
817.2188,0.158596
818.1507,0.157959
819.0825,0.157431
820.0143,0.155233
820.9462,0.153839
821.8780,0.153351
822.8098,0.152559
823.7417,0.151950
824.6735,0.150404
825.6053,0.148483
826.5372,0.147533
827.4690,0.147438
828.4008,0.146341
829.3327,0.145271
830.2645,0.144300
831.1963,0.142037
832.1282,0.141115
833.0600,0.140873
833.9918,0.140262
834.9237,0.139055
835.8555,0.137718
836.7873,0.136784
837.7192,0.136347
838.6510,0.135530
839.5828,0.133993
840.5147,0.133100
841.4465,0.132501
842.3784,0.131734
843.3102,0.130566
844.2420,0.129088
845.1739,0.128301
846.1057,0.127757
847.0375,0.126428
847.9694,0.125326
848.9012,0.124903
849.8330,0.124506
850.7649,0.123417
851.6967,0.122432
852.6285,0.122554
853.5604,0.122340
854.4922,0.121406
855.4240,0.120888
856.3559,0.120847
857.2877,0.120079
858.2195,0.118986
859.1514,0.118450
860.0832,0.119335
861.0150,0.119288
861.9469,0.118796
862.8787,0.119085
863.8105,0.119172
864.7424,0.119722
865.6742,0.120633
866.6060,0.121258
867.5379,0.122558
868.4697,0.124313
869.4016,0.126685
870.3334,0.129733
871.2652,0.133352
872.1971,0.137542
873.1289,0.142584
874.0607,0.147498
874.9926,0.152594
875.9244,0.157645
876.8562,0.161207
877.7881,0.162822
878.7199,0.162566
879.6517,0.159594
880.5836,0.154512
881.5154,0.148013
882.4472,0.140388
883.3791,0.132717
884.3109,0.125368
885.2427,0.118654
886.1746,0.113085
887.1064,0.108347
888.0382,0.103924
888.9701,0.099901
889.9019,0.097026
890.8337,0.094667
891.7656,0.092106
892.6974,0.089975
893.6292,0.088233
894.5611,0.086850
895.4929,0.085672
896.4247,0.084650
897.3566,0.083250
898.2884,0.081868
899.2203,0.081345
900.1521,0.080809
901.0839,0.079805
902.0158,0.078750
902.9476,0.078091
903.8794,0.077239
904.8113,0.076867
905.7431,0.076883
906.6749,0.076179
907.6068,0.074993
908.5386,0.074376
909.4704,0.073890
910.4023,0.072914
911.3341,0.071774
912.2659,0.071180
913.1978,0.071040
914.1296,0.070826
915.0614,0.070687
915.9933,0.070283
916.9251,0.069625
917.8569,0.069323
918.7888,0.069143
919.7206,0.068792
920.6524,0.068293
921.5843,0.067500
922.5161,0.066762
923.4479,0.066131
924.3798,0.065913
925.3116,0.065679
926.2435,0.065088
927.1753,0.064832
928.1071,0.064764
929.0390,0.064594
929.9708,0.064058
930.9026,0.063512
931.8345,0.063355
932.7663,0.063381
933.6981,0.062744
934.6300,0.062094
935.5618,0.062089
936.4936,0.061971
937.4255,0.061416
938.3573,0.061025
939.2891,0.060714
940.2210,0.060258
941.1528,0.059916
942.0846,0.059634
943.0165,0.059273
943.9483,0.059126
944.8801,0.059216
945.8120,0.059171
946.7438,0.058883
947.6756,0.058626
948.6075,0.058191
949.5393,0.057801
950.4711,0.057863
951.4030,0.058012
952.3348,0.057651
953.2667,0.057176
954.1985,0.056768
955.1303,0.056553
956.0622,0.056190
956.9940,0.056027
957.9258,0.055929
958.8577,0.055839
959.7895,0.055843
960.7213,0.055843
961.6532,0.055650
962.5850,0.055313
963.5168,0.055041
964.4487,0.054788
965.3805,0.054441
966.3123,0.054076
967.2442,0.054060
968.1760,0.054521
969.1078,0.054614
970.0397,0.054312
970.9715,0.054215
971.9033,0.054390
972.8352,0.054414
973.7670,0.054311
974.6988,0.053948
975.6307,0.053775
976.5625,0.053803
977.4943,0.053844
978.4262,0.053915
979.3580,0.053565
980.2899,0.053267
981.2217,0.053180
982.1535,0.053226
983.0854,0.053292
984.0172,0.053349
984.9490,0.053330
985.8809,0.053482
986.8127,0.053726
987.7445,0.053712
988.6764,0.053737
989.6082,0.053836
990.5400,0.053637
991.4719,0.053580
992.4037,0.053960
993.3355,0.054008
994.2674,0.054105
995.1992,0.054326
996.1310,0.054347
997.0629,0.054351
997.9947,0.054759
998.9265,0.055203
999.8584,0.055027
1000.7902,0.054900
1001.7220,0.055259
1002.6539,0.055593
1003.5857,0.055843
1004.5175,0.056126
1005.4494,0.056571
1006.3812,0.056941
1007.3131,0.057458
1008.2449,0.057961
1009.1767,0.058317
1010.1086,0.058811
1011.0404,0.059398
1011.9722,0.059889
1012.9041,0.060583
1013.8359,0.061418
1014.7677,0.062018
1015.6996,0.062872
1016.6314,0.064209
1017.5632,0.065521
1018.4951,0.066830
1019.4269,0.068208
1020.3587,0.069614
1021.2906,0.071348
1022.2224,0.073274
1023.1542,0.075551
1024.0861,0.077767
1025.0179,0.080116
1025.9497,0.083151
1026.8816,0.086576
1027.8134,0.090066
1028.7452,0.094021
1029.6771,0.098841
1030.6089,0.104294
1031.5407,0.110337
1032.4726,0.117274
1033.4044,0.125439
1034.3362,0.134755
1035.2681,0.145247
1036.1999,0.157166
1037.1318,0.170548
1038.0636,0.185007
1038.9954,0.199963
1039.9273,0.215154
1040.8591,0.229773
1041.7909,0.242127
1042.7228,0.251583
1043.6546,0.257326
1044.5864,0.258207
1045.5183,0.254313
1046.4501,0.246295
1047.3819,0.234707
1048.3138,0.220379
1049.2456,0.204614
1050.1774,0.188379
1051.1093,0.172242
1052.0411,0.156887
1052.9729,0.142465
1053.9048,0.129493
1054.8366,0.118306
1055.7684,0.108479
1056.7003,0.099827
1057.6321,0.092693
1058.5639,0.086967
1059.4958,0.082154
1060.4276,0.078622
1061.3594,0.076043
1062.2913,0.073839
1063.2231,0.072265
1064.1550,0.071382
1065.0868,0.070996
1066.0186,0.070761
1066.9505,0.070688
1067.8823,0.071264
1068.8141,0.072096
1069.7460,0.072921
1070.6778,0.074298
1071.6096,0.076199
1072.5415,0.078074
1073.4733,0.080171
1074.4051,0.082663
1075.3370,0.085112
1076.2688,0.087377
1077.2006,0.090317
1078.1325,0.093787
1079.0643,0.096802
1079.9961,0.099729
1080.9280,0.102715
1081.8598,0.105291
1082.7916,0.107682
1083.7235,0.109628
1084.6553,0.110675
1085.5871,0.110835
1086.5190,0.110118
1087.4508,0.108626
1088.3826,0.106428
1089.3145,0.103533
1090.2463,0.099798
1091.1782,0.095750
1092.1100,0.091623
1093.0418,0.087197
1093.9737,0.082599
1094.9055,0.078286
1095.8373,0.074419
1096.7692,0.070438
1097.7010,0.066754
1098.6328,0.063927
1099.5647,0.061366
1100.4965,0.058894
1101.4283,0.056655
1102.3602,0.054843
1103.2920,0.053533
1104.2238,0.052279
1105.1557,0.051025
1106.0875,0.050107
1107.0193,0.049224
1107.9512,0.048533
1108.8830,0.047919
1109.8148,0.047266
1110.7467,0.046658
1111.6785,0.046351
1112.6103,0.046278
1113.5422,0.045981
1114.4740,0.045610
1115.4058,0.045328
1116.3377,0.045099
1117.2695,0.044992
1118.2014,0.045017
1119.1332,0.044929
1120.0650,0.044805
1120.9969,0.044799
1121.9287,0.044699
1122.8605,0.044510
1123.7924,0.044479
1124.7242,0.044773
1125.6560,0.044765
1126.5879,0.044517
1127.5197,0.044415
1128.4515,0.044322
1129.3834,0.044103
1130.3152,0.043971
1131.2470,0.043975
1132.1789,0.044077
1133.1107,0.043666
1134.0425,0.043306
1134.9744,0.043284
1135.9062,0.043138
1136.8380,0.042850
1137.7699,0.042733
1138.7017,0.042709
1139.6335,0.042673
1140.5654,0.042575
1141.4972,0.042364
1142.4290,0.042338
1143.3609,0.042246
1144.2927,0.042076
1145.2246,0.042211
1146.1564,0.042173
1147.0882,0.041901
1148.0201,0.041863
1148.9519,0.041940
1149.8837,0.042057
1150.8156,0.042091
1151.7474,0.042012
1152.6792,0.042080
1153.6111,0.042096
1154.5429,0.041868
1155.4747,0.041879
1156.4066,0.041918
1157.3384,0.041769
1158.2702,0.041677
1159.2021,0.041487
1160.1339,0.041369
1161.0657,0.041305
1161.9976,0.041011
1162.9294,0.040670
1163.8612,0.040373
1164.7931,0.040099
1165.7249,0.040035
1166.6567,0.039951
1167.5886,0.039820
1168.5204,0.039722
1169.4522,0.039468
1170.3841,0.039201
1171.3159,0.039272
1172.2477,0.039215
1173.1796,0.039190
1174.1114,0.039102
1175.0433,0.038963
1175.9751,0.038899
1176.9069,0.038876
1177.8388,0.038923
1178.7706,0.038874
1179.7024,0.038822
1180.6343,0.038847
1181.5661,0.038902
1182.4979,0.039077
1183.4298,0.039110
1184.3616,0.038923
1185.2934,0.039047
1186.2253,0.039223
1187.1571,0.039252
1188.0889,0.039156
1189.0208,0.039026
1189.9526,0.038892
1190.8844,0.038832
1191.8163,0.038938
1192.7481,0.038978
1193.6799,0.038978
1194.6118,0.039145
1195.5436,0.039129
1196.4754,0.039076
1197.4073,0.039168
1198.3391,0.039204
1199.2709,0.039166
1200.2028,0.039161
1201.1346,0.039021
1202.0665,0.039163
1202.9983,0.039320
1203.9301,0.039330
1204.8620,0.039351
1205.7938,0.039319
1206.7256,0.039211
1207.6575,0.038966
1208.5893,0.038959
1209.5211,0.039210
1210.4530,0.039306
1211.3848,0.039257
1212.3166,0.039236
1213.2485,0.039523
1214.1803,0.039868
1215.1121,0.039673
1216.0440,0.039559
1216.9758,0.039806
1217.9076,0.039834
1218.8395,0.039826
1219.7713,0.039943
1220.7031,0.039835
1221.6350,0.039756
1222.5668,0.040020
1223.4986,0.040158
1224.4305,0.040056
1225.3623,0.040290
1226.2941,0.040525
1227.2260,0.040510
1228.1578,0.040622
1229.0897,0.040643
1230.0215,0.040661
1230.9533,0.040758
1231.8852,0.040512
1232.8170,0.040451
1233.7488,0.040794
1234.6807,0.041146
1235.6125,0.041234
1236.5443,0.041148
1237.4762,0.041131
1238.4080,0.041448
1239.3398,0.041817
1240.2717,0.041927
1241.2035,0.041866
1242.1353,0.041832
1243.0672,0.041856
1243.9990,0.041784
1244.9308,0.042000
1245.8627,0.042428
1246.7945,0.042753
1247.7263,0.042730
1248.6582,0.042736
1249.5900,0.042940
1250.5218,0.043274
1251.4537,0.043660
1252.3855,0.043780
1253.3173,0.043753
1254.2492,0.043875
1255.1810,0.044318
1256.1129,0.044766
1257.0447,0.045156
1257.9765,0.045460
1258.9084,0.045780
1259.8402,0.046031
1260.7720,0.046441
1261.7039,0.047071
1262.6357,0.047730
1263.5675,0.048084
1264.4994,0.048548
1265.4312,0.049135
1266.3630,0.049748
1267.2949,0.050197
1268.2267,0.050561
1269.1585,0.051195
1270.0904,0.051837
1271.0222,0.052382
1271.9540,0.053034
1272.8859,0.053555
1273.8177,0.053475
1274.7495,0.053242
1275.6814,0.053238
1276.6132,0.053137
1277.5450,0.052588
1278.4769,0.052158
1279.4087,0.051771
1280.3405,0.051341
1281.2724,0.051009
1282.2042,0.050707
1283.1361,0.050370
1284.0679,0.050011
1284.9997,0.049637
1285.9316,0.049299
1286.8634,0.049225
1287.7952,0.049199
1288.7271,0.049189
1289.6589,0.049282
1290.5907,0.049057
1291.5226,0.049106
1292.4544,0.049263
1293.3862,0.049321
1294.3181,0.049347
1295.2499,0.049568
1296.1817,0.049583
1297.1136,0.049387
1298.0454,0.049907
1298.9772,0.050512
1299.9091,0.050936
1300.8409,0.051299
1301.7727,0.051458
1302.7046,0.051688
1303.6364,0.051881
1304.5682,0.051893
1305.5001,0.052242
1306.4319,0.052739
1307.3637,0.053057
1308.2956,0.053131
1309.2274,0.053205
1310.1592,0.053453
1311.0911,0.053693
1312.0229,0.053766
1312.9548,0.053925
1313.8866,0.054609
1314.8184,0.055093
1315.7503,0.055129
1316.6821,0.055158
1317.6139,0.055253
1318.5458,0.055420
1319.4776,0.055633
1320.4094,0.056050
1321.3413,0.056149
1322.2731,0.056219
1323.2049,0.056158
1324.1368,0.056110
1325.0686,0.055973
1326.0004,0.055768
1326.9323,0.055863
1327.8641,0.056067
1328.7959,0.055971
1329.7278,0.055818
1330.6596,0.055676
1331.5914,0.055521
1332.5233,0.055252
1333.4551,0.055055
1334.3869,0.054686
1335.3188,0.054104
1336.2506,0.053622
1337.1824,0.053294
1338.1143,0.053069
1339.0461,0.052960
1339.9780,0.053300
1340.9098,0.053505
1341.8416,0.053146
1342.7735,0.052436
1343.7053,0.051775
1344.6371,0.051265
1345.5690,0.050792
1346.5008,0.050757
1347.4326,0.050664
1348.3645,0.050222
1349.2963,0.049961
1350.2281,0.049615
1351.1600,0.049223
1352.0918,0.049172
1353.0236,0.049306
1353.9555,0.049319
1354.8873,0.049041
1355.8191,0.048870
1356.7510,0.048878
1357.6828,0.048789
1358.6146,0.048839
1359.5465,0.048826
1360.4783,0.048460
1361.4101,0.048522
1362.3420,0.049498
1363.2738,0.050288
1364.2056,0.051102
1365.1375,0.051034
1366.0693,0.050393
1367.0012,0.050376
1367.9330,0.050854
1368.8648,0.051696
1369.7967,0.052927
1370.7285,0.053598
1371.6603,0.054069
1372.5922,0.054927
1373.5240,0.056248
1374.4558,0.058662
1375.3877,0.061180
1376.3195,0.061916
1377.2513,0.062134
1378.1832,0.062445
1379.1150,0.063273
1380.0468,0.064212
1380.9787,0.065073
1381.9105,0.065378
1382.8423,0.065601
1383.7742,0.065650
1384.7060,0.065305
1385.6378,0.064987
1386.5697,0.065077
1387.5015,0.065787
1388.4333,0.066941
1389.3652,0.066369
1390.2970,0.064625
1391.2288,0.063523
1392.1607,0.062946
1393.0925,0.061997
1394.0244,0.061355
1394.9562,0.061684
1395.8880,0.062552
1396.8199,0.062673
1397.7517,0.062334
1398.6835,0.062455
1399.6154,0.063744
1400.5472,0.064448
1401.4790,0.063336
1402.4109,0.062584
1403.3427,0.062594
1404.2745,0.062822
1405.2064,0.063683
1406.1382,0.064967
1407.0700,0.064820
1408.0019,0.064032
1408.9337,0.063996
1409.8655,0.064235
1410.7974,0.064509
1411.7292,0.064719
1412.6610,0.064758
1413.5929,0.064397
1414.5247,0.063817
1415.4565,0.063508
1416.3884,0.063282
1417.3202,0.063073
1418.2520,0.063391
1419.1839,0.064237
1420.1157,0.066131
1421.0476,0.066559
1421.9794,0.064202
1422.9112,0.062773
1423.8431,0.062852
1424.7749,0.063690
1425.7067,0.063174
1426.6386,0.061658
1427.5704,0.060787
1428.5022,0.060245
1429.4341,0.059406
1430.3659,0.059492
1431.2977,0.059668
1432.2296,0.058591
1433.1614,0.057525
1434.0932,0.057048
1435.0251,0.056480
1435.9569,0.055895
1436.8887,0.056517
1437.8206,0.058436
1438.7524,0.057875
1439.6842,0.056336
1440.6161,0.055945
1441.5479,0.055943
1442.4797,0.055724
1443.4116,0.055538
1444.3434,0.056139
1445.2752,0.056814
1446.2071,0.057272
1447.1389,0.057812
1448.0707,0.059056
1449.0026,0.061347
1449.9344,0.062436
1450.8663,0.061723
1451.7981,0.061146
1452.7299,0.061076
1453.6618,0.061023
1454.5936,0.060366
1455.5254,0.059501
1456.4573,0.059330
1457.3891,0.060361
1458.3209,0.061084
1459.2528,0.059345
1460.1846,0.056614
1461.1164,0.054438
1462.0483,0.052384
1462.9801,0.050681
1463.9119,0.049362
1464.8438,0.048195
1465.7756,0.048338
1466.7074,0.047955
1467.6393,0.046305
1468.5711,0.045458
1469.5029,0.044739
1470.4348,0.043785
1471.3666,0.043100
1472.2984,0.042993
1473.2303,0.044455
1474.1621,0.045755
1475.0939,0.045911
1476.0258,0.045279
1476.9576,0.044914
1477.8895,0.045509
1478.8213,0.045295
1479.7531,0.044957
1480.6850,0.044764
1481.6168,0.044894
1482.5486,0.045124
1483.4805,0.044952
1484.4123,0.044808
1485.3441,0.044564
1486.2760,0.044145
1487.2078,0.043875
1488.1396,0.043999
1489.0715,0.044232
1490.0033,0.044152
1490.9351,0.044042
1491.8670,0.043670
1492.7988,0.042743
1493.7306,0.041451
1494.6625,0.040178
1495.5943,0.039310
1496.5261,0.039580
1497.4580,0.041166
1498.3898,0.041188
1499.3216,0.040363
1500.2535,0.040738
1501.1853,0.040374
1502.1171,0.039366
1503.0490,0.038908
1503.9808,0.038220
1504.9127,0.037118
1505.8445,0.036834
1506.7763,0.038488
1507.7082,0.041836
1508.6400,0.042524
1509.5718,0.041480
1510.5037,0.040336
1511.4355,0.039822
1512.3673,0.039431
1513.2992,0.039208
1514.2310,0.039071
1515.1628,0.038281
1516.0947,0.038207
1517.0265,0.039123
1517.9583,0.039969
1518.8902,0.040216
1519.8220,0.038865
1520.7538,0.037993
1521.6857,0.039599
1522.6175,0.041295
1523.5493,0.040376
1524.4812,0.039347
1525.4130,0.038915
1526.3448,0.039554
1527.2767,0.040150
1528.2085,0.040212
1529.1403,0.040331
1530.0722,0.040061
1531.0040,0.039463
1531.9359,0.039451
1532.8677,0.039926
1533.7995,0.040627
1534.7314,0.041134
1535.6632,0.040494
1536.5950,0.039611
1537.5269,0.038935
1538.4587,0.038276
1539.3905,0.037915
1540.3224,0.040014
1541.2542,0.043024
1542.1860,0.042154
1543.1179,0.041867
1544.0497,0.042226
1544.9815,0.042401
1545.9134,0.043073
1546.8452,0.043262
1547.7770,0.042440
1548.7089,0.041824
1549.6407,0.041471
1550.5725,0.042187
1551.5044,0.043539
1552.4362,0.042809
1553.3680,0.041635
1554.2999,0.041668
1555.2317,0.042516
1556.1635,0.042944
1557.0954,0.041888
1558.0272,0.041406
1558.9591,0.043629
1559.8909,0.049658
1560.8227,0.050697
1561.7546,0.048502
1562.6864,0.046022
1563.6182,0.045009
1564.5501,0.045218
1565.4819,0.045629
1566.4137,0.046166
1567.3456,0.046376
1568.2774,0.046396
1569.2092,0.046927
1570.1411,0.048708
1571.0729,0.050657
1572.0047,0.049738
1572.9366,0.048330
1573.8684,0.048337
1574.8002,0.048879
1575.7321,0.049265
1576.6639,0.050944
1577.5957,0.054552
1578.5276,0.055495
1579.4594,0.054387
1580.3912,0.053482
1581.3231,0.053364
1582.2549,0.053874
1583.1867,0.054615
1584.1186,0.055555
1585.0504,0.056099
1585.9822,0.056505
1586.9141,0.057390
1587.8459,0.058429
1588.7778,0.059136
1589.7096,0.059820
1590.6414,0.060233
1591.5733,0.061097
1592.5051,0.062626
1593.4369,0.063766
1594.3688,0.064412
1595.3006,0.065816
1596.2324,0.067521
1597.1643,0.068835
1598.0961,0.069628
1599.0279,0.070103
1599.9598,0.070972
1600.8916,0.072152
1601.8234,0.073663
1602.7553,0.075356
1603.6871,0.077160
1604.6189,0.078665
1605.5508,0.079475
1606.4826,0.080466
1607.4144,0.082423
1608.3463,0.084721
1609.2781,0.086561
1610.2099,0.088591
1611.1418,0.090629
1612.0736,0.091523
1613.0054,0.092000
1613.9373,0.093206
1614.8691,0.095163
1615.8010,0.097180
1616.7328,0.100812
1617.6646,0.108636
1618.5965,0.112757
1619.5283,0.110215
1620.4601,0.109092
1621.3920,0.110206
1622.3238,0.112036
1623.2556,0.114334
1624.1875,0.118605
1625.1193,0.123500
1626.0511,0.123862
1626.9830,0.123586
1627.9148,0.125896
1628.8466,0.129998
1629.7785,0.132550
1630.7103,0.131768
1631.6421,0.129875
1632.5740,0.129121
1633.5058,0.129341
1634.4376,0.130400
1635.3695,0.133684
1636.3013,0.141186
1637.2331,0.146099
1638.1650,0.144273
1639.0968,0.142806
1640.0286,0.141297
1640.9605,0.139428
1641.8923,0.137603
1642.8242,0.136126
1643.7560,0.135369
1644.6878,0.134649
1645.6197,0.134507
1646.5515,0.136231
1647.4833,0.138966
1648.4152,0.138468
1649.3470,0.135838
1650.2788,0.132941
1651.2107,0.130042
1652.1425,0.127704
1653.0743,0.128894
1654.0062,0.136135
1654.9380,0.139707
1655.8698,0.134014
1656.8017,0.128117
1657.7335,0.124126
1658.6653,0.121619
1659.5972,0.120013
1660.5290,0.118596
1661.4608,0.116905
1662.3927,0.115316
1663.3245,0.114337
1664.2563,0.113529
1665.1882,0.111187
1666.1200,0.108999
1667.0518,0.107125
1667.9837,0.104856
1668.9155,0.103032
1669.8474,0.102646
1670.7792,0.102637
1671.7110,0.100467
1672.6429,0.098063
1673.5747,0.095634
1674.5065,0.093382
1675.4384,0.091668
1676.3702,0.091159
1677.3020,0.090433
1678.2339,0.087687
1679.1657,0.085169
1680.0975,0.083088
1681.0294,0.081464
1681.9612,0.079746
1682.8930,0.077326
1683.8249,0.075393
1684.7567,0.075770
1685.6885,0.077241
1686.6204,0.074905
1687.5522,0.071535
1688.4840,0.069395
1689.4159,0.068056
1690.3477,0.066705
1691.2795,0.064941
1692.2114,0.062936
1693.1432,0.061089
1694.0750,0.059685
1695.0069,0.058339
1695.9387,0.056823
1696.8706,0.055910
1697.8024,0.055332
1698.7342,0.053941
1699.6661,0.052265
1700.5979,0.051163
1701.5297,0.052077
1702.4616,0.050888
1703.3934,0.047975
1704.3252,0.046365
1705.2571,0.045773
1706.1889,0.045314
1707.1207,0.044678
1708.0526,0.043907
1708.9844,0.042210
1709.9162,0.040601
1710.8481,0.039877
1711.7799,0.039048
1712.7117,0.038181
1713.6436,0.037805
1714.5754,0.037074
1715.5072,0.035589
1716.4391,0.034696
1717.3709,0.034980
1718.3027,0.034968
1719.2346,0.034309
1720.1664,0.033220
1721.0982,0.032235
1722.0301,0.031273
1722.9619,0.030346
1723.8937,0.029713
1724.8256,0.029561
1725.7574,0.029188
1726.6893,0.028225
1727.6211,0.027497
1728.5529,0.027421
1729.4848,0.027231
1730.4166,0.026562
1731.3484,0.026094
1732.2803,0.025576
1733.2121,0.024998
1734.1439,0.025003
1735.0758,0.025781
1736.0076,0.025534
1736.9394,0.024259
1737.8713,0.023463
1738.8031,0.022814
1739.7349,0.022416
1740.6668,0.022500
1741.5986,0.022311
1742.5304,0.022106
1743.4623,0.022041
1744.3941,0.021900
1745.3259,0.021620
1746.2578,0.021120
1747.1896,0.020378
1748.1214,0.020161
1749.0533,0.020292
1749.9851,0.019811
1750.9169,0.019262
1751.8488,0.019083
1752.7806,0.019659
1753.7125,0.019682
1754.6443,0.018795
1755.5761,0.018479
1756.5080,0.018383
1757.4398,0.017869
1758.3716,0.017611
1759.3035,0.017675
1760.2353,0.017747
1761.1671,0.017472
1762.0990,0.016929
1763.0308,0.016774
1763.9626,0.016857
1764.8945,0.016152
1765.8263,0.015445
1766.7581,0.015924
1767.6900,0.016328
1768.6218,0.015628
1769.5536,0.014902
1770.4855,0.014822
1771.4173,0.014672
1772.3491,0.014731
1773.2810,0.015312
1774.2128,0.015336
1775.1446,0.014961
1776.0765,0.014512
1777.0083,0.014495
1777.9401,0.015088
1778.8720,0.014686
1779.8038,0.013827
1780.7357,0.014125
1781.6675,0.014476
1782.5993,0.014067
1783.5312,0.013686
1784.4630,0.013357
1785.3948,0.013267
1786.3267,0.013468
1787.2585,0.013435
1788.1903,0.013381
1789.1222,0.013107
1790.0540,0.012512
1790.9858,0.011920
1791.9177,0.011657
1792.8495,0.012151
1793.7813,0.012535
1794.7132,0.012474
1795.6450,0.011931
1796.5768,0.011515
1797.5087,0.011869
1798.4405,0.011877
1799.3723,0.011661
1800.3042,0.011837
1801.2360,0.011980
1802.1678,0.011977
1803.0997,0.011916
1804.0315,0.011858
1804.9633,0.011950
1805.8952,0.011799
1806.8270,0.011312
1807.7589,0.011398
1808.6907,0.011679
1809.6225,0.011764
1810.5544,0.011769
1811.4862,0.011569
1812.4180,0.011634
1813.3499,0.011851
1814.2817,0.011965
1815.2135,0.011610
1816.1454,0.010971
1817.0772,0.010778
1818.0090,0.010384
1818.9409,0.010003
1819.8727,0.010759
1820.8045,0.011181
1821.7364,0.010775
1822.6682,0.010556
1823.6000,0.009878
1824.5319,0.009229
1825.4637,0.009196
1826.3955,0.009615
1827.3274,0.010128
1828.2592,0.010271
1829.1910,0.010399
1830.1229,0.010646
1831.0547,0.010192
1831.9865,0.009161
1832.9184,0.009239
1833.8502,0.009908
1834.7821,0.010058
1835.7139,0.009858
1836.6457,0.010521
1837.5776,0.010510
1838.5094,0.009384
1839.4412,0.009551
1840.3731,0.010307
1841.3049,0.009698
1842.2367,0.009135
1843.1686,0.008833
1844.1004,0.008170
1845.0322,0.008803
1845.9641,0.009371
1846.8959,0.009202
1847.8277,0.009743
1848.7596,0.009793
1849.6914,0.009637
1850.6232,0.009174
1851.5551,0.008815
1852.4869,0.009162
1853.4187,0.008662
1854.3506,0.007870
1855.2824,0.008218
1856.2142,0.008690
1857.1461,0.008706
1858.0779,0.008989
1859.0097,0.009416
1859.9416,0.009641
1860.8734,0.009788
1861.8052,0.009511
1862.7371,0.009380
1863.6689,0.009509
1864.6008,0.009077
1865.5326,0.008405
1866.4644,0.008447
1867.3963,0.008581
1868.3281,0.007880
1869.2599,0.008007
1870.1918,0.009249
1871.1236,0.009484
1872.0554,0.009186
1872.9873,0.008672
1873.9191,0.007931
1874.8509,0.008101
1875.7828,0.009063
1876.7146,0.009720
1877.6464,0.009407
1878.5783,0.008356
1879.5101,0.007658
1880.4419,0.007798
1881.3738,0.009095
1882.3056,0.009530
1883.2374,0.008782
1884.1693,0.008596
1885.1011,0.008317
1886.0329,0.008246
1886.9648,0.008897
1887.8966,0.009227
1888.8284,0.009009
1889.7603,0.008536
1890.6921,0.007487
1891.6240,0.006890
1892.5558,0.007373
1893.4876,0.008440
1894.4195,0.008982
1895.3513,0.008313
1896.2831,0.008315
1897.2150,0.008884
1898.1468,0.009024
1899.0786,0.009641
1900.0105,0.009969
1900.9423,0.008614
1901.8741,0.007602
1902.8060,0.008253
1903.7378,0.009579
1904.6696,0.009743
1905.6015,0.008240
1906.5333,0.007342
1907.4651,0.008788
1908.3970,0.010182
1909.3288,0.009187
1910.2606,0.008657
1911.1925,0.008354
1912.1243,0.008318
1913.0561,0.008702
1913.9880,0.009466
1914.9198,0.010286
1915.8516,0.010473
1916.7835,0.009521
1917.7153,0.008030
1918.6472,0.008290
1919.5790,0.009622
1920.5108,0.008636
1921.4427,0.008246
1922.3745,0.009814
1923.3063,0.010621
1924.2382,0.010455
1925.1700,0.010226
1926.1018,0.008959
1927.0337,0.008329
1927.9655,0.009423
1928.8973,0.009304
1929.8292,0.007761
1930.7610,0.006340
1931.6928,0.005848
1932.6247,0.007105
1933.5565,0.007138
1934.4883,0.005972
1935.4202,0.006316
1936.3520,0.007515
1937.2838,0.007814
1938.2157,0.006534
1939.1475,0.005609
1940.0793,0.007116
1941.0112,0.008263
1941.9430,0.009466
1942.8748,0.010501
1943.8067,0.008574
1944.7385,0.007189
1945.6704,0.008425
1946.6022,0.007799
1947.5340,0.006096
1948.4659,0.005602
1949.3977,0.005802
1950.3295,0.007601
1951.2614,0.008284
1952.1932,0.006647
1953.1250,0.005213
1954.0569,0.005251
1954.9887,0.005564
1955.9205,0.005831
1956.8524,0.005612
1957.7842,0.006243
1958.7160,0.005006
1959.6479,0.003335
1960.5797,0.004341
1961.5115,0.005475
1962.4434,0.004332
1963.3752,0.003192
1964.3070,0.002447
1965.2389,0.003154
1966.1707,0.005686
1967.1025,0.006671
1968.0344,0.005179
1968.9662,0.004125
1969.8980,0.005737
1970.8299,0.007834
1971.7617,0.006166
1972.6936,0.002980
1973.6254,0.002071
1974.5572,0.002902
1975.4891,0.003838
1976.4209,0.000377
1977.3527,-0.000504
1978.2846,0.004403
1979.2164,0.006189
1980.1482,0.005949
1981.0801,0.004686
1982.0119,0.002306
1982.9437,0.003594
1983.8756,0.004982
1984.8074,0.004897
1985.7392,0.004005
1986.6711,0.006380
1987.6029,0.007887
1988.5347,0.006782
1989.4666,0.007672
1990.3984,0.006756
1991.3302,0.003616
1992.2621,0.003058
1993.1939,0.003041
1994.1257,0.001894
1995.0576,0.004678
1995.9894,0.007812
1996.9212,0.007280
1997.8531,0.006341
1998.7849,0.005086
1999.7167,0.004531
2000.6486,0.007339
2001.5804,0.007779
2002.5123,0.006348
2003.4441,0.005728
2004.3759,0.006364
2005.3078,0.006127
2006.2396,0.005900
2007.1714,0.006028
2008.1033,0.004079
2009.0351,0.002982
2009.9669,0.003364
2010.8988,0.003155
2011.8306,0.005464
2012.7624,0.006618
2013.6943,0.005879
2014.6261,0.006898
2015.5579,0.007894
2016.4898,0.005899
2017.4216,0.005731
2018.3534,0.006197
2019.2853,0.005324
2020.2171,0.003591
2021.1489,0.004215
2022.0808,0.005106
2023.0126,0.002230
2023.9444,-0.000291
2024.8763,0.000489
2025.8081,0.003642
2026.7399,0.006670
2027.6718,0.007756
2028.6036,0.005053
2029.5355,0.004280
2030.4673,0.004628
2031.3991,0.004977
2032.3310,0.004681
2033.2628,0.004420
2034.1946,0.004983
2035.1265,0.003890
2036.0583,0.004608
2036.9901,0.006540
2037.9220,0.006480
2038.8538,0.007218
2039.7856,0.006875
2040.7175,0.004525
2041.6493,0.004760
2042.5811,0.004768
2043.5130,0.005570
2044.4448,0.007072
2045.3766,0.005752
2046.3085,0.005429
2047.2403,0.007835
2048.1721,0.009102
2049.1040,0.009327
2050.0358,0.008315
2050.9676,0.008706
2051.8995,0.008654
2052.8313,0.008392
2053.7631,0.009709
2054.6950,0.010525
2055.6268,0.011330
2056.5587,0.011707
2057.4905,0.010045
2058.4223,0.007353
2059.3542,0.007661
2060.2860,0.009041
2061.2178,0.009724
2062.1497,0.010715
2063.0815,0.009550
2064.0133,0.007961
2064.9452,0.009537
2065.8770,0.011377
2066.8088,0.011640
2067.7407,0.010942
2068.6725,0.010573
2069.6043,0.010521
2070.5362,0.010673
2071.4680,0.010708
2072.3998,0.011583
2073.3317,0.012717
2074.2635,0.012340
2075.1953,0.011521
2076.1272,0.011749
2077.0590,0.012889
2077.9908,0.013291
2078.9227,0.012170
2079.8545,0.010957
2080.7863,0.010748
2081.7182,0.012238
2082.6500,0.012716
2083.5819,0.010865
2084.5137,0.011660
2085.4455,0.012773
2086.3774,0.012395
2087.3092,0.012144
2088.2410,0.012206
2089.1729,0.012740
2090.1047,0.011944
2091.0365,0.011979
2091.9684,0.012136
2092.9002,0.011625
2093.8320,0.011993
2094.7639,0.011608
2095.6957,0.012481
2096.6275,0.012769
2097.5594,0.012346
2098.4912,0.012859
2099.4230,0.010759
2100.3549,0.009238
2101.2867,0.009972
2102.2185,0.010078
2103.1504,0.010010
2104.0822,0.011199
2105.0140,0.012998
2105.9459,0.013942
2106.8777,0.014125
2107.8095,0.012828
2108.7414,0.012829
2109.6732,0.013704
2110.6051,0.013901
2111.5369,0.014060
2112.4687,0.013310
2113.4006,0.011943
2114.3324,0.011635
2115.2642,0.011666
2116.1961,0.012128
2117.1279,0.012430
2118.0597,0.013174
2118.9916,0.014875
2119.9234,0.014739
2120.8552,0.013364
2121.7871,0.011900
2122.7189,0.013045
2123.6507,0.015014
2124.5826,0.015266
2125.5144,0.014472
2126.4462,0.013579
2127.3781,0.013243
2128.3099,0.014444
2129.2417,0.014431
2130.1736,0.013848
2131.1054,0.012957
2132.0372,0.011663
2132.9691,0.010132
2133.9009,0.009467
2134.8327,0.011265
2135.7646,0.011827
2136.6964,0.011832
2137.6282,0.011325
2138.5601,0.010801
2139.4919,0.011017
2140.4238,0.011072
2141.3556,0.012346
2142.2874,0.011774
2143.2193,0.011491
2144.1511,0.009604
2145.0829,0.006592
2146.0148,0.007343
2146.9466,0.009146
2147.8784,0.009452
2148.8103,0.011398
2149.7421,0.012085
2150.6739,0.009190
2151.6058,0.007468
2152.5376,0.008366
2153.4694,0.008514
2154.4013,0.010025
2155.3331,0.010259
2156.2649,0.009052
2157.1968,0.006698
2158.1286,0.004258
2159.0604,0.005758
2159.9923,0.006140
2160.9241,0.003247
2161.8559,0.003215
2162.7878,0.002874
2163.7196,0.003178
2164.6514,0.004080
2165.5833,0.004671
2166.5151,0.004718
2167.4470,0.005105
2168.3788,0.004984
2169.3106,0.008069
2170.2425,0.008713
2171.1743,0.005436
2172.1061,0.002271
2173.0380,0.004626
2173.9698,0.009276
2174.9016,0.006959
2175.8335,0.007877
2176.7653,0.010155
2177.6971,0.009080
2178.6290,0.008750
2179.5608,0.006292
2180.4926,0.005381
2181.4245,0.008529
2182.3563,0.010199
2183.2881,0.008370
2184.2200,0.006558
2185.1518,0.007400
2186.0836,0.008043
2187.0155,0.006272
2187.9473,0.005561
2188.8791,0.005693
2189.8110,0.006984
2190.7428,0.005978
2191.6746,0.006085
2192.6065,0.006607
2193.5383,0.006108
2194.4702,0.007976
2195.4020,0.008553
2196.3338,0.008450
2197.2657,0.007150
2198.1975,0.008776
2199.1293,0.008920
2200.0612,0.004748
2200.9930,0.003992
2201.9248,0.005175
2202.8567,0.006606
2203.7885,0.009303
2204.7203,0.008753
2205.6522,0.007089
2206.5840,0.006527
2207.5158,0.005390
2208.4477,0.006740
2209.3795,0.008575
2210.3113,0.009921
2211.2432,0.009439
2212.1750,0.007525
2213.1068,0.008723
2214.0387,0.009582
2214.9705,0.008918
2215.9023,0.007969
2216.8342,0.008178
2217.7660,0.009377
2218.6978,0.009443
2219.6297,0.008720
2220.5615,0.008530
2221.4934,0.006244
2222.4252,0.005511
2223.3570,0.007825
2224.2889,0.008366
2225.2207,0.009442
2226.1525,0.009027
2227.0844,0.006810
2228.0162,0.006644
2228.9480,0.010490
2229.8799,0.011389
2230.8117,0.009241
2231.7435,0.008126
2232.6754,0.008944
2233.6072,0.010834
2234.5390,0.010839
2235.4709,0.010597
2236.4027,0.009184
2237.3345,0.006288
2238.2664,0.005953
2239.1982,0.007194
2240.1300,0.008236
2241.0619,0.007652
2241.9937,0.008998
2242.9255,0.009321
2243.8574,0.007454
2244.7892,0.007627
2245.7210,0.006742
2246.6529,0.005875
2247.5847,0.008011
2248.5166,0.009567
2249.4484,0.008669
2250.3802,0.005920
2251.3121,0.006513
2252.2439,0.008846
2253.1757,0.008900
2254.1076,0.007707
2255.0394,0.008109
2255.9712,0.009404
2256.9031,0.009093
2257.8349,0.008828
2258.7667,0.009052
2259.6986,0.008769
2260.6304,0.008520
2261.5622,0.009088
2262.4941,0.009288
2263.4259,0.009361
2264.3577,0.008635
2265.2896,0.007197
2266.2214,0.008798
2267.1532,0.009638
2268.0851,0.008698
2269.0169,0.008083
2269.9487,0.008310
2270.8806,0.008387
2271.8124,0.008100
2272.7442,0.007582
2273.6761,0.007238
2274.6079,0.008519
2275.5397,0.009388
2276.4716,0.008834
2277.4034,0.008773
2278.3353,0.008332
2279.2671,0.008547
2280.1989,0.008537
2281.1308,0.008394
2282.0626,0.009160
2282.9944,0.008626
2283.9263,0.008432
2284.8581,0.008428
2285.7899,0.008446
2286.7218,0.008649
2287.6536,0.009183
2288.5854,0.009811
2289.5173,0.010603
2290.4491,0.010340
2291.3809,0.010170
2292.3128,0.009512
2293.2446,0.009458
2294.1764,0.010131
2295.1083,0.009841
2296.0401,0.008857
2296.9719,0.008941
2297.9038,0.009607
2298.8356,0.009659
2299.7674,0.009055
2300.6993,0.008679
2301.6311,0.008006
2302.5629,0.007691
2303.4948,0.008272
2304.4266,0.008327
2305.3585,0.008651
2306.2903,0.009283
2307.2221,0.009335
2308.1540,0.009169
2309.0858,0.008838
2310.0176,0.008143
2310.9495,0.008413
2311.8813,0.008370
2312.8131,0.008652
2313.7450,0.008769
2314.6768,0.008562
2315.6086,0.008498
2316.5405,0.008770
2317.4723,0.008743
2318.4041,0.007897
2319.3360,0.007948
2320.2678,0.008387
2321.1996,0.008230
2322.1315,0.008295
2323.0633,0.008516
2323.9951,0.008528
2324.9270,0.008694
2325.8588,0.008813
2326.7906,0.008672
2327.7225,0.008198
2328.6543,0.007667
2329.5861,0.007930
2330.5180,0.008275
2331.4498,0.008759
2332.3817,0.008413
2333.3135,0.008116
2334.2453,0.007925
2335.1772,0.007695
2336.1090,0.007787
2337.0408,0.008103
2337.9727,0.008786
2338.9045,0.007729
2339.8363,0.007363
2340.7682,0.007278
2341.7000,0.007515
2342.6318,0.007941
2343.5637,0.007734
2344.4955,0.007519
2345.4273,0.007904
2346.3592,0.008268
2347.2910,0.008671
2348.2228,0.008752
2349.1547,0.008164
2350.0865,0.007386
2351.0183,0.007481
2351.9502,0.007617
2352.8820,0.006603
2353.8138,0.007077
2354.7457,0.008382
2355.6775,0.008460
2356.6093,0.007614
2357.5412,0.007294
2358.4730,0.007931
2359.4049,0.008375
2360.3367,0.008594
2361.2685,0.007929
2362.2004,0.007439
2363.1322,0.007734
2364.0640,0.006721
2364.9959,0.004967
2365.9277,0.005206
2366.8595,0.007269
2367.7914,0.007424
2368.7232,0.006702
2369.6550,0.008257
2370.5869,0.009028
2371.5187,0.007987
2372.4505,0.007457
2373.3824,0.007396
2374.3142,0.006567
2375.2460,0.006201
2376.1779,0.006964
2377.1097,0.006947
2378.0415,0.006196
2378.9734,0.006820
2379.9052,0.007590
2380.8370,0.007705
2381.7689,0.007473
2382.7007,0.006993
2383.6325,0.006898
2384.5644,0.006781
2385.4962,0.006642
2386.4281,0.006416
2387.3599,0.006252
2388.2917,0.007137
2389.2236,0.006753
2390.1554,0.005884
2391.0872,0.006325
2392.0191,0.006599
2392.9509,0.006430
2393.8827,0.006237
2394.8146,0.006243
2395.7464,0.006419
2396.6782,0.006587
2397.6101,0.006880
2398.5419,0.006648
2399.4737,0.005919
2400.4056,0.006093
2401.3374,0.006252
2402.2692,0.006224
2403.2011,0.005947
2404.1329,0.005829
2405.0647,0.005918
2405.9966,0.006229
2406.9284,0.006716
2407.8602,0.006671
2408.7921,0.005735
2409.7239,0.005040
2410.6557,0.005938
2411.5876,0.007108
2412.5194,0.007690
2413.4512,0.007700
2414.3831,0.007376
2415.3149,0.007093
2416.2468,0.006857
2417.1786,0.006021
2418.1104,0.005462
2419.0423,0.005672
2419.9741,0.006346
2420.9059,0.006670
2421.8378,0.006660
2422.7696,0.005532
2423.7014,0.004519
2424.6333,0.005332
2425.5651,0.006462
2426.4969,0.005909
2427.4288,0.005586
2428.3606,0.005837
2429.2924,0.005251
2430.2243,0.004842
2431.1561,0.005283
2432.0879,0.005972
2433.0198,0.005199
2433.9516,0.004853
2434.8834,0.005938
2435.8153,0.005869
2436.7471,0.004689
2437.6789,0.004583
2438.6108,0.004683
2439.5426,0.004703
2440.4744,0.005715
2441.4063,0.006592
2442.3381,0.006373
2443.2700,0.005418
2444.2018,0.005398
2445.1336,0.006010
2446.0655,0.005193
2446.9973,0.004806
2447.9291,0.005081
2448.8610,0.005171
2449.7928,0.004968
2450.7246,0.004865
2451.6565,0.004586
2452.5883,0.004702
2453.5201,0.005396
2454.4520,0.005895
2455.3838,0.005823
2456.3156,0.005547
2457.2475,0.004957
2458.1793,0.004361
2459.1111,0.004746
2460.0430,0.005378
2460.9748,0.005266
2461.9066,0.004891
2462.8385,0.003889
2463.7703,0.004597
2464.7021,0.005096
2465.6340,0.005041
2466.5658,0.005316
2467.4976,0.005092
2468.4295,0.005149
2469.3613,0.004823
2470.2932,0.004619
2471.2250,0.005067
2472.1568,0.004693
2473.0887,0.004304
2474.0205,0.005044
2474.9523,0.005655
2475.8842,0.005550
2476.8160,0.005690
2477.7478,0.005896
2478.6797,0.006321
2479.6115,0.005800
2480.5433,0.005150
2481.4752,0.004767
2482.4070,0.004561
2483.3388,0.004450
2484.2707,0.004245
2485.2025,0.004762
2486.1343,0.005970
2487.0662,0.006065
2487.9980,0.005491
2488.9298,0.005762
2489.8617,0.005984
2490.7935,0.005874
2491.7253,0.005090
2492.6572,0.004298
2493.5890,0.004103
2494.5208,0.005165
2495.4527,0.004840
2496.3845,0.004616
2497.3164,0.004986
2498.2482,0.004868
2499.1800,0.004051
2500.1119,0.004373
2501.0437,0.005496
2501.9755,0.006158
2502.9074,0.005750
2503.8392,0.004966
2504.7710,0.004624
2505.7029,0.005013
2506.6347,0.004782
2507.5665,0.004309
2508.4984,0.004586
2509.4302,0.005532
2510.3620,0.006289
2511.2939,0.006151
2512.2257,0.005519
2513.1575,0.004996
2514.0894,0.004759
2515.0212,0.005232
2515.9530,0.005610
2516.8849,0.005600
2517.8167,0.005632
2518.7485,0.005480
2519.6804,0.005361
2520.6122,0.005159
2521.5440,0.004529
2522.4759,0.004458
2523.4077,0.005215
2524.3396,0.005859
2525.2714,0.005171
2526.2032,0.004463
2527.1351,0.004836
2528.0669,0.005364
2528.9987,0.005066
2529.9306,0.003879
2530.8624,0.003866
2531.7942,0.005259
2532.7261,0.005668
2533.6579,0.004653
2534.5897,0.003642
2535.5216,0.003497
2536.4534,0.004630
2537.3852,0.005836
2538.3171,0.005249
2539.2489,0.003573
2540.1807,0.003608
2541.1126,0.004720
2542.0444,0.005158
2542.9762,0.005454
2543.9081,0.006265
2544.8399,0.006140
2545.7717,0.004795
2546.7036,0.003764
2547.6354,0.004441
2548.5672,0.005127
2549.4991,0.005325
2550.4309,0.005192
2551.3627,0.005044
2552.2946,0.005442
2553.2264,0.005401
2554.1583,0.004238
2555.0901,0.003612
2556.0219,0.004214
2556.9538,0.004486
2557.8856,0.004439
2558.8174,0.003930
2559.7493,0.003819
2560.6811,0.004516
2561.6129,0.004925
2562.5448,0.005082
2563.4766,0.005324
2564.4084,0.004525
2565.3403,0.003952
2566.2721,0.004412
2567.2039,0.004978
2568.1358,0.004287
2569.0676,0.003754
2569.9994,0.003543
2570.9313,0.004358
2571.8631,0.004555
2572.7949,0.004026
2573.7268,0.004013
2574.6586,0.003586
2575.5904,0.003656
2576.5223,0.004123
2577.4541,0.004274
2578.3859,0.004194
2579.3178,0.005126
2580.2496,0.005249
2581.1815,0.004180
2582.1133,0.004093
2583.0451,0.004941
2583.9770,0.004772
2584.9088,0.003766
2585.8406,0.004657
2586.7725,0.005110
2587.7043,0.004454
2588.6361,0.004731
2589.5680,0.005068
2590.4998,0.004487
2591.4316,0.003885
2592.3635,0.004585
2593.2953,0.004354
2594.2271,0.004046
2595.1590,0.004515
2596.0908,0.004809
2597.0226,0.004878
2597.9545,0.004963
2598.8863,0.005172
2599.8181,0.004617
2600.7500,0.004003
2601.6818,0.004110
2602.6136,0.004483
2603.5455,0.004452
2604.4773,0.004730
2605.4091,0.005167
2606.3410,0.005708
2607.2728,0.005874
2608.2047,0.005085
2609.1365,0.004758
2610.0683,0.005432
2611.0002,0.005624
2611.9320,0.005101
2612.8638,0.005190
2613.7957,0.005164
2614.7275,0.005271
2615.6593,0.005182
2616.5912,0.004169
2617.5230,0.004478
2618.4548,0.005016
2619.3867,0.004988
2620.3185,0.005004
2621.2503,0.005194
2622.1822,0.005062
2623.1140,0.004638
2624.0458,0.004480
2624.9777,0.005401
2625.9095,0.006052
2626.8413,0.005800
2627.7732,0.005653
2628.7050,0.005524
2629.6368,0.005380
2630.5687,0.005366
2631.5005,0.005414
2632.4323,0.005892
2633.3642,0.005819
2634.2960,0.005690
2635.2279,0.005985
2636.1597,0.005720
2637.0915,0.005628
2638.0234,0.005861
2638.9552,0.005820
2639.8870,0.005713
2640.8189,0.005985
2641.7507,0.006141
2642.6825,0.006099
2643.6144,0.005781
2644.5462,0.006165
2645.4780,0.006235
2646.4099,0.005710
2647.3417,0.005741
2648.2735,0.005770
2649.2054,0.005524
2650.1372,0.005771
2651.0690,0.006333
2652.0009,0.006426
2652.9327,0.006123
2653.8645,0.005970
2654.7964,0.006301
2655.7282,0.006464
2656.6600,0.006439
2657.5919,0.006863
2658.5237,0.007262
2659.4555,0.007408
2660.3874,0.007182
2661.3192,0.006621
2662.2511,0.005936
2663.1829,0.006289
2664.1147,0.006605
2665.0466,0.006368
2665.9784,0.006496
2666.9102,0.006630
2667.8421,0.006532
2668.7739,0.006507
2669.7057,0.006554
2670.6376,0.006690
2671.5694,0.006988
2672.5012,0.006816
2673.4331,0.006806
2674.3649,0.007216
2675.2967,0.007178
2676.2286,0.007279
2677.1604,0.007390
2678.0922,0.007075
2679.0241,0.006998
2679.9559,0.007042
2680.8877,0.006918
2681.8196,0.007249
2682.7514,0.007444
2683.6832,0.007356
2684.6151,0.007439
2685.5469,0.007379
2686.4787,0.007515
2687.4106,0.007808
2688.3424,0.007482
2689.2742,0.007495
2690.2061,0.007757
2691.1379,0.007354
2692.0698,0.007026
2693.0016,0.007368
2693.9334,0.007502
2694.8653,0.007828
2695.7971,0.008438
2696.7289,0.008281
2697.6608,0.007917
2698.5926,0.008068
2699.5244,0.008097
2700.4563,0.008367
2701.3881,0.008654
2702.3199,0.008738
2703.2518,0.008723
2704.1836,0.008559
2705.1154,0.008486
2706.0473,0.008911
2706.9791,0.009174
2707.9109,0.008959
2708.8428,0.008922
2709.7746,0.008859
2710.7064,0.008833
2711.6383,0.008535
2712.5701,0.008476
2713.5019,0.008952
2714.4338,0.009048
2715.3656,0.008985
2716.2974,0.008857
2717.2293,0.008800
2718.1611,0.009175
2719.0930,0.009552
2720.0248,0.009431
2720.9566,0.009671
2721.8885,0.009899
2722.8203,0.009898
2723.7521,0.010078
2724.6840,0.009995
2725.6158,0.009864
2726.5476,0.009822
2727.4795,0.009625
2728.4113,0.009951
2729.3431,0.010895
2730.2750,0.011056
2731.2068,0.010454
2732.1386,0.010141
2733.0705,0.010541
2734.0023,0.010955
2734.9341,0.011111
2735.8660,0.011220
2736.7978,0.011053
2737.7296,0.010734
2738.6615,0.010898
2739.5933,0.010993
2740.5251,0.010730
2741.4570,0.010761
2742.3888,0.011217
2743.3206,0.011537
2744.2525,0.011465
2745.1843,0.011373
2746.1162,0.011131
2747.0480,0.010636
2747.9798,0.010676
2748.9117,0.011112
2749.8435,0.011477
2750.7753,0.011815
2751.7072,0.012089
2752.6390,0.011727
2753.5708,0.011549
2754.5027,0.011809
2755.4345,0.012001
2756.3663,0.011643
2757.2982,0.011750
2758.2300,0.012119
2759.1618,0.012074
2760.0937,0.012433
2761.0255,0.012507
2761.9573,0.011946
2762.8892,0.011805
2763.8210,0.012017
2764.7528,0.012041
2765.6847,0.011803
2766.6165,0.011851
2767.5483,0.012069
2768.4802,0.012117
2769.4120,0.012021
2770.3438,0.012177
2771.2757,0.012572
2772.2075,0.012649
2773.1394,0.012419
2774.0712,0.012651
2775.0030,0.012925
2775.9349,0.012690
2776.8667,0.012459
2777.7985,0.012468
2778.7304,0.012443
2779.6622,0.012380
2780.5940,0.012632
2781.5259,0.013323
2782.4577,0.013777
2783.3895,0.013651
2784.3214,0.013208
2785.2532,0.013118
2786.1850,0.013549
2787.1169,0.013513
2788.0487,0.013311
2788.9805,0.013294
2789.9124,0.013109
2790.8442,0.013234
2791.7760,0.013546
2792.7079,0.014036
2793.6397,0.014766
2794.5715,0.014914
2795.5034,0.014825
2796.4352,0.014726
2797.3670,0.014659
2798.2989,0.014917
2799.2307,0.015148
2800.1626,0.015344
2801.0944,0.015755
2802.0262,0.016001
2802.9581,0.015636
2803.8899,0.015704
2804.8217,0.016103
2805.7536,0.016296
2806.6854,0.016524
2807.6172,0.016802
2808.5491,0.016704
2809.4809,0.016701
2810.4127,0.017342
2811.3446,0.017506
2812.2764,0.017405
2813.2082,0.017890
2814.1401,0.018499
2815.0719,0.018416
2816.0037,0.017807
2816.9356,0.018287
2817.8674,0.019101
2818.7992,0.019007
2819.7311,0.019025
2820.6629,0.019206
2821.5947,0.019534
2822.5266,0.019676
2823.4584,0.019795
2824.3902,0.020261
2825.3221,0.020302
2826.2539,0.020304
2827.1857,0.020403
2828.1176,0.020523
2829.0494,0.020575
2829.9813,0.020936
2830.9131,0.021267
2831.8449,0.021163
2832.7768,0.021091
2833.7086,0.021196
2834.6404,0.021573
2835.5723,0.021948
2836.5041,0.022185
2837.4359,0.022596
2838.3678,0.022830
2839.2996,0.022834
2840.2314,0.022975
2841.1633,0.023282
2842.0951,0.023523
2843.0269,0.023875
2843.9588,0.023982
2844.8906,0.024098
2845.8224,0.024356
2846.7543,0.024641
2847.6861,0.025073
2848.6179,0.025002
2849.5498,0.025016
2850.4816,0.025604
2851.4134,0.025843
2852.3453,0.025679
2853.2771,0.025630
2854.2089,0.025747
2855.1408,0.025992
2856.0726,0.026341
2857.0045,0.026643
2857.9363,0.027053
2858.8681,0.028007
2859.8000,0.028607
2860.7318,0.028818
2861.6636,0.028964
2862.5955,0.029027
2863.5273,0.029658
2864.4591,0.030664
2865.3910,0.031102
2866.3228,0.031301
2867.2546,0.031717
2868.1865,0.032679
2869.1183,0.033318
2870.0501,0.033214
2870.9820,0.033295
2871.9138,0.034038
2872.8456,0.035417
2873.7775,0.036489
2874.7093,0.037303
2875.6411,0.038350
2876.5730,0.038839
2877.5048,0.038849
2878.4366,0.039073
2879.3685,0.039350
2880.3003,0.039840
2881.2321,0.040731
2882.1640,0.041410
2883.0958,0.041883
2884.0277,0.041762
2884.9595,0.041719
2885.8913,0.041845
2886.8232,0.042130
2887.7550,0.043325
2888.6868,0.044412
2889.6187,0.044999
2890.5505,0.045490
2891.4823,0.045871
2892.4142,0.045556
2893.3460,0.045070
2894.2778,0.045816
2895.2097,0.047235
2896.1415,0.048336
2897.0733,0.048604
2898.0052,0.048654
2898.9370,0.048878
2899.8688,0.049340
2900.8007,0.050195
2901.7325,0.050380
2902.6643,0.050318
2903.5962,0.050596
2904.5280,0.049931
2905.4598,0.048768
2906.3917,0.048609
2907.3235,0.049161
2908.2553,0.049199
2909.1872,0.048501
2910.1190,0.047572
2911.0509,0.047326
2911.9827,0.047273
2912.9145,0.046976
2913.8464,0.046285
2914.7782,0.045327
2915.7100,0.045424
2916.6419,0.045460
2917.5737,0.044634
2918.5055,0.044403
2919.4374,0.044662
2920.3692,0.044828
2921.3010,0.045377
2922.2329,0.046192
2923.1647,0.046258
2924.0965,0.046555
2925.0284,0.047548
2925.9602,0.047289
2926.8920,0.046385
2927.8239,0.046708
2928.7557,0.047607
2929.6875,0.047586
2930.6194,0.048238
2931.5512,0.049667
2932.4830,0.049399
2933.4149,0.048764
2934.3467,0.048796
2935.2785,0.049026
2936.2104,0.049207
2937.1422,0.049290
2938.0741,0.049086
2939.0059,0.049126
2939.9377,0.049873
2940.8696,0.049995
2941.8014,0.049398
2942.7332,0.049348
2943.6651,0.049716
2944.5969,0.049858
2945.5287,0.049874
2946.4606,0.050135
2947.3924,0.050232
2948.3242,0.049862
2949.2561,0.049348
2950.1879,0.049740
2951.1197,0.050746
2952.0516,0.050450
2952.9834,0.049817
2953.9152,0.050060
2954.8471,0.050513
2955.7789,0.050651
2956.7107,0.051073
2957.6426,0.052349
2958.5744,0.053302
2959.5062,0.053222
2960.4381,0.053837
2961.3699,0.055263
2962.3017,0.056323
2963.2336,0.057220
2964.1654,0.058229
2965.0972,0.059307
2966.0291,0.061414
2966.9609,0.064447
2967.8928,0.067119
2968.8246,0.069283
2969.7564,0.071075
2970.6883,0.073150
2971.6201,0.075870
2972.5519,0.079248
2973.4838,0.082277
2974.4156,0.084190
2975.3474,0.086469
2976.2793,0.089009
2977.2111,0.091029
2978.1429,0.092521
2979.0748,0.093411
2980.0066,0.094219
2980.9384,0.094952
2981.8703,0.094523
2982.8021,0.092922
2983.7339,0.091492
2984.6658,0.090203
2985.5976,0.087682
2986.5294,0.084974
2987.4613,0.082846
2988.3931,0.080019
2989.3249,0.076985
2990.2568,0.074239
2991.1886,0.071517
2992.1204,0.069320
2993.0523,0.067951
2993.9841,0.066605
2994.9160,0.065069
2995.8478,0.063081
2996.7796,0.061738
2997.7115,0.060566
2998.6433,0.058555
2999.5751,0.057577
3000.5070,0.057150
3001.4388,0.056999
3002.3706,0.056962
3003.3025,0.056097
3004.2343,0.055481
3005.1661,0.054990
3006.0980,0.054850
3007.0298,0.055099
3007.9616,0.054704
3008.8935,0.054770
3009.8253,0.055934
3010.7571,0.056599
3011.6890,0.055960
3012.6208,0.055161
3013.5526,0.055176
3014.4845,0.054775
3015.4163,0.054633
3016.3481,0.055838
3017.2800,0.056601
3018.2118,0.057021
3019.1436,0.056800
3020.0755,0.056426
3021.0073,0.057870
3021.9392,0.059364
3022.8710,0.059645
3023.8028,0.059098
3024.7347,0.058340
3025.6665,0.058412
3026.5983,0.059593
3027.5302,0.060725
3028.4620,0.060753
3029.3938,0.061125
3030.3257,0.062345
3031.2575,0.063045
3032.1893,0.063271
3033.1212,0.063467
3034.0530,0.063842
3034.9848,0.064546
3035.9167,0.065201
3036.8485,0.065772
3037.7803,0.066449
3038.7122,0.066955
3039.6440,0.066878
3040.5758,0.066308
3041.5077,0.066944
3042.4395,0.068367
3043.3713,0.069194
3044.3032,0.069920
3045.2350,0.070402
3046.1668,0.070794
3047.0987,0.071323
3048.0305,0.071816
3048.9624,0.072485
3049.8942,0.073240
3050.8260,0.074209
3051.7579,0.075114
3052.6897,0.075605
3053.6215,0.075793
3054.5534,0.076525
3055.4852,0.077246
3056.4170,0.077392
3057.3489,0.078169
3058.2807,0.079579
3059.2125,0.080122
3060.1444,0.080395
3061.0762,0.081139
3062.0080,0.081418
3062.9399,0.081865
3063.8717,0.082917
3064.8035,0.083999
3065.7354,0.084948
3066.6672,0.085033
3067.5990,0.085992
3068.5309,0.088071
3069.4627,0.089132
3070.3945,0.089619
3071.3264,0.089847
3072.2582,0.089782
3073.1900,0.090121
3074.1219,0.091286
3075.0537,0.092718
3075.9856,0.093463
3076.9174,0.093655
3077.8492,0.094693
3078.7811,0.096506
3079.7129,0.097214
3080.6447,0.096962
3081.5766,0.097402
3082.5084,0.098913
3083.4402,0.100908
3084.3721,0.102121
3085.3039,0.102217
3086.2357,0.102475
3087.1676,0.102681
3088.0994,0.103682
3089.0312,0.104758
3089.9631,0.104795
3090.8949,0.104885
3091.8267,0.106273
3092.7586,0.107879
3093.6904,0.108958
3094.6222,0.110212
3095.5541,0.111838
3096.4859,0.113257
3097.4177,0.113743
3098.3496,0.113514
3099.2814,0.113691
3100.2132,0.114659
3101.1451,0.116379
3102.0769,0.117964
3103.0087,0.119108
3103.9406,0.120028
3104.8724,0.121166
3105.8043,0.122534
3106.7361,0.123970
3107.6679,0.124310
3108.5998,0.124137
3109.5316,0.125200
3110.4634,0.125865
3111.3953,0.126554
3112.3271,0.128256
3113.2589,0.129693
3114.1908,0.131867
3115.1226,0.132736
3116.0544,0.132567
3116.9863,0.133847
3117.9181,0.135824
3118.8499,0.136778
3119.7818,0.137400
3120.7136,0.138750
3121.6454,0.139927
3122.5773,0.140986
3123.5091,0.142965
3124.4409,0.143547
3125.3728,0.142814
3126.3046,0.144278
3127.2364,0.147393
3128.1683,0.148237
3129.1001,0.148069
3130.0319,0.148803
3130.9638,0.150378
3131.8956,0.152013
3132.8275,0.153155
3133.7593,0.154129
3134.6911,0.155545
3135.6230,0.156835
3136.5548,0.157749
3137.4866,0.158324
3138.4185,0.159749
3139.3503,0.161350
3140.2821,0.162284
3141.2140,0.163233
3142.1458,0.164559
3143.0776,0.165837
3144.0095,0.166520
3144.9413,0.166949
3145.8731,0.169073
3146.8050,0.171011
3147.7368,0.171843
3148.6686,0.173586
3149.6005,0.176000
3150.5323,0.175974
3151.4641,0.175492
3152.3960,0.177315
3153.3278,0.179032
3154.2596,0.179579
3155.1915,0.181926
3156.1233,0.184784
3157.0551,0.185276
3157.9870,0.184900
3158.9188,0.186785
3159.8507,0.188536
3160.7825,0.189977
3161.7143,0.191182
3162.6462,0.192536
3163.5780,0.192881
3164.5098,0.193862
3165.4417,0.195885
3166.3735,0.196743
3167.3053,0.198164
3168.2372,0.201466
3169.1690,0.202810
3170.1008,0.202442
3171.0327,0.202965
3171.9645,0.204548
3172.8963,0.205271
3173.8282,0.205824
3174.7600,0.208061
3175.6918,0.210496
3176.6237,0.211127
3177.5555,0.212155
3178.4873,0.213116
3179.4192,0.214523
3180.3510,0.216021
3181.2828,0.218838
3182.2147,0.220068
3183.1465,0.218481
3184.0783,0.217485
3185.0102,0.219816
3185.9420,0.223234
3186.8739,0.224783
3187.8057,0.225424
3188.7375,0.227059
3189.6694,0.227534
3190.6012,0.227930
3191.5330,0.228364
3192.4649,0.230274
3193.3967,0.231664
3194.3285,0.233159
3195.2604,0.234660
3196.1922,0.234773
3197.1240,0.233794
3198.0559,0.235369
3198.9877,0.239443
3199.9195,0.240112
3200.8514,0.239303
3201.7832,0.240615
3202.7150,0.241252
3203.6469,0.241846
3204.5787,0.243824
3205.5105,0.246309
3206.4424,0.246925
3207.3742,0.246831
3208.3060,0.247454
3209.2379,0.249103
3210.1697,0.250119
3211.1015,0.250951
3212.0334,0.252038
3212.9652,0.253967
3213.8971,0.253463
3214.8289,0.252656
3215.7607,0.254435
3216.6926,0.256873
3217.6244,0.259489
3218.5562,0.260621
3219.4881,0.258487
3220.4199,0.260728
3221.3517,0.263462
3222.2836,0.262182
3223.2154,0.261306
3224.1472,0.263263
3225.0791,0.263637
3226.0109,0.263833
3226.9427,0.263956
3227.8746,0.264114
3228.8064,0.265888
3229.7382,0.267396
3230.6701,0.266528
3231.6019,0.268993
3232.5337,0.269595
3233.4656,0.266448
3234.3974,0.267389
3235.3292,0.270632
3236.2611,0.271100
3237.1929,0.271941
3238.1247,0.272986
3239.0566,0.274072
3239.9884,0.273775
3240.9202,0.274276
3241.8521,0.273998
3242.7839,0.273489
3243.7158,0.273027
3244.6476,0.273796
3245.5794,0.273320
3246.5113,0.274829
3247.4431,0.276248
3248.3749,0.276584
3249.3068,0.276376
3250.2386,0.276460
3251.1704,0.277478
3252.1023,0.278976
3253.0341,0.277748
3253.9659,0.278041
3254.8978,0.279189
3255.8296,0.279298
3256.7614,0.276755
3257.6933,0.277551
3258.6251,0.280941
3259.5569,0.281793
3260.4888,0.281583
3261.4206,0.281314
3262.3524,0.278897
3263.2843,0.278980
3264.2161,0.280470
3265.1479,0.282774
3266.0798,0.283004
3267.0116,0.282981
3267.9434,0.282657
3268.8753,0.282097
3269.8071,0.281590
3270.7390,0.281482
3271.6708,0.281991
3272.6026,0.283220
3273.5345,0.282060
3274.4663,0.281633
3275.3981,0.282327
3276.3300,0.282476
3277.2618,0.281653
3278.1936,0.281464
3279.1255,0.281589
3280.0573,0.283801
3280.9891,0.284627
3281.9210,0.284723
3282.8528,0.284393
3283.7846,0.283372
3284.7165,0.283139
3285.6483,0.284946
3286.5801,0.286069
3287.5120,0.286329
3288.4438,0.283841
3289.3756,0.282469
3290.3075,0.282906
3291.2393,0.284977
3292.1711,0.287523
3293.1030,0.288940
3294.0348,0.285168
3294.9666,0.283498
3295.8985,0.284369
3296.8303,0.285077
3297.7622,0.285521
3298.6940,0.285502
3299.6258,0.284307
3300.5577,0.284585
3301.4895,0.284263
3302.4213,0.284618
3303.3532,0.283848
3304.2850,0.283389
3305.2168,0.283948
3306.1487,0.286659
3307.0805,0.288355
3308.0123,0.287742
3308.9442,0.288163
3309.8760,0.288835
3310.8078,0.287144
3311.7397,0.287157
3312.6715,0.286584
3313.6033,0.286617
3314.5352,0.286557
3315.4670,0.284874
3316.3988,0.284223
3317.3307,0.286929
3318.2625,0.288035
3319.1943,0.288225
3320.1262,0.286181
3321.0580,0.286898
3321.9898,0.286926
3322.9217,0.288002
3323.8535,0.290014
3324.7854,0.289809
3325.7172,0.288476
3326.6490,0.288447
3327.5809,0.288613
3328.5127,0.286582
3329.4445,0.286960
3330.3764,0.289237
3331.3082,0.289246
3332.2400,0.289832
3333.1719,0.291420
3334.1037,0.292121
3335.0355,0.290439
3335.9674,0.287991
3336.8992,0.287882
3337.8310,0.289547
3338.7629,0.289399
3339.6947,0.289764
3340.6265,0.289218
3341.5584,0.288490
3342.4902,0.287530
3343.4220,0.289716
3344.3539,0.291008
3345.2857,0.290865
3346.2175,0.289758
3347.1494,0.290247
3348.0812,0.289079
3349.0130,0.287867
3349.9449,0.287569
3350.8767,0.289363
3351.8086,0.290505
3352.7404,0.291528
3353.6722,0.290483
3354.6041,0.288866
3355.5359,0.287149
3356.4677,0.287222
3357.3996,0.287186
3358.3314,0.287582
3359.2632,0.287556
3360.1951,0.289727
3361.1269,0.288376
3362.0587,0.288145
3362.9906,0.287595
3363.9224,0.286993
3364.8542,0.288554
3365.7861,0.290010
3366.7179,0.287927
3367.6497,0.286979
3368.5816,0.288210
3369.5134,0.290028
3370.4452,0.288542
3371.3771,0.284491
3372.3089,0.281679
3373.2407,0.281632
3374.1726,0.282085
3375.1044,0.283531
3376.0362,0.284665
3376.9681,0.285077
3377.8999,0.286351
3378.8317,0.287445
3379.7636,0.286821
3380.6954,0.286249
3381.6273,0.282451
3382.5591,0.282675
3383.4909,0.283637
3384.4228,0.281174
3385.3546,0.278790
3386.2864,0.280043
3387.2183,0.278991
3388.1501,0.279500
3389.0819,0.279410
3390.0138,0.280689
3390.9456,0.281351
3391.8774,0.280498
3392.8093,0.277291
3393.7411,0.276485
3394.6729,0.276314
3395.6048,0.274009
3396.5366,0.272421
3397.4684,0.271785
3398.4003,0.270122
3399.3321,0.271461
3400.2639,0.273424
3401.1958,0.274899
3402.1276,0.271432
3403.0594,0.268494
3403.9913,0.267770
3404.9231,0.265992
3405.8549,0.265096
3406.7868,0.266505
3407.7186,0.265716
3408.6505,0.264973
3409.5823,0.262694
3410.5141,0.263803
3411.4460,0.264014
3412.3778,0.265541
3413.3096,0.264387
3414.2415,0.261401
3415.1733,0.257623
3416.1051,0.256661
3417.0370,0.255402
3417.9688,0.254368
3418.9006,0.254931
3419.8325,0.257480
3420.7643,0.257879
3421.6961,0.258003
3422.6280,0.254733
3423.5598,0.253344
3424.4916,0.254211
3425.4235,0.252849
3426.3553,0.249928
3427.2871,0.249839
3428.2190,0.246655
3429.1508,0.245565
3430.0826,0.245878
3431.0145,0.243980
3431.9463,0.241674
3432.8781,0.244451
3433.8100,0.243549
3434.7418,0.240103
3435.6737,0.238880
3436.6055,0.238261
3437.5373,0.237133
3438.4692,0.235406
3439.4010,0.232866
3440.3328,0.232740
3441.2647,0.229907
3442.1965,0.228764
3443.1283,0.229894
3444.0602,0.230471
3444.9920,0.227586
3445.9238,0.225255
3446.8557,0.224086
3447.7875,0.225278
3448.7193,0.224790
3449.6512,0.224175
3450.5830,0.223989
3451.5148,0.226341
3452.4467,0.223948
3453.3785,0.220781
3454.3103,0.219092
3455.2422,0.218588
3456.1740,0.218637
3457.1058,0.218657
3458.0377,0.217710
3458.9695,0.215913
3459.9013,0.213968
3460.8332,0.215929
3461.7650,0.215185
3462.6969,0.210992
3463.6287,0.208572
3464.5605,0.209706
3465.4924,0.208206
3466.4242,0.208092
3467.3560,0.208217
3468.2879,0.204526
3469.2197,0.201738
3470.1515,0.200357
3471.0834,0.200801
3472.0152,0.199293
3472.9470,0.195461
3473.8789,0.197661
3474.8107,0.197206
3475.7425,0.194051
3476.6744,0.193779
3477.6062,0.195348
3478.5380,0.192985
3479.4699,0.194541
3480.4017,0.193421
3481.3335,0.188886
3482.2654,0.188342
3483.1972,0.187960
3484.1290,0.186837
3485.0609,0.189473
3485.9927,0.186252
3486.9245,0.182176
3487.8564,0.182652
3488.7882,0.181274
3489.7201,0.181768
3490.6519,0.183201
3491.5837,0.178913
3492.5156,0.179223
3493.4474,0.176774
3494.3792,0.174637
3495.3111,0.174030
3496.2429,0.173723
3497.1747,0.171918
3498.1066,0.173446
3499.0384,0.172142
3499.9702,0.168446
3500.9021,0.166642
3501.8339,0.169746
3502.7657,0.168333
3503.6976,0.165940
3504.6294,0.165055
3505.5612,0.163396
3506.4931,0.160974
3507.4249,0.161186
3508.3567,0.159971
3509.2886,0.161776
3510.2204,0.161463
3511.1522,0.159977
3512.0841,0.157323
3513.0159,0.155817
3513.9477,0.156068
3514.8796,0.155368
3515.8114,0.153177
3516.7432,0.152735
3517.6751,0.152420
3518.6069,0.154092
3519.5388,0.153858
3520.4706,0.152166
3521.4024,0.147212
3522.3343,0.143566
3523.2661,0.143267
3524.1979,0.144154
3525.1298,0.144243
3526.0616,0.143551
3526.9934,0.141321
3527.9253,0.137728
3528.8571,0.138437
3529.7889,0.139112
3530.7208,0.136936
3531.6526,0.135504
3532.5844,0.134753
3533.5163,0.134403
3534.4481,0.134867
3535.3799,0.133787
3536.3118,0.132027
3537.2436,0.132419
3538.1754,0.131276
3539.1073,0.127854
3540.0391,0.125647
3540.9709,0.125803
3541.9028,0.126205
3542.8346,0.126123
3543.7664,0.125894
3544.6983,0.124633
3545.6301,0.121364
3546.5620,0.121245
3547.4938,0.124425
3548.4256,0.124893
3549.3575,0.121843
3550.2893,0.118993
3551.2211,0.116649
3552.1530,0.115876
3553.0848,0.115956
3554.0166,0.114777
3554.9485,0.112799
3555.8803,0.113687
3556.8121,0.112410
3557.7440,0.112216
3558.6758,0.111280
3559.6076,0.107818
3560.5395,0.105060
3561.4713,0.106403
3562.4031,0.107852
3563.3350,0.108068
3564.2668,0.104749
3565.1986,0.103005
3566.1305,0.103974
3567.0623,0.104010
3567.9941,0.104253
3568.9260,0.103665
3569.8578,0.102245
3570.7896,0.103558
3571.7215,0.101718
3572.6533,0.096952
3573.5852,0.096167
3574.5170,0.094552
3575.4488,0.093821
3576.3807,0.094612
3577.3125,0.091734
3578.2443,0.091661
3579.1762,0.091168
3580.1080,0.088858
3581.0398,0.087793
3581.9717,0.087088
3582.9035,0.087728
3583.8353,0.087219
3584.7672,0.086691
3585.6990,0.086302
3586.6308,0.084150
3587.5627,0.082547
3588.4945,0.082628
3589.4263,0.083603
3590.3582,0.081259
3591.2900,0.082086
3592.2218,0.080023
3593.1537,0.078628
3594.0855,0.078555
3595.0173,0.077747
3595.9492,0.075063
3596.8810,0.075760
3597.8128,0.077373
3598.7447,0.076240
3599.6765,0.073474
3600.6084,0.073213
3601.5402,0.072326
3602.4720,0.072656
3603.4039,0.072261
3604.3357,0.069970
3605.2675,0.068754
3606.1994,0.069048
3607.1312,0.068276
3608.0630,0.067521
3608.9949,0.065731
3609.9267,0.063720
3610.8585,0.064664
3611.7904,0.066220
3612.7222,0.065469
3613.6540,0.064333
3614.5859,0.062941
3615.5177,0.063688
3616.4495,0.063926
3617.3814,0.062639
3618.3132,0.061476
3619.2450,0.060247
3620.1769,0.058247
3621.1087,0.056951
3622.0405,0.057490
3622.9724,0.058081
3623.9042,0.057237
3624.8360,0.056221
3625.7679,0.055425
3626.6997,0.055565
3627.6316,0.055577
3628.5634,0.054284
3629.4952,0.051905
3630.4271,0.052434
3631.3589,0.055379
3632.2907,0.056410
3633.2226,0.051952
3634.1544,0.049326
3635.0862,0.050325
3636.0181,0.048485
3636.9499,0.047017
3637.8817,0.047254
3638.8136,0.046625
3639.7454,0.045804
3640.6772,0.046240
3641.6091,0.045191
3642.5409,0.043459
3643.4727,0.042242
3644.4046,0.041385
3645.3364,0.041212
3646.2682,0.040993
3647.2001,0.038957
3648.1319,0.037495
3649.0637,0.037340
3649.9956,0.035334
3650.9274,0.034462
3651.8592,0.035936
3652.7911,0.038146
3653.7229,0.037497
3654.6547,0.035427
3655.5866,0.035127
3656.5184,0.034804
3657.4503,0.032421
3658.3821,0.031697
3659.3139,0.032705
3660.2458,0.032214
3661.1776,0.030863
3662.1094,0.030742
3663.0413,0.030055
3663.9731,0.029285
3664.9049,0.029171
3665.8368,0.028554
3666.7686,0.027345
3667.7004,0.025959
3668.6323,0.024039
3669.5641,0.022671
3670.4959,0.022546
3671.4278,0.022190
3672.3596,0.022111
3673.2914,0.022966
3674.2233,0.022459
3675.1551,0.021118
3676.0869,0.020137
3677.0188,0.017847
3677.9506,0.017220
3678.8824,0.018727
3679.8143,0.017986
3680.7461,0.015926
3681.6779,0.016208
3682.6098,0.017587
3683.5416,0.017405
3684.4735,0.015544
3685.4053,0.014071
3686.3371,0.014664
3687.2690,0.013633
3688.2008,0.013001
3689.1326,0.013236
3690.0645,0.012094
3690.9963,0.009918
3691.9281,0.009646
3692.8600,0.009832
3693.7918,0.009373
3694.7236,0.009535
3695.6555,0.009414
3696.5873,0.009330
3697.5191,0.009035
3698.4510,0.008754
3699.3828,0.008394
3700.3146,0.008107
3701.2465,0.008409
3702.1783,0.007647
3703.1101,0.007275
3704.0420,0.007100
3704.9738,0.006744
3705.9056,0.006121
3706.8375,0.005997
3707.7693,0.005664
3708.7011,0.005052
3709.6330,0.005610
3710.5648,0.005103
3711.4967,0.003256
3712.4285,0.002590
3713.3603,0.000943
3714.2922,0.001390
3715.2240,0.002972
3716.1558,0.003466
3717.0877,0.003918
3718.0195,0.004734
3718.9513,0.004515
3719.8832,0.004079
3720.8150,0.005744
3721.7468,0.006577
3722.6787,0.004247
3723.6105,0.002107
3724.5423,0.001590
3725.4742,0.001152
3726.4060,0.002135
3727.3378,0.003335
3728.2697,0.003171
3729.2015,0.002531
3730.1333,0.002733
3731.0652,0.002987
3731.9970,0.003125
3732.9288,0.003811
3733.8607,0.003106
3734.7925,0.000895
3735.7243,0.002498
3736.6562,0.002685
3737.5880,-0.000107
3738.5199,-0.000389
3739.4517,0.002060
3740.3835,0.003323
3741.3154,0.003038
3742.2472,0.002688
3743.1790,0.001425
3744.1109,-0.000540
3745.0427,-0.000092
3745.9745,-0.000751
3746.9064,0.000407
3747.8382,0.002635
3748.7700,0.000465
3749.7019,-0.000235
3750.6337,0.001257
3751.5655,0.001446
3752.4974,0.000183
3753.4292,0.000983
3754.3610,0.000943
3755.2929,0.001027
3756.2247,0.002437
3757.1565,0.002325
3758.0884,0.001948
3759.0202,0.001927
3759.9520,0.002213
3760.8839,0.001893
3761.8157,0.002089
3762.7475,0.002482
3763.6794,0.001384
3764.6112,-0.000048
3765.5431,0.000422
3766.4749,0.002269
3767.4067,0.002618
3768.3386,0.001204
3769.2704,0.000361
3770.2022,0.002053
3771.1341,0.002333
3772.0659,0.001643
3772.9977,0.001125
3773.9296,0.001698
3774.8614,0.001734
3775.7932,0.001269
3776.7251,0.001028
3777.6569,0.001234
3778.5887,0.001553
3779.5206,0.001571
3780.4524,0.001516
3781.3842,0.000327
3782.3161,-0.000388
3783.2479,0.001150
3784.1797,0.001546
3785.1116,0.001272
3786.0434,0.001532
3786.9752,0.001549
3787.9071,0.001854
3788.8389,0.002588
3789.7707,0.002021
3790.7026,0.001883
3791.6344,0.002572
3792.5662,0.001749
3793.4981,0.000530
3794.4299,0.000911
3795.3618,0.001317
3796.2936,0.000512
3797.2254,0.000401
3798.1573,0.000059
3799.0891,-0.000790
3800.0209,0.000056
3800.9528,0.000129
3801.8846,0.000707
3802.8164,0.001096
3803.7483,0.001755
3804.6801,0.001952
3805.6119,0.000731
3806.5438,0.000244
3807.4756,0.001283
3808.4074,0.002209
3809.3393,0.001633
3810.2711,0.001077
3811.2029,0.000536
3812.1348,0.000547
3813.0666,0.000767
3813.9984,0.000981
3814.9303,0.001390
3815.8621,0.001825
3816.7939,0.002168
3817.7258,0.002150
3818.6576,0.000911
3819.5894,0.000219
3820.5213,0.001461
3821.4531,0.001137
3822.3850,0.000452
3823.3168,0.000358
3824.2486,-0.000105
3825.1805,0.000167
3826.1123,-0.000225
3827.0441,-0.000975
3827.9760,-0.001025
3828.9078,-0.001138
3829.8396,-0.001020
3830.7715,0.000811
3831.7033,0.001337
3832.6351,-0.000276
3833.5670,-0.000791
3834.4988,-0.000800
3835.4306,0.000048
3836.3625,0.000793
3837.2943,0.000126
3838.2261,-0.000617
3839.1580,-0.000915
3840.0898,0.000808
3841.0216,0.001504
3841.9535,0.000781
3842.8853,0.000822
3843.8171,0.001098
3844.7490,0.001003
3845.6808,0.001477
3846.6126,0.001160
3847.5445,0.000049
3848.4763,-0.000924
3849.4082,-0.000132
3850.3400,0.000819
3851.2718,-0.000368
3852.2037,-0.001654
3853.1355,-0.001627
3854.0673,-0.001147
3854.9992,-0.002313
3855.9310,-0.002531
3856.8628,-0.002497
3857.7947,-0.001276
3858.7265,-0.000041
3859.6583,0.000888
3860.5902,0.002265
3861.5220,0.002455
3862.4538,0.001193
3863.3857,-0.000120
3864.3175,-0.000248
3865.2493,-0.000258
3866.1812,0.000068
3867.1130,0.000090
3868.0448,0.000010
3868.9767,0.001184
3869.9085,0.001611
3870.8403,0.000962
3871.7722,0.000508
3872.7040,-0.000189
3873.6358,-0.000351
3874.5677,0.001797
3875.4995,0.002199
3876.4314,0.000853
3877.3632,0.000421
3878.2950,0.000628
3879.2269,0.000109
3880.1587,0.000251
3881.0905,0.000853
3882.0224,0.000312
3882.9542,-0.001158
3883.8860,-0.001487
3884.8179,-0.000040
3885.7497,0.000013
3886.6815,-0.000819
3887.6134,-0.000276
3888.5452,0.000838
3889.4770,0.000458
3890.4089,0.000410
3891.3407,-0.000200
3892.2725,-0.000590
3893.2044,0.000504
3894.1362,0.000257
3895.0680,-0.000263
3895.9999,0.001039
3896.9317,0.002058
3897.8635,0.002129
3898.7954,0.000932
3899.7272,-0.000421
3900.6590,-0.001264
3901.5909,-0.001232
3902.5227,-0.000929
3903.4546,0.000240
3904.3864,0.001577
3905.3182,0.000940
3906.2501,0.000348
3907.1819,0.000831
3908.1137,0.000553
3909.0456,0.000528
3909.9774,0.001155
3910.9092,0.001569
3911.8411,0.001214
3912.7729,0.001432
3913.7047,0.001370
3914.6366,0.000364
3915.5684,0.000591
3916.5002,0.001195
3917.4321,0.000563
3918.3639,0.000438
3919.2957,0.001653
3920.2276,0.001129
3921.1594,-0.000549
3922.0912,0.000172
3923.0231,0.000832
3923.9549,0.000017
3924.8867,-0.000164
3925.8186,0.000237
3926.7504,0.000596
3927.6822,0.000661
3928.6141,0.001340
3929.5459,0.001577
3930.4777,0.000068
3931.4096,-0.000637
3932.3414,-0.000213
3933.2733,0.000055
3934.2051,0.001132
3935.1369,0.002611
3936.0688,0.002445
3937.0006,0.000874
3937.9324,0.000499
3938.8643,0.001282
3939.7961,0.000883
3940.7279,0.000419
3941.6598,0.000938
3942.5916,0.001398
3943.5234,0.001789
3944.4553,0.002326
3945.3871,0.001990
3946.3189,0.001010
3947.2508,0.000839
3948.1826,0.001582
3949.1144,0.001967
3950.0463,0.001172
3950.9781,0.000756
3951.9099,0.001235
3952.8418,0.000828
3953.7736,0.000665
3954.7054,0.000489
3955.6373,0.000590
3956.5691,0.001348
3957.5009,0.001862
3958.4328,0.001955
3959.3646,0.001174
3960.2965,0.000272
3961.2283,0.000549
3962.1601,0.001090
3963.0920,0.001083
3964.0238,0.001646
3964.9556,0.001689
3965.8875,0.000486
3966.8193,-0.000023
3967.7511,0.000553
3968.6830,0.001156
3969.6148,0.001705
3970.5466,0.001195
3971.4785,-0.000193
3972.4103,-0.000014
3973.3421,0.001740
3974.2740,0.002626
3975.2058,0.001963
3976.1376,0.001957
3977.0695,0.002562
3978.0013,0.002324
3978.9331,0.002165
3979.8650,0.002901
3980.7968,0.002739
3981.7286,0.001782
3982.6605,0.001648
3983.5923,0.001930
3984.5241,0.002172
3985.4560,0.002143
3986.3878,0.001784
3987.3197,0.001511
3988.2515,0.001757
3989.1833,0.002143
3990.1152,0.001157
3991.0470,0.000252
3991.9788,0.000062
3992.9107,0.000241
3993.8425,0.001511
3994.7743,0.002379
3995.7062,0.001780
3996.6380,0.001624
3997.5698,0.001295
3998.5017,0.001008
3999.4335,-0.000054
4000.3653,-0.000214
