Wavenumber,Intensity
650.4205,0.380371
651.3523,0.385858
652.2841,0.385504
653.2160,0.371307
654.1478,0.366621
655.0796,0.372381
656.0115,0.374992
656.9433,0.375141
657.8751,0.374066
658.8070,0.370673
659.7388,0.368789
660.6706,0.373187
661.6025,0.369139
662.5343,0.361925
663.4661,0.361376
664.3980,0.357661
665.3298,0.353436
666.2616,0.354824
667.1935,0.349550
668.1253,0.341458
669.0571,0.351125
669.9890,0.360440
670.9208,0.353229
671.8526,0.341282
672.7845,0.336480
673.7163,0.334944
674.6481,0.340530
675.5800,0.352856
676.5118,0.352909
677.4437,0.344147
678.3755,0.340373
679.3073,0.340825
680.2392,0.334787
681.1710,0.328287
682.1028,0.329556
683.0347,0.339338
683.9665,0.339162
684.8983,0.332556
685.8302,0.332371
686.7620,0.331459
687.6938,0.332788
688.6257,0.330703
689.5575,0.325448
690.4893,0.326343
691.4212,0.328402
692.3530,0.328321
693.2848,0.322693
694.2167,0.317973
695.1485,0.316790
696.0803,0.314854
697.0122,0.313766
697.9440,0.313841
698.8758,0.310923
699.8077,0.311342
700.7395,0.310648
701.6713,0.305955
702.6032,0.305037
703.5350,0.307211
704.4669,0.305537
705.3987,0.302819
706.3305,0.303326
707.2624,0.305006
708.1942,0.305261
709.1260,0.301775
710.0579,0.297677
710.9897,0.297737
711.9215,0.296882
712.8534,0.295208
713.7852,0.296297
714.7170,0.295447
715.6489,0.290133
716.5807,0.285933
717.5125,0.285598
718.4444,0.286137
719.3762,0.283911
720.3080,0.282156
721.2399,0.282990
722.1717,0.283657
723.1035,0.282985
724.0354,0.282323
724.9672,0.280810
725.8990,0.278232
726.8309,0.273877
727.7627,0.272261
728.6945,0.274096
729.6264,0.275309
730.5582,0.272543
731.4901,0.268662
732.4219,0.266181
733.3537,0.266978
734.2856,0.266349
735.2174,0.263072
736.1492,0.261755
737.0811,0.261878
738.0129,0.260366
738.9447,0.258448
739.8766,0.255969
740.8084,0.253740
741.7402,0.253155
742.6721,0.254499
743.6039,0.256102
744.5357,0.255391
745.4676,0.252423
746.3994,0.249455
747.3312,0.247300
748.2631,0.245996
749.1949,0.244232
750.1267,0.242636
751.0586,0.242127
751.9904,0.242720
752.9222,0.241912
753.8541,0.239634
754.7859,0.237412
755.7177,0.235643
756.6496,0.233540
757.5814,0.232803
758.5132,0.232682
759.4451,0.231276
760.3769,0.230303
761.3088,0.230529
762.2406,0.229196
763.1724,0.226204
764.1043,0.224032
765.0361,0.223490
765.9679,0.223164
766.8998,0.222070
767.8316,0.220754
768.7634,0.220643
769.6953,0.218912
770.6271,0.216722
771.5589,0.215039
772.4908,0.214188
773.4226,0.212697
774.3544,0.211919
775.2863,0.213774
776.2181,0.213444
777.1499,0.210900
778.0818,0.208760
779.0136,0.206824
779.9454,0.205983
780.8773,0.203960
781.8091,0.201815
782.7409,0.200865
783.6728,0.200950
784.6046,0.199821
785.5364,0.197810
786.4683,0.195686
787.4001,0.194334
788.3320,0.194211
789.2638,0.194194
790.1956,0.193778
791.1275,0.192724
792.0593,0.191194
792.9911,0.188787
793.9230,0.186833
794.8548,0.186216
795.7866,0.186033
796.7185,0.185764
797.6503,0.184662
798.5821,0.183554
799.5140,0.182920
800.4458,0.182449
801.3776,0.181270
802.3095,0.179107
803.2413,0.177446
804.1731,0.176932
805.1050,0.176131
806.0368,0.175149
806.9686,0.174008
807.9005,0.172667
808.8323,0.171936
809.7641,0.170658
810.6960,0.168307
811.6278,0.167127
812.5596,0.166060
813.4915,0.164142
814.4233,0.161599
815.3552,0.160172
816.2870,0.158634
817.2188,0.156301
818.1507,0.155077
819.0825,0.154501
820.0143,0.154322
820.9462,0.154256
821.8780,0.152634
822.8098,0.150900
823.7417,0.150185
824.6735,0.149420
825.6053,0.148437
826.5372,0.146836
827.4690,0.144989
828.4008,0.144885
829.3327,0.144334
830.2645,0.143023
831.1963,0.141903
832.1282,0.140991
833.0600,0.140100
833.9918,0.138784
834.9237,0.137684
835.8555,0.137052
836.7873,0.136176
837.7192,0.135055
838.6510,0.133945
839.5828,0.132738
840.5147,0.131387
841.4465,0.130489
842.3784,0.130402
843.3102,0.130728
844.2420,0.129636
845.1739,0.128056
846.1057,0.127086
847.0375,0.126513
847.9694,0.125579
848.9012,0.124810
849.8330,0.124415
850.7649,0.124084
851.6967,0.123578
852.6285,0.122934
853.5604,0.122034
854.4922,0.121124
855.4240,0.120588
856.3559,0.119366
857.2877,0.118681
858.2195,0.118364
859.1514,0.118072
860.0832,0.118625
861.0150,0.118658
861.9469,0.118188
862.8787,0.118043
863.8105,0.118985
864.7424,0.120308
865.6742,0.120470
866.6060,0.120438
867.5379,0.121914
868.4697,0.124440
869.4016,0.126821
870.3334,0.129923
871.2652,0.133751
872.1971,0.137895
873.1289,0.142831
874.0607,0.148481
874.9926,0.153997
875.9244,0.158704
876.8562,0.163165
877.7881,0.165083
878.7199,0.164029
879.6517,0.160362
880.5836,0.154846
881.5154,0.148338
882.4472,0.140774
883.3791,0.132754
884.3109,0.125363
885.2427,0.118980
886.1746,0.113268
887.1064,0.108386
888.0382,0.103907
888.9701,0.099992
889.9019,0.097249
890.8337,0.094619
891.7656,0.091846
892.6974,0.089884
893.6292,0.088355
894.5611,0.086625
895.4929,0.085129
896.4247,0.083744
897.3566,0.082231
898.2884,0.080954
899.2203,0.080034
900.1521,0.079901
901.0839,0.079781
902.0158,0.079159
902.9476,0.078238
903.8794,0.077012
904.8113,0.076136
905.7431,0.075382
906.6749,0.074712
907.6068,0.074420
908.5386,0.073781
909.4704,0.072873
910.4023,0.072424
911.3341,0.072402
912.2659,0.072040
913.1978,0.071342
914.1296,0.070728
915.0614,0.070135
915.9933,0.069575
916.9251,0.068721
917.8569,0.068306
918.7888,0.068272
919.7206,0.068030
920.6524,0.067401
921.5843,0.066659
922.5161,0.066481
923.4479,0.066523
924.3798,0.066273
925.3116,0.065563
926.2435,0.064961
927.1753,0.064652
928.1071,0.064100
929.0390,0.063452
929.9708,0.062977
930.9026,0.062817
931.8345,0.062939
932.7663,0.062501
933.6981,0.062123
934.6300,0.061909
935.5618,0.061557
936.4936,0.061337
937.4255,0.061050
938.3573,0.060772
939.2891,0.060122
940.2210,0.059563
941.1528,0.059688
942.0846,0.059902
943.0165,0.059476
943.9483,0.058693
944.8801,0.058221
945.8120,0.058253
946.7438,0.058339
947.6756,0.058123
948.6075,0.058099
949.5393,0.057886
950.4711,0.057613
951.4030,0.057338
952.3348,0.056876
953.2667,0.056696
954.1985,0.056674
955.1303,0.056584
956.0622,0.056413
956.9940,0.055733
957.9258,0.055689
958.8577,0.055908
959.7895,0.055770
960.7213,0.055384
961.6532,0.055151
962.5850,0.054950
963.5168,0.054532
964.4487,0.054512
965.3805,0.054700
966.3123,0.054746
967.2442,0.054530
968.1760,0.053952
969.1078,0.053570
970.0397,0.053535
970.9715,0.053670
971.9033,0.053462
972.8352,0.053182
973.7670,0.053290
974.6988,0.053398
975.6307,0.053378
976.5625,0.053360
977.4943,0.053205
978.4262,0.053185
979.3580,0.053588
980.2899,0.053755
981.2217,0.053833
982.1535,0.053864
983.0854,0.053407
984.0172,0.053011
984.9490,0.053122
985.8809,0.053296
986.8127,0.053247
987.7445,0.053207
988.6764,0.053233
989.6082,0.053109
990.5400,0.053102
991.4719,0.053251
992.4037,0.053516
993.3355,0.053657
994.2674,0.054024
995.1992,0.054416
996.1310,0.054172
997.0629,0.053928
997.9947,0.054125
998.9265,0.054505
999.8584,0.054691
1000.7902,0.054830
1001.7220,0.055229
1002.6539,0.055623
1003.5857,0.055895
1004.5175,0.056100
1005.4494,0.056487
1006.3812,0.056910
1007.3131,0.057366
1008.2449,0.057803
1009.1767,0.058260
1010.1086,0.058761
1011.0404,0.059195
1011.9722,0.059828
1012.9041,0.060689
1013.8359,0.061474
1014.7677,0.062192
1015.6996,0.063126
1016.6314,0.064334
1017.5632,0.065405
1018.4951,0.066843
1019.4269,0.068386
1020.3587,0.069646
1021.2906,0.071205
1022.2224,0.073151
1023.1542,0.075509
1024.0861,0.077950
1025.0179,0.080502
1025.9497,0.083288
1026.8816,0.086508
1027.8134,0.090589
1028.7452,0.094966
1029.6771,0.099297
1030.6089,0.104475
1031.5407,0.110725
1032.4726,0.117959
1033.4044,0.126473
1034.3362,0.136220
1035.2681,0.147196
1036.1999,0.159407
1037.1318,0.173152
1038.0636,0.187959
1038.9954,0.203170
1039.9273,0.218586
1040.8591,0.232976
1041.7909,0.245410
1042.7228,0.255098
1043.6546,0.260713
1044.5864,0.261767
1045.5183,0.257807
1046.4501,0.249261
1047.3819,0.237416
1048.3138,0.223137
1049.2456,0.207142
1050.1774,0.190807
1051.1093,0.174634
1052.0411,0.158678
1052.9729,0.143908
1053.9048,0.130868
1054.8366,0.119341
1055.7684,0.108954
1056.7003,0.100358
1057.6321,0.093054
1058.5639,0.087024
1059.4958,0.082415
1060.4276,0.078914
1061.3594,0.076121
1062.2913,0.074055
1063.2231,0.072600
1064.1550,0.071354
1065.0868,0.070804
1066.0186,0.070672
1066.9505,0.070866
1067.8823,0.071516
1068.8141,0.072324
1069.7460,0.073259
1070.6778,0.074663
1071.6096,0.076364
1072.5415,0.078422
1073.4733,0.080549
1074.4051,0.082834
1075.3370,0.085387
1076.2688,0.088040
1077.2006,0.090906
1078.1325,0.094035
1079.0643,0.097201
1079.9961,0.100445
1080.9280,0.103434
1081.8598,0.106142
1082.7916,0.108537
1083.7235,0.110131
1084.6553,0.111099
1085.5871,0.111524
1086.5190,0.111204
1087.4508,0.109884
1088.3826,0.107402
1089.3145,0.104299
1090.2463,0.100567
1091.1782,0.096317
1092.1100,0.091831
1093.0418,0.087092
1093.9737,0.082761
1094.9055,0.078586
1095.8373,0.074395
1096.7692,0.070570
1097.7010,0.067045
1098.6328,0.063929
1099.5647,0.061320
1100.4965,0.059016
1101.4283,0.056828
1102.3602,0.055026
1103.2920,0.053474
1104.2238,0.051955
1105.1557,0.050504
1106.0875,0.049618
1107.0193,0.048802
1107.9512,0.048170
1108.8830,0.047765
1109.8148,0.047069
1110.7467,0.046457
1111.6785,0.046091
1112.6103,0.045500
1113.5422,0.045130
1114.4740,0.045158
1115.4058,0.045013
1116.3377,0.044579
1117.2695,0.044449
1118.2014,0.044511
1119.1332,0.044318
1120.0650,0.044267
1120.9969,0.044191
1121.9287,0.044243
1122.8605,0.044440
1123.7924,0.044250
1124.7242,0.044173
1125.6560,0.044135
1126.5879,0.044060
1127.5197,0.044138
1128.4515,0.044067
1129.3834,0.043943
1130.3152,0.043855
1131.2470,0.043675
1132.1789,0.043402
1133.1107,0.043062
1134.0425,0.042709
1134.9744,0.042654
1135.9062,0.042739
1136.8380,0.042629
1137.7699,0.042586
1138.7017,0.042407
1139.6335,0.042273
1140.5654,0.042284
1141.4972,0.042081
1142.4290,0.041919
1143.3609,0.041812
1144.2927,0.041935
1145.2246,0.041992
1146.1564,0.041773
1147.0882,0.041585
1148.0201,0.041502
1148.9519,0.041610
1149.8837,0.041561
1150.8156,0.041509
1151.7474,0.041612
1152.6792,0.041607
1153.6111,0.041505
1154.5429,0.041569
1155.4747,0.041625
1156.4066,0.041474
1157.3384,0.041366
1158.2702,0.041085
1159.2021,0.041093
1160.1339,0.041082
1161.0657,0.040791
1161.9976,0.040557
1162.9294,0.040306
1163.8612,0.040022
1164.7931,0.039823
1165.7249,0.039723
1166.6567,0.039642
1167.5886,0.039403
1168.5204,0.039146
1169.4522,0.038916
1170.3841,0.038745
1171.3159,0.038805
1172.2477,0.039126
1173.1796,0.039178
1174.1114,0.038983
1175.0433,0.038787
1175.9751,0.038713
1176.9069,0.038637
1177.8388,0.038518
1178.7706,0.038454
1179.7024,0.038540
1180.6343,0.038705
1181.5661,0.038712
1182.4979,0.038696
1183.4298,0.038725
1184.3616,0.038678
1185.2934,0.038611
1186.2253,0.038538
1187.1571,0.038551
1188.0889,0.038457
1189.0208,0.038482
1189.9526,0.038831
1190.8844,0.039029
1191.8163,0.039065
1192.7481,0.038880
1193.6799,0.038816
1194.6118,0.039011
1195.5436,0.039069
1196.4754,0.038824
1197.4073,0.038891
1198.3391,0.039024
1199.2709,0.038897
1200.2028,0.038710
1201.1346,0.038571
1202.0665,0.038545
1202.9983,0.038620
1203.9301,0.038997
1204.8620,0.039187
1205.7938,0.039059
1206.7256,0.038850
1207.6575,0.038881
1208.5893,0.039112
1209.5211,0.039203
1210.4530,0.039210
1211.3848,0.039305
1212.3166,0.039274
1213.2485,0.039148
1214.1803,0.039123
1215.1121,0.039151
1216.0440,0.039314
1216.9758,0.039426
1217.9076,0.039329
1218.8395,0.039443
1219.7713,0.039507
1220.7031,0.039413
1221.6350,0.039591
1222.5668,0.039794
1223.4986,0.039883
1224.4305,0.039894
1225.3623,0.039814
1226.2941,0.039879
1227.2260,0.039959
1228.1578,0.040073
1229.0897,0.040041
1230.0215,0.040114
1230.9533,0.040220
1231.8852,0.040329
1232.8170,0.040602
1233.7488,0.040659
1234.6807,0.040554
1235.6125,0.040639
1236.5443,0.040756
1237.4762,0.040932
1238.4080,0.041238
1239.3398,0.041093
1240.2717,0.041204
1241.2035,0.041349
1242.1353,0.041295
1243.0672,0.041534
1243.9990,0.041680
1244.9308,0.041689
1245.8627,0.041980
1246.7945,0.042038
1247.7263,0.041836
1248.6582,0.042233
1249.5900,0.042704
1250.5218,0.042833
1251.4537,0.043159
1252.3855,0.043446
1253.3173,0.043578
1254.2492,0.043678
1255.1810,0.044005
1256.1129,0.044314
1257.0447,0.044514
1257.9765,0.044818
1258.9084,0.045401
1259.8402,0.045963
1260.7720,0.046566
1261.7039,0.047097
1262.6357,0.047420
1263.5675,0.047802
1264.4994,0.048097
1265.4312,0.048769
1266.3630,0.049476
1267.2949,0.049993
1268.2267,0.050432
1269.1585,0.051101
1270.0904,0.051753
1271.0222,0.052236
1271.9540,0.052514
1272.8859,0.052773
1273.8177,0.053182
1274.7495,0.053433
1275.6814,0.053144
1276.6132,0.052818
1277.5450,0.052690
1278.4769,0.052332
1279.4087,0.051869
1280.3405,0.051448
1281.2724,0.050816
1282.2042,0.050386
1283.1361,0.050125
1284.0679,0.049892
1284.9997,0.049621
1285.9316,0.049313
1286.8634,0.049024
1287.7952,0.048947
1288.7271,0.048911
1289.6589,0.048830
1290.5907,0.048667
1291.5226,0.048837
1292.4544,0.048967
1293.3862,0.049065
1294.3181,0.049160
1295.2499,0.049256
1296.1817,0.049588
1297.1136,0.049911
1298.0454,0.050082
1298.9772,0.050387
1299.9091,0.050568
1300.8409,0.050788
1301.7727,0.051191
1302.7046,0.051403
1303.6364,0.051457
1304.5682,0.051551
1305.5001,0.052008
1306.4319,0.052481
1307.3637,0.052760
1308.2956,0.053147
1309.2274,0.053529
1310.1592,0.053673
1311.0911,0.053624
1312.0229,0.053922
1312.9548,0.054339
1313.8866,0.054453
1314.8184,0.054876
1315.7503,0.055241
1316.6821,0.055296
1317.6139,0.055438
1318.5458,0.055671
1319.4776,0.055999
1320.4094,0.056042
1321.3413,0.055865
1322.2731,0.055952
1323.2049,0.055937
1324.1368,0.056040
1325.0686,0.056085
1326.0004,0.056012
1326.9323,0.056290
1327.8641,0.056138
1328.7959,0.055788
1329.7278,0.055658
1330.6596,0.055489
1331.5914,0.055137
1332.5233,0.054892
1333.4551,0.054632
1334.3869,0.054337
1335.3188,0.054089
1336.2506,0.053916
1337.1824,0.053893
1338.1143,0.053677
1339.0461,0.053277
1339.9780,0.053372
1340.9098,0.053166
1341.8416,0.052725
1342.7735,0.052103
1343.7053,0.051645
1344.6371,0.051424
1345.5690,0.051192
1346.5008,0.050751
1347.4326,0.050491
1348.3645,0.050138
1349.2963,0.049675
1350.2281,0.049522
1351.1600,0.049292
1352.0918,0.049129
1353.0236,0.048967
1353.9555,0.048750
1354.8873,0.048940
1355.8191,0.049079
1356.7510,0.048839
1357.6828,0.048790
1358.6146,0.048924
1359.5465,0.048751
1360.4783,0.048601
1361.4101,0.049076
1362.3420,0.049507
1363.2738,0.049765
1364.2056,0.050123
1365.1375,0.049629
1366.0693,0.049759
1367.0012,0.050454
1367.9330,0.051021
1368.8648,0.051959
1369.7967,0.053103
1370.7285,0.053472
1371.6603,0.054172
1372.5922,0.055318
1373.5240,0.056945
1374.4558,0.059285
1375.3877,0.060940
1376.3195,0.061640
1377.2513,0.062117
1378.1832,0.062917
1379.1150,0.063865
1380.0468,0.064425
1380.9787,0.065041
1381.9105,0.065474
1382.8423,0.065846
1383.7742,0.065984
1384.7060,0.065848
1385.6378,0.065608
1386.5697,0.065684
1387.5015,0.065973
1388.4333,0.066380
1389.3652,0.065467
1390.2970,0.064373
1391.2288,0.063851
1392.1607,0.063009
1393.0925,0.062158
1394.0244,0.061921
1394.9562,0.062878
1395.8880,0.063587
1396.8199,0.062465
1397.7517,0.061689
1398.6835,0.062305
1399.6154,0.063275
1400.5472,0.063397
1401.4790,0.062698
1402.4109,0.062455
1403.3427,0.062703
1404.2745,0.063144
1405.2064,0.063940
1406.1382,0.064665
1407.0700,0.064333
1408.0019,0.064019
1408.9337,0.064355
1409.8655,0.064523
1410.7974,0.064344
1411.7292,0.064257
1412.6610,0.064264
1413.5929,0.064109
1414.5247,0.064129
1415.4565,0.063881
1416.3884,0.063472
1417.3202,0.063582
1418.2520,0.064185
1419.1839,0.064646
1420.1157,0.065634
1421.0476,0.064760
1421.9794,0.063091
1422.9112,0.062796
1423.8431,0.063031
1424.7749,0.063251
1425.7067,0.062196
1426.6386,0.061330
1427.5704,0.060756
1428.5022,0.060068
1429.4341,0.059685
1430.3659,0.059960
1431.2977,0.059718
1432.2296,0.058288
1433.1614,0.057418
1434.0932,0.057051
1435.0251,0.056426
1435.9569,0.055956
1436.8887,0.057269
1437.8206,0.058316
1438.7524,0.056422
1439.6842,0.055695
1440.6161,0.055691
1441.5479,0.055653
1442.4797,0.055982
1443.4116,0.056078
1444.3434,0.055991
1445.2752,0.056283
1446.2071,0.057075
1447.1389,0.058251
1448.0707,0.059791
1449.0026,0.061082
1449.9344,0.060912
1450.8663,0.060787
1451.7981,0.060982
1452.7299,0.061118
1453.6618,0.061009
1454.5936,0.060136
1455.5254,0.060031
1456.4573,0.060789
1457.3891,0.061433
1458.3209,0.059912
1459.2528,0.057400
1460.1846,0.055507
1461.1164,0.053163
1462.0483,0.051277
1462.9801,0.049970
1463.9119,0.048921
1464.8438,0.048849
1465.7756,0.049234
1466.7074,0.047645
1467.6393,0.045921
1468.5711,0.045149
1469.5029,0.044507
1470.4348,0.044202
1471.3666,0.044053
1472.2984,0.044521
1473.2303,0.045010
1474.1621,0.044712
1475.0939,0.044337
1476.0258,0.044210
1476.9576,0.045141
1477.8895,0.045015
1478.8213,0.044107
1479.7531,0.044041
1480.6850,0.044365
1481.6168,0.044914
1482.5486,0.045077
1483.4805,0.044525
1484.4123,0.044143
1485.3441,0.043851
1486.2760,0.043638
1487.2078,0.043734
1488.1396,0.044077
1489.0715,0.043767
1490.0033,0.043640
1490.9351,0.043573
1491.8670,0.042392
1492.7988,0.041366
1493.7306,0.041109
1494.6625,0.040751
1495.5943,0.040436
1496.5261,0.040766
1497.4580,0.040580
1498.3898,0.039509
1499.3216,0.040186
1500.2535,0.040323
1501.1853,0.039163
1502.1171,0.038905
1503.0490,0.038447
1503.9808,0.037945
1504.9127,0.037905
1505.8445,0.038641
1506.7763,0.040630
1507.7082,0.040871
1508.6400,0.039417
1509.5718,0.039435
1510.5037,0.039571
1511.4355,0.039185
1512.3673,0.038575
1513.2992,0.038517
1514.2310,0.038145
1515.1628,0.038403
1516.0947,0.038986
1517.0265,0.038870
1517.9583,0.038720
1518.8902,0.037888
1519.8220,0.037470
1520.7538,0.039111
1521.6857,0.040853
1522.6175,0.039348
1523.5493,0.037622
1524.4812,0.037391
1525.4130,0.038073
1526.3448,0.039503
1527.2767,0.039467
1528.2085,0.039416
1529.1403,0.039355
1530.0722,0.038652
1531.0040,0.038458
1531.9359,0.039107
1532.8677,0.039743
1533.7995,0.040444
1534.7314,0.040791
1535.6632,0.039149
1536.5950,0.038629
1537.5269,0.038853
1538.4587,0.039436
1539.3905,0.041044
1540.3224,0.041945
1541.2542,0.040684
1542.1860,0.040399
1543.1179,0.040808
1544.0497,0.040402
1544.9815,0.040556
1545.9134,0.041759
1546.8452,0.041571
1547.7770,0.040605
1548.7089,0.040883
1549.6407,0.041577
1550.5725,0.042577
1551.5044,0.042530
1552.4362,0.041599
1553.3680,0.041391
1554.2999,0.042109
1555.2317,0.042922
1556.1635,0.041496
1557.0954,0.041414
1558.0272,0.044148
1558.9591,0.046807
1559.8909,0.047507
1560.8227,0.047793
1561.7546,0.045633
1562.6864,0.044039
1563.6182,0.044129
1564.5501,0.044415
1565.4819,0.045288
1566.4137,0.045423
1567.3456,0.045260
1568.2774,0.045952
1569.2092,0.046827
1570.1411,0.048402
1571.0729,0.048916
1572.0047,0.047713
1572.9366,0.047416
1573.8684,0.047678
1574.8002,0.048193
1575.7321,0.049117
1576.6639,0.051548
1577.5957,0.053510
1578.5276,0.052071
1579.4594,0.051622
1580.3912,0.052313
1581.3231,0.053020
1582.2549,0.053494
1583.1867,0.054170
1584.1186,0.054822
1585.0504,0.055308
1585.9822,0.055914
1586.9141,0.056743
1587.8459,0.058007
1588.7778,0.058961
1589.7096,0.059546
1590.6414,0.060308
1591.5733,0.060975
1592.5051,0.061940
1593.4369,0.062902
1594.3688,0.063624
1595.3006,0.064700
1596.2324,0.065510
1597.1643,0.066415
1598.0961,0.067740
1599.0279,0.069239
1599.9598,0.070524
1600.8916,0.071631
1601.8234,0.073046
1602.7553,0.074812
1603.6871,0.076225
1604.6189,0.077100
1605.5508,0.078229
1606.4826,0.080220
1607.4144,0.082171
1608.3463,0.083834
1609.2781,0.085349
1610.2099,0.087474
1611.1418,0.089331
1612.0736,0.090111
1613.0054,0.090842
1613.9373,0.092054
1614.8691,0.094501
1615.8010,0.097563
1616.7328,0.101347
1617.6646,0.106920
1618.5965,0.108975
1619.5283,0.107316
1620.4601,0.107221
1621.3920,0.109125
1622.3238,0.111745
1623.2556,0.114610
1624.1875,0.119655
1625.1193,0.123252
1626.0511,0.122388
1626.9830,0.122352
1627.9148,0.124457
1628.8466,0.128119
1629.7785,0.129603
1630.7103,0.128658
1631.6421,0.127840
1632.5740,0.128207
1633.5058,0.129524
1634.4376,0.131407
1635.3695,0.135296
1636.3013,0.143474
1637.2331,0.146235
1638.1650,0.142298
1639.0968,0.140091
1640.0286,0.138030
1640.9605,0.137173
1641.8923,0.137057
1642.8242,0.135876
1643.7560,0.134502
1644.6878,0.134022
1645.6197,0.134176
1646.5515,0.135202
1647.4833,0.136682
1648.4152,0.134709
1649.3470,0.131488
1650.2788,0.129599
1651.2107,0.128084
1652.1425,0.127114
1653.0743,0.130627
1654.0062,0.138582
1654.9380,0.136837
1655.8698,0.129656
1656.8017,0.125068
1657.7335,0.122577
1658.6653,0.120949
1659.5972,0.119178
1660.5290,0.117688
1661.4608,0.116449
1662.3927,0.115523
1663.3245,0.115168
1664.2563,0.113309
1665.1882,0.109286
1666.1200,0.106976
1667.0518,0.105605
1667.9837,0.104121
1668.9155,0.103391
1669.8474,0.103601
1670.7792,0.101862
1671.7110,0.098926
1672.6429,0.096810
1673.5747,0.093915
1674.5065,0.091872
1675.4384,0.092016
1676.3702,0.092021
1677.3020,0.088131
1678.2339,0.085464
1679.1657,0.084425
1680.0975,0.082900
1681.0294,0.081610
1681.9612,0.079536
1682.8930,0.077327
1683.8249,0.076971
1684.7567,0.076816
1685.6885,0.073999
1686.6204,0.070794
1687.5522,0.069123
1688.4840,0.068288
1689.4159,0.067203
1690.3477,0.065515
1691.2795,0.064089
1692.2114,0.062426
1693.1432,0.060697
1694.0750,0.059590
1695.0069,0.058925
1695.9387,0.058756
1696.8706,0.057602
1697.8024,0.053894
1698.7342,0.052099
1699.6661,0.051907
1700.5979,0.052342
1701.5297,0.051323
1702.4616,0.046701
1703.3934,0.045769
1704.3252,0.046205
1705.2571,0.046009
1706.1889,0.044484
1707.1207,0.043165
1708.0526,0.042114
1708.9844,0.040808
1709.9162,0.040060
1710.8481,0.039692
1711.7799,0.038641
1712.7117,0.037077
1713.6436,0.036379
1714.5754,0.036272
1715.5072,0.035616
1716.4391,0.034234
1717.3709,0.033710
1718.3027,0.034308
1719.2346,0.033243
1720.1664,0.031112
1721.0982,0.030417
1722.0301,0.030366
1722.9619,0.030076
1723.8937,0.030011
1724.8256,0.029408
1725.7574,0.028149
1726.6893,0.027785
1727.6211,0.027675
1728.5529,0.027331
1729.4848,0.026965
1730.4166,0.026590
1731.3484,0.025765
1732.2803,0.024574
1733.2121,0.024727
1734.1439,0.025668
1735.0758,0.025472
1736.0076,0.022606
1736.9394,0.021109
1737.8713,0.021845
1738.8031,0.023015
1739.7349,0.023358
1740.6668,0.023240
1741.5986,0.021923
1742.5304,0.021260
1743.4623,0.022156
1744.3941,0.021873
1745.3259,0.020170
1746.2578,0.020034
1747.1896,0.020197
1748.1214,0.019927
1749.0533,0.019789
1749.9851,0.019902
1750.9169,0.019473
1751.8488,0.018893
1752.7806,0.018534
1753.7125,0.018107
1754.6443,0.018071
1755.5761,0.018177
1756.5080,0.018295
1757.4398,0.018161
1758.3716,0.016859
1759.3035,0.015959
1760.2353,0.016492
1761.1671,0.016856
1762.0990,0.017040
1763.0308,0.016778
1763.9626,0.015819
1764.8945,0.015617
1765.8263,0.015946
1766.7581,0.016216
1767.6900,0.016317
1768.6218,0.016431
1769.5536,0.015743
1770.4855,0.014591
1771.4173,0.015050
1772.3491,0.015929
1773.2810,0.015793
1774.2128,0.014211
1775.1446,0.012682
1776.0765,0.013225
1777.0083,0.014026
1777.9401,0.013925
1778.8720,0.013870
1779.8038,0.013930
1780.7357,0.013970
1781.6675,0.013609
1782.5993,0.012884
1783.5312,0.012825
1784.4630,0.013121
1785.3948,0.013284
1786.3267,0.013012
1787.2585,0.012666
1788.1903,0.013051
1789.1222,0.013087
1790.0540,0.013246
1790.9858,0.013801
1791.9177,0.013621
1792.8495,0.013029
1793.7813,0.012528
1794.7132,0.010967
1795.6450,0.010860
1796.5768,0.011750
1797.5087,0.011922
1798.4405,0.012098
1799.3723,0.012303
1800.3042,0.012121
1801.2360,0.011505
1802.1678,0.011387
1803.0997,0.011304
1804.0315,0.010687
1804.9633,0.010856
1805.8952,0.011593
1806.8270,0.011498
1807.7589,0.010774
1808.6907,0.010789
1809.6225,0.010904
1810.5544,0.010906
1811.4862,0.011282
1812.4180,0.011290
1813.3499,0.010833
1814.2817,0.010436
1815.2135,0.010360
1816.1454,0.010747
1817.0772,0.011185
1818.0090,0.011189
1818.9409,0.010694
1819.8727,0.009936
1820.8045,0.009775
1821.7364,0.010583
1822.6682,0.011023
1823.6000,0.010177
1824.5319,0.009830
1825.4637,0.010502
1826.3955,0.010731
1827.3274,0.009597
1828.2592,0.009320
1829.1910,0.010423
1830.1229,0.010892
1831.0547,0.010098
1831.9865,0.008611
1832.9184,0.008275
1833.8502,0.008966
1834.7821,0.009025
1835.7139,0.009185
1836.6457,0.009228
1837.5776,0.009355
1838.5094,0.009665
1839.4412,0.009259
1840.3731,0.009291
1841.3049,0.009986
1842.2367,0.010147
1843.1686,0.009416
1844.1004,0.008717
1845.0322,0.009180
1845.9641,0.008587
1846.8959,0.008098
1847.8277,0.009201
1848.7596,0.009321
1849.6914,0.008676
1850.6232,0.009024
1851.5551,0.009410
1852.4869,0.009053
1853.4187,0.007994
1854.3506,0.007780
1855.2824,0.008670
1856.2142,0.008951
1857.1461,0.008925
1858.0779,0.008983
1859.0097,0.009317
1859.9416,0.009571
1860.8734,0.009481
1861.8052,0.009023
1862.7371,0.009112
1863.6689,0.009601
1864.6008,0.009147
1865.5326,0.009254
1866.4644,0.009783
1867.3963,0.009105
1868.3281,0.009107
1869.2599,0.009761
1870.1918,0.008713
1871.1236,0.006881
1872.0554,0.006463
1872.9873,0.006891
1873.9191,0.007067
1874.8509,0.008098
1875.7828,0.009414
1876.7146,0.009417
1877.6464,0.008836
1878.5783,0.008753
1879.5101,0.008936
1880.4419,0.008808
1881.3738,0.008387
1882.3056,0.008460
1883.2374,0.008315
1884.1693,0.008080
1885.1011,0.008331
1886.0329,0.008058
1886.9648,0.008200
1887.8966,0.008765
1888.8284,0.008356
1889.7603,0.008118
1890.6921,0.007817
1891.6240,0.007647
1892.5558,0.008969
1893.4876,0.010007
1894.4195,0.009703
1895.3513,0.009000
1896.2831,0.008089
1897.2150,0.007416
1898.1468,0.007559
1899.0786,0.007787
1900.0105,0.008444
1900.9423,0.009032
1901.8741,0.008191
1902.8060,0.007611
1903.7378,0.007776
1904.6696,0.007808
1905.6015,0.008245
1906.5333,0.009545
1907.4651,0.010065
1908.3970,0.010000
1909.3288,0.009589
1910.2606,0.008186
1911.1925,0.007363
1912.1243,0.007537
1913.0561,0.007554
1913.9880,0.007141
1914.9198,0.007595
1915.8516,0.008781
1916.7835,0.008828
1917.7153,0.009320
1918.6472,0.010424
1919.5790,0.009295
1920.5108,0.008618
1921.4427,0.009226
1922.3745,0.009467
1923.3063,0.009262
1924.2382,0.008799
1925.1700,0.008449
1926.1018,0.008028
1927.0337,0.007916
1927.9655,0.008680
1928.8973,0.009741
1929.8292,0.010106
1930.7610,0.010347
1931.6928,0.009119
1932.6247,0.008515
1933.5565,0.009217
1934.4883,0.008831
1935.4202,0.007149
1936.3520,0.005962
1937.2838,0.006826
1938.2157,0.008380
1939.1475,0.008138
1940.0793,0.006815
1941.0112,0.006710
1941.9430,0.006658
1942.8748,0.005712
1943.8067,0.005950
1944.7385,0.007206
1945.6704,0.008772
1946.6022,0.008483
1947.5340,0.006247
1948.4659,0.006721
1949.3977,0.007387
1950.3295,0.006611
1951.2614,0.005824
1952.1932,0.005191
1953.1250,0.004806
1954.0569,0.005231
1954.9887,0.005681
1955.9205,0.006112
1956.8524,0.004956
1957.7842,0.003883
1958.7160,0.005457
1959.6479,0.005631
1960.5797,0.005186
1961.5115,0.005083
1962.4434,0.007083
1963.3752,0.008804
1964.3070,0.007537
1965.2389,0.005033
1966.1707,0.005844
1967.1025,0.006119
1968.0344,0.004807
1968.9662,0.004176
1969.8980,0.004360
1970.8299,0.004824
1971.7617,0.006251
1972.6936,0.005185
1973.6254,0.002319
1974.5572,0.003864
1975.4891,0.002728
1976.4209,-0.000567
1977.3527,0.000101
1978.2846,0.001678
1979.2164,0.002234
1980.1482,0.003769
1981.0801,0.007317
1982.0119,0.007264
1982.9437,0.004780
1983.8756,0.004292
1984.8074,0.005612
1985.7392,0.006199
1986.6711,0.005466
1987.6029,0.006019
1988.5347,0.004211
1989.4666,0.002734
1990.3984,0.004963
1991.3302,0.007373
1992.2621,0.005954
1993.1939,0.004592
1994.1257,0.005605
1995.0576,0.003783
1995.9894,0.003906
1996.9212,0.007037
1997.8531,0.008864
1998.7849,0.007861
1999.7167,0.005715
2000.6486,0.004676
2001.5804,0.006588
2002.5123,0.007338
2003.4441,0.007563
2004.3759,0.008006
2005.3078,0.005260
2006.2396,0.002492
2007.1714,0.004935
2008.1033,0.005267
2009.0351,0.005318
2009.9669,0.005021
2010.8988,0.003471
2011.8306,0.003938
2012.7624,0.005467
2013.6943,0.005784
2014.6261,0.005246
2015.5579,0.007342
2016.4898,0.007555
2017.4216,0.006052
2018.3534,0.004672
2019.2853,0.004702
2020.2171,0.004863
2021.1489,0.004777
2022.0808,0.004731
2023.0126,0.003857
2023.9444,0.003805
2024.8763,0.002869
2025.8081,0.001385
2026.7399,0.003596
2027.6718,0.006785
2028.6036,0.006583
2029.5355,0.006200
2030.4673,0.004589
2031.3991,0.000073
2032.3310,0.001034
2033.2628,0.005263
2034.1946,0.002497
2035.1265,0.000287
2036.0583,0.002631
2036.9901,0.002918
2037.9220,0.003578
2038.8538,0.006587
2039.7856,0.007300
2040.7175,0.005364
2041.6493,0.004377
2042.5811,0.004618
2043.5130,0.004895
2044.4448,0.005108
2045.3766,0.006785
2046.3085,0.009707
2047.2403,0.008921
2048.1721,0.009465
2049.1040,0.011572
2050.0358,0.009811
2050.9676,0.007204
2051.8995,0.005779
2052.8313,0.005730
2053.7631,0.006521
2054.6950,0.008757
2055.6268,0.011118
2056.5587,0.010147
2057.4905,0.009064
2058.4223,0.009367
2059.3542,0.009048
2060.2860,0.008321
2061.2178,0.008350
2062.1497,0.009388
2063.0815,0.010927
2064.0133,0.011362
2064.9452,0.010408
2065.8770,0.010624
2066.8088,0.010707
2067.7407,0.010492
2068.6725,0.011151
2069.6043,0.010463
2070.5362,0.010220
2071.4680,0.009934
2072.3998,0.009960
2073.3317,0.011904
2074.2635,0.013043
2075.1953,0.012356
2076.1272,0.013025
2077.0590,0.012290
2077.9908,0.011697
2078.9227,0.011911
2079.8545,0.011183
2080.7863,0.011354
2081.7182,0.012297
2082.6500,0.012788
2083.5819,0.011914
2084.5137,0.011783
2085.4455,0.012792
2086.3774,0.011896
2087.3092,0.012166
2088.2410,0.012100
2089.1729,0.011316
2090.1047,0.012211
2091.0365,0.012557
2091.9684,0.011999
2092.9002,0.013136
2093.8320,0.013241
2094.7639,0.012343
2095.6957,0.012059
2096.6275,0.012169
2097.5594,0.012530
2098.4912,0.011404
2099.4230,0.010442
2100.3549,0.011178
2101.2867,0.011675
2102.2185,0.012472
2103.1504,0.013876
2104.0822,0.013495
2105.0140,0.012897
2105.9459,0.012295
2106.8777,0.012393
2107.8095,0.012500
2108.7414,0.012351
2109.6732,0.012557
2110.6051,0.011939
2111.5369,0.011662
2112.4687,0.013351
2113.4006,0.013580
2114.3324,0.013015
2115.2642,0.013845
2116.1961,0.012868
2117.1279,0.011122
2118.0597,0.011220
2118.9916,0.012550
2119.9234,0.013522
2120.8552,0.012244
2121.7871,0.012113
2122.7189,0.012042
2123.6507,0.012397
2124.5826,0.012886
2125.5144,0.012670
2126.4462,0.013349
2127.3781,0.013595
2128.3099,0.013001
2129.2417,0.012639
2130.1736,0.012370
2131.1054,0.012518
2132.0372,0.012326
2132.9691,0.012838
2133.9009,0.014251
2134.8327,0.011983
2135.7646,0.009406
2136.6964,0.010354
2137.6282,0.012877
2138.5601,0.015431
2139.4919,0.014581
2140.4238,0.013429
2141.3556,0.010840
2142.2874,0.008745
2143.2193,0.010111
2144.1511,0.010541
2145.0829,0.009269
2146.0148,0.010158
2146.9466,0.010490
2147.8784,0.007843
2148.8103,0.006583
2149.7421,0.010192
2150.6739,0.012174
2151.6058,0.012026
2152.5376,0.010907
2153.4694,0.010405
2154.4013,0.009835
2155.3331,0.006501
2156.2649,0.005795
2157.1968,0.008162
2158.1286,0.005722
2159.0604,0.005590
2159.9923,0.007518
2160.9241,0.006105
2161.8559,0.005084
2162.7878,0.002694
2163.7196,0.004529
2164.6514,0.009241
2165.5833,0.005943
2166.5151,0.001413
2167.4470,0.001620
2168.3788,0.002746
2169.3106,0.003282
2170.2425,0.005859
2171.1743,0.010937
2172.1061,0.010745
2173.0380,0.009305
2173.9698,0.005991
2174.9016,0.006945
2175.8335,0.010764
2176.7653,0.010607
2177.6971,0.008754
2178.6290,0.010035
2179.5608,0.010762
2180.4926,0.009625
2181.4245,0.008435
2182.3563,0.006471
2183.2881,0.004851
2184.2200,0.005813
2185.1518,0.007923
2186.0836,0.007691
2187.0155,0.005193
2187.9473,0.007039
2188.8791,0.008218
2189.8110,0.007007
2190.7428,0.004461
2191.6746,0.005471
2192.6065,0.007270
2193.5383,0.007635
2194.4702,0.007668
2195.4020,0.006964
2196.3338,0.005341
2197.2657,0.006330
2198.1975,0.008039
2199.1293,0.008577
2200.0612,0.009583
2200.9930,0.009035
2201.9248,0.007464
2202.8567,0.007163
2203.7885,0.006583
2204.7203,0.007040
2205.6522,0.007842
2206.5840,0.010563
2207.5158,0.010049
2208.4477,0.008272
2209.3795,0.008458
2210.3113,0.008824
2211.2432,0.008445
2212.1750,0.008697
2213.1068,0.007237
2214.0387,0.006320
2214.9705,0.008481
2215.9023,0.008673
2216.8342,0.007014
2217.7660,0.009387
2218.6978,0.009878
2219.6297,0.009528
2220.5615,0.009072
2221.4934,0.009763
2222.4252,0.010627
2223.3570,0.009834
2224.2889,0.010703
2225.2207,0.011266
2226.1525,0.011106
2227.0844,0.009429
2228.0162,0.008891
2228.9480,0.009294
2229.8799,0.008643
2230.8117,0.008057
2231.7435,0.007216
2232.6754,0.009263
2233.6072,0.008965
2234.5390,0.007952
2235.4709,0.007103
2236.4027,0.007134
2237.3345,0.008231
2238.2664,0.009122
2239.1982,0.008906
2240.1300,0.008741
2241.0619,0.008596
2241.9937,0.009180
2242.9255,0.010504
2243.8574,0.009694
2244.7892,0.008458
2245.7210,0.008718
2246.6529,0.009280
2247.5847,0.009288
2248.5166,0.009236
2249.4484,0.009124
2250.3802,0.008840
2251.3121,0.007834
2252.2439,0.009433
2253.1757,0.010704
2254.1076,0.010528
2255.0394,0.011115
2255.9712,0.009086
2256.9031,0.007589
2257.8349,0.008815
2258.7667,0.009075
2259.6986,0.009114
2260.6304,0.010632
2261.5622,0.010002
2262.4941,0.008431
2263.4259,0.008790
2264.3577,0.009283
2265.2896,0.008342
2266.2214,0.008329
2267.1532,0.009510
2268.0851,0.009115
2269.0169,0.008641
2269.9487,0.009131
2270.8806,0.010146
2271.8124,0.010477
2272.7442,0.009092
2273.6761,0.007996
2274.6079,0.008427
2275.5397,0.008192
2276.4716,0.008898
2277.4034,0.009406
2278.3353,0.009390
2279.2671,0.009220
2280.1989,0.008909
2281.1308,0.009639
2282.0626,0.008563
2282.9944,0.008577
2283.9263,0.009669
2284.8581,0.008816
2285.7899,0.007953
2286.7218,0.007547
2287.6536,0.007758
2288.5854,0.008480
2289.5173,0.009077
2290.4491,0.009070
2291.3809,0.009070
2292.3128,0.009032
2293.2446,0.009144
2294.1764,0.009369
2295.1083,0.008887
2296.0401,0.008948
2296.9719,0.009654
2297.9038,0.009408
2298.8356,0.008912
2299.7674,0.008932
2300.6993,0.009204
2301.6311,0.009604
2302.5629,0.009266
2303.4948,0.008963
2304.4266,0.009790
2305.3585,0.009279
2306.2903,0.008141
2307.2221,0.008687
2308.1540,0.009675
2309.0858,0.009671
2310.0176,0.008382
2310.9495,0.008431
2311.8813,0.008559
2312.8131,0.007820
2313.7450,0.008403
2314.6768,0.008823
2315.6086,0.008241
2316.5405,0.008561
2317.4723,0.008955
2318.4041,0.008464
2319.3360,0.008153
2320.2678,0.008066
2321.1996,0.007721
2322.1315,0.007059
2323.0633,0.006734
2323.9951,0.007787
2324.9270,0.008595
2325.8588,0.008445
2326.7906,0.008660
2327.7225,0.008837
2328.6543,0.008598
2329.5861,0.009045
2330.5180,0.009152
2331.4498,0.008778
2332.3817,0.007964
2333.3135,0.007566
2334.2453,0.007747
2335.1772,0.008138
2336.1090,0.008345
2337.0408,0.007863
2337.9727,0.007443
2338.9045,0.007699
2339.8363,0.008143
2340.7682,0.006834
2341.7000,0.006292
2342.6318,0.006860
2343.5637,0.007718
2344.4955,0.007904
2345.4273,0.007478
2346.3592,0.006728
2347.2910,0.007004
2348.2228,0.007726
2349.1547,0.007998
2350.0865,0.007561
2351.0183,0.007649
2351.9502,0.008245
2352.8820,0.008862
2353.8138,0.008431
2354.7457,0.007680
2355.6775,0.008052
2356.6093,0.007982
2357.5412,0.007411
2358.4730,0.006816
2359.4049,0.006399
2360.3367,0.006332
2361.2685,0.006538
2362.2004,0.006464
2363.1322,0.006455
2364.0640,0.006380
2364.9959,0.006884
2365.9277,0.007550
2366.8595,0.006414
2367.7914,0.006311
2368.7232,0.007004
2369.6550,0.006277
2370.5869,0.005354
2371.5187,0.006058
2372.4505,0.006526
2373.3824,0.007006
2374.3142,0.007957
2375.2460,0.008506
2376.1779,0.007598
2377.1097,0.006418
2378.0415,0.005882
2378.9734,0.005520
2379.9052,0.006700
2380.8370,0.007407
2381.7689,0.006500
2382.7007,0.005498
2383.6325,0.005706
2384.5644,0.006699
2385.4962,0.007320
2386.4281,0.007470
2387.3599,0.007543
2388.2917,0.007578
2389.2236,0.007702
2390.1554,0.006947
2391.0872,0.005616
2392.0191,0.005988
2392.9509,0.006497
2393.8827,0.006879
2394.8146,0.007098
2395.7464,0.006429
2396.6782,0.006357
2397.6101,0.007377
2398.5419,0.007507
2399.4737,0.006870
2400.4056,0.006884
2401.3374,0.006912
2402.2692,0.006822
2403.2011,0.006692
2404.1329,0.007701
2405.0647,0.007349
2405.9966,0.005998
2406.9284,0.005669
2407.8602,0.006300
2408.7921,0.006458
2409.7239,0.007028
2410.6557,0.007077
2411.5876,0.007007
2412.5194,0.007598
2413.4512,0.006855
2414.3831,0.006026
2415.3149,0.005953
2416.2468,0.006319
2417.1786,0.006908
2418.1104,0.006957
2419.0423,0.006881
2419.9741,0.007032
2420.9059,0.006347
2421.8378,0.006563
2422.7696,0.006474
2423.7014,0.006238
2424.6333,0.006277
2425.5651,0.006306
2426.4969,0.006883
2427.4288,0.006534
2428.3606,0.006282
2429.2924,0.006439
2430.2243,0.006261
2431.1561,0.005575
2432.0879,0.004998
2433.0198,0.004833
2433.9516,0.005377
2434.8834,0.006247
2435.8153,0.005259
2436.7471,0.004117
2437.6789,0.005099
2438.6108,0.006236
2439.5426,0.005650
2440.4744,0.004986
2441.4063,0.004782
2442.3381,0.004483
2443.2700,0.004259
2444.2018,0.004817
2445.1336,0.005575
2446.0655,0.005305
2446.9973,0.004595
2447.9291,0.005327
2448.8610,0.006023
2449.7928,0.005970
2450.7246,0.005962
2451.6565,0.006051
2452.5883,0.005671
2453.5201,0.005007
2454.4520,0.005167
2455.3838,0.005386
2456.3156,0.005225
2457.2475,0.005083
2458.1793,0.005119
2459.1111,0.004714
2460.0430,0.004103
2460.9748,0.004210
2461.9066,0.004955
2462.8385,0.005226
2463.7703,0.004819
2464.7021,0.004313
2465.6340,0.004289
2466.5658,0.004583
2467.4976,0.005237
2468.4295,0.005679
2469.3613,0.005588
2470.2932,0.006440
2471.2250,0.006661
2472.1568,0.006315
2473.0887,0.004844
2474.0205,0.003819
2474.9523,0.004825
2475.8842,0.005602
2476.8160,0.005397
2477.7478,0.005661
2478.6797,0.005661
2479.6115,0.005377
2480.5433,0.004290
2481.4752,0.004728
2482.4070,0.005761
2483.3388,0.005647
2484.2707,0.005334
2485.2025,0.005836
2486.1343,0.005998
2487.0662,0.005614
2487.9980,0.005895
2488.9298,0.006045
2489.8617,0.005092
2490.7935,0.004884
2491.7253,0.004598
2492.6572,0.005105
2493.5890,0.005215
2494.5208,0.005170
2495.4527,0.005362
2496.3845,0.005279
2497.3164,0.004735
2498.2482,0.005131
2499.1800,0.005234
2500.1119,0.004511
2501.0437,0.004499
2501.9755,0.005121
2502.9074,0.005694
2503.8392,0.005520
2504.7710,0.006074
2505.7029,0.006338
2506.6347,0.005230
2507.5665,0.004625
2508.4984,0.004905
2509.4302,0.005012
2510.3620,0.005118
2511.2939,0.005507
2512.2257,0.005398
2513.1575,0.005052
2514.0894,0.004584
2515.0212,0.005185
2515.9530,0.005871
2516.8849,0.005802
2517.8167,0.005887
2518.7485,0.005273
2519.6804,0.004358
2520.6122,0.004401
2521.5440,0.004477
2522.4759,0.004954
2523.4077,0.005362
2524.3396,0.006013
2525.2714,0.006211
2526.2032,0.005399
2527.1351,0.004245
2528.0669,0.003910
2528.9987,0.004188
2529.9306,0.004894
2530.8624,0.005285
2531.7942,0.005518
2532.7261,0.005590
2533.6579,0.005157
2534.5897,0.004857
2535.5216,0.004730
2536.4534,0.004898
2537.3852,0.005027
2538.3171,0.005220
2539.2489,0.004828
2540.1807,0.004917
2541.1126,0.005743
2542.0444,0.005770
2542.9762,0.005417
2543.9081,0.004939
2544.8399,0.003540
2545.7717,0.003523
2546.7036,0.005700
2547.6354,0.006269
2548.5672,0.005023
2549.4991,0.004876
2550.4309,0.005345
2551.3627,0.005350
2552.2946,0.005194
2553.2264,0.004732
2554.1583,0.004462
2555.0901,0.004940
2556.0219,0.005386
2556.9538,0.004773
2557.8856,0.004233
2558.8174,0.004347
2559.7493,0.004265
2560.6811,0.003950
2561.6129,0.004233
2562.5448,0.004565
2563.4766,0.005249
2564.4084,0.005849
2565.3403,0.005185
2566.2721,0.004430
2567.2039,0.004398
2568.1358,0.004170
2569.0676,0.003136
2569.9994,0.003283
2570.9313,0.004257
2571.8631,0.004358
2572.7949,0.003788
2573.7268,0.003378
2574.6586,0.004396
2575.5904,0.004561
2576.5223,0.004327
2577.4541,0.004459
2578.3859,0.003685
2579.3178,0.003590
2580.2496,0.004650
2581.1815,0.005391
2582.1133,0.005565
2583.0451,0.004149
2583.9770,0.003783
2584.9088,0.004627
2585.8406,0.004863
2586.7725,0.004911
2587.7043,0.005094
2588.6361,0.004713
2589.5680,0.004158
2590.4998,0.003840
2591.4316,0.004535
2592.3635,0.005425
2593.2953,0.005081
2594.2271,0.004358
2595.1590,0.004522
2596.0908,0.004333
2597.0226,0.003646
2597.9545,0.003705
2598.8863,0.004207
2599.8181,0.004607
2600.7500,0.004461
2601.6818,0.004063
2602.6136,0.004211
2603.5455,0.005195
2604.4773,0.005354
2605.4091,0.004730
2606.3410,0.005093
2607.2728,0.005221
2608.2047,0.005181
2609.1365,0.005441
2610.0683,0.004971
2611.0002,0.004370
2611.9320,0.005293
2612.8638,0.005536
2613.7957,0.004650
2614.7275,0.004602
2615.6593,0.005080
2616.5912,0.005248
2617.5230,0.005510
2618.4548,0.005341
2619.3867,0.004954
2620.3185,0.004675
2621.2503,0.004524
2622.1822,0.004740
2623.1140,0.005334
2624.0458,0.005722
2624.9777,0.005834
2625.9095,0.005622
2626.8413,0.005030
2627.7732,0.005019
2628.7050,0.005383
2629.6368,0.005505
2630.5687,0.005499
2631.5005,0.005736
2632.4323,0.005722
2633.3642,0.005438
2634.2960,0.005299
2635.2279,0.005300
2636.1597,0.005752
2637.0915,0.006063
2638.0234,0.006105
2638.9552,0.005889
2639.8870,0.005548
2640.8189,0.005608
2641.7507,0.005618
2642.6825,0.005718
2643.6144,0.005960
2644.5462,0.006058
2645.4780,0.006120
2646.4099,0.005990
2647.3417,0.006240
2648.2735,0.006021
2649.2054,0.005960
2650.1372,0.006105
2651.0690,0.006069
2652.0009,0.006277
2652.9327,0.006304
2653.8645,0.006371
2654.7964,0.006920
2655.7282,0.006889
2656.6600,0.006742
2657.5919,0.006379
2658.5237,0.005918
2659.4555,0.006234
2660.3874,0.006743
2661.3192,0.006631
2662.2511,0.006719
2663.1829,0.006740
2664.1147,0.006422
2665.0466,0.006785
2665.9784,0.007162
2666.9102,0.006835
2667.8421,0.006506
2668.7739,0.006577
2669.7057,0.006847
2670.6376,0.006584
2671.5694,0.006558
2672.5012,0.006566
2673.4331,0.006385
2674.3649,0.007027
2675.2967,0.007516
2676.2286,0.007166
2677.1604,0.006851
2678.0922,0.006707
2679.0241,0.006679
2679.9559,0.006816
2680.8877,0.007080
2681.8196,0.007123
2682.7514,0.007232
2683.6832,0.007463
2684.6151,0.007789
2685.5469,0.007532
2686.4787,0.007348
2687.4106,0.007630
2688.3424,0.008005
2689.2742,0.008332
2690.2061,0.008247
2691.1379,0.007991
2692.0698,0.008005
2693.0016,0.007979
2693.9334,0.008271
2694.8653,0.008274
2695.7971,0.008119
2696.7289,0.008241
2697.6608,0.008258
2698.5926,0.007981
2699.5244,0.007969
2700.4563,0.008117
2701.3881,0.008097
2702.3199,0.008128
2703.2518,0.008331
2704.1836,0.008356
2705.1154,0.008080
2706.0473,0.008157
2706.9791,0.008464
2707.9109,0.008267
2708.8428,0.008438
2709.7746,0.008977
2710.7064,0.009337
2711.6383,0.009780
2712.5701,0.009711
2713.5019,0.009218
2714.4338,0.008977
2715.3656,0.009156
2716.2974,0.009220
2717.2293,0.009278
2718.1611,0.009469
2719.0930,0.009253
2720.0248,0.009073
2720.9566,0.009075
2721.8885,0.009153
2722.8203,0.009519
2723.7521,0.009711
2724.6840,0.009702
2725.6158,0.010153
2726.5476,0.010470
2727.4795,0.010557
2728.4113,0.010762
2729.3431,0.010872
2730.2750,0.010811
2731.2068,0.010392
2732.1386,0.010343
2733.0705,0.010731
2734.0023,0.011182
2734.9341,0.011222
2735.8660,0.010694
2736.7978,0.010727
2737.7296,0.010582
2738.6615,0.010698
2739.5933,0.011239
2740.5251,0.011463
2741.4570,0.011334
2742.3888,0.011380
2743.3206,0.011811
2744.2525,0.011561
2745.1843,0.010705
2746.1162,0.010704
2747.0480,0.010970
2747.9798,0.010990
2748.9117,0.011011
2749.8435,0.011137
2750.7753,0.011091
2751.7072,0.011187
2752.6390,0.011144
2753.5708,0.011273
2754.5027,0.012036
2755.4345,0.012491
2756.3663,0.012152
2757.2982,0.011875
2758.2300,0.012139
2759.1618,0.012314
2760.0937,0.012456
2761.0255,0.012540
2761.9573,0.012245
2762.8892,0.012110
2763.8210,0.011836
2764.7528,0.011825
2765.6847,0.012239
2766.6165,0.012219
2767.5483,0.011921
2768.4802,0.011821
2769.4120,0.011918
2770.3438,0.011896
2771.2757,0.012335
2772.2075,0.012496
2773.1394,0.011877
2774.0712,0.011719
2775.0030,0.011966
2775.9349,0.012350
2776.8667,0.012854
2777.7985,0.012718
2778.7304,0.012286
2779.6622,0.012854
2780.5940,0.013414
2781.5259,0.013165
2782.4577,0.012941
2783.3895,0.012778
2784.3214,0.012698
2785.2532,0.012968
2786.1850,0.013055
2787.1169,0.013218
2788.0487,0.013840
2788.9805,0.014316
2789.9124,0.014017
2790.8442,0.013921
2791.7760,0.014102
2792.7079,0.014105
2793.6397,0.014337
2794.5715,0.014558
2795.5034,0.014400
2796.4352,0.014504
2797.3670,0.015017
2798.2989,0.015034
2799.2307,0.015080
2800.1626,0.015344
2801.0944,0.015614
2802.0262,0.016140
2802.9581,0.016611
2803.8899,0.016505
2804.8217,0.016521
2805.7536,0.016513
2806.6854,0.016628
2807.6172,0.017233
2808.5491,0.017458
2809.4809,0.017369
2810.4127,0.017408
2811.3446,0.017278
2812.2764,0.017327
2813.2082,0.017909
2814.1401,0.018439
2815.0719,0.018679
2816.0037,0.018764
2816.9356,0.018804
2817.8674,0.018915
2818.7992,0.018809
2819.7311,0.018754
2820.6629,0.019263
2821.5947,0.019749
2822.5266,0.019606
2823.4584,0.019737
2824.3902,0.020410
2825.3221,0.020401
2826.2539,0.020159
2827.1857,0.020299
2828.1176,0.020745
2829.0494,0.021280
2829.9813,0.021167
2830.9131,0.020662
2831.8449,0.021004
2832.7768,0.021484
2833.7086,0.021325
2834.6404,0.021233
2835.5723,0.021982
2836.5041,0.022828
2837.4359,0.022871
2838.3678,0.022663
2839.2996,0.022910
2840.2314,0.023690
2841.1633,0.024455
2842.0951,0.024407
2843.0269,0.024118
2843.9588,0.023801
2844.8906,0.024033
2845.8224,0.024619
2846.7543,0.024746
2847.6861,0.024666
2848.6179,0.025214
2849.5498,0.025200
2850.4816,0.024847
2851.4134,0.025346
2852.3453,0.026246
2853.2771,0.026593
2854.2089,0.026539
2855.1408,0.026601
2856.0726,0.026891
2857.0045,0.026965
2857.9363,0.027314
2858.8681,0.027979
2859.8000,0.028653
2860.7318,0.028965
2861.6636,0.029174
2862.5955,0.029814
2863.5273,0.030337
2864.4591,0.030367
2865.3910,0.030801
2866.3228,0.031527
2867.2546,0.031610
2868.1865,0.031595
2869.1183,0.032345
2870.0501,0.033706
2870.9820,0.034711
2871.9138,0.035088
2872.8456,0.035577
2873.7775,0.036082
2874.7093,0.036968
2875.6411,0.037796
2876.5730,0.038223
2877.5048,0.039011
2878.4366,0.040453
2879.3685,0.041509
2880.3003,0.041284
2881.2321,0.040898
2882.1640,0.041318
2883.0958,0.041620
2884.0277,0.041736
2884.9595,0.042180
2885.8913,0.042949
2886.8232,0.043956
2887.7550,0.044370
2888.6868,0.044301
2889.6187,0.044906
2890.5505,0.045570
2891.4823,0.045963
2892.4142,0.046234
2893.3460,0.046305
2894.2778,0.046698
2895.2097,0.047704
2896.1415,0.048691
2897.0733,0.048346
2898.0052,0.047922
2898.9370,0.048667
2899.8688,0.049041
2900.8007,0.049462
2901.7325,0.050136
2902.6643,0.049705
2903.5962,0.049331
2904.5280,0.049543
2905.4598,0.049319
2906.3917,0.049233
2907.3235,0.049412
2908.2553,0.049657
2909.1872,0.049074
2910.1190,0.047927
2911.0509,0.047518
2911.9827,0.047653
2912.9145,0.047688
2913.8464,0.047419
2914.7782,0.046233
2915.7100,0.045466
2916.6419,0.045168
2917.5737,0.044489
2918.5055,0.044618
2919.4374,0.045449
2920.3692,0.045281
2921.3010,0.045177
2922.2329,0.046206
2923.1647,0.046583
2924.0965,0.046140
2925.0284,0.045997
2925.9602,0.046226
2926.8920,0.046598
2927.8239,0.046524
2928.7557,0.046269
2929.6875,0.046762
2930.6194,0.047642
2931.5512,0.048166
2932.4830,0.049035
2933.4149,0.049549
2934.3467,0.049102
2935.2785,0.048455
2936.2104,0.048876
2937.1422,0.049375
2938.0741,0.049154
2939.0059,0.049264
2939.9377,0.050186
2940.8696,0.050880
2941.8014,0.050808
2942.7332,0.050130
2943.6651,0.049526
2944.5969,0.049479
2945.5287,0.049699
2946.4606,0.049768
2947.3924,0.050222
2948.3242,0.050330
2949.2561,0.049933
2950.1879,0.049977
2951.1197,0.049781
2952.0516,0.049610
2952.9834,0.050449
2953.9152,0.051059
2954.8471,0.050806
2955.7789,0.050158
2956.7107,0.050331
2957.6426,0.051225
2958.5744,0.052762
2959.5062,0.054102
2960.4381,0.054610
2961.3699,0.055327
2962.3017,0.056027
2963.2336,0.056905
2964.1654,0.058775
2965.0972,0.060662
2966.0291,0.063040
2966.9609,0.065270
2967.8928,0.066444
2968.8246,0.068844
2969.7564,0.072356
2970.6883,0.074744
2971.6201,0.077054
2972.5519,0.079688
2973.4838,0.082363
2974.4156,0.085020
2975.3474,0.087987
2976.2793,0.090660
2977.2111,0.092953
2978.1429,0.095030
2979.0748,0.095551
2980.0066,0.095497
2980.9384,0.095243
2981.8703,0.094536
2982.8021,0.094026
2983.7339,0.092269
2984.6658,0.089938
2985.5976,0.088099
2986.5294,0.085438
2987.4613,0.082150
2988.3931,0.079149
2989.3249,0.075938
2990.2568,0.073609
2991.1886,0.071878
2992.1204,0.069829
2993.0523,0.067897
2993.9841,0.066349
2994.9160,0.064836
2995.8478,0.062844
2996.7796,0.060950
2997.7115,0.059527
2998.6433,0.057829
2999.5751,0.057033
3000.5070,0.057196
3001.4388,0.056950
3002.3706,0.056046
3003.3025,0.055670
3004.2343,0.055612
3005.1661,0.055392
3006.0980,0.055156
3007.0298,0.055393
3007.9616,0.055457
3008.8935,0.054858
3009.8253,0.054675
3010.7571,0.055306
3011.6890,0.055807
3012.6208,0.055586
3013.5526,0.055493
3014.4845,0.055732
3015.4163,0.056327
3016.3481,0.056946
3017.2800,0.057003
3018.2118,0.056845
3019.1436,0.055951
3020.0755,0.055775
3021.0073,0.057192
3021.9392,0.058419
3022.8710,0.058493
3023.8028,0.058334
3024.7347,0.058820
3025.6665,0.059466
3026.5983,0.059438
3027.5302,0.059514
3028.4620,0.059665
3029.3938,0.059790
3030.3257,0.060664
3031.2575,0.061956
3032.1893,0.062771
3033.1212,0.063549
3034.0530,0.063830
3034.9848,0.064260
3035.9167,0.065154
3036.8485,0.065818
3037.7803,0.066092
3038.7122,0.065753
3039.6440,0.066434
3040.5758,0.067806
3041.5077,0.068085
3042.4395,0.068166
3043.3713,0.069070
3044.3032,0.069720
3045.2350,0.069259
3046.1668,0.069334
3047.0987,0.070896
3048.0305,0.072398
3048.9624,0.072021
3049.8942,0.072068
3050.8260,0.072773
3051.7579,0.073444
3052.6897,0.074371
3053.6215,0.074625
3054.5534,0.075410
3055.4852,0.076787
3056.4170,0.076855
3057.3489,0.077095
3058.2807,0.078148
3059.2125,0.079041
3060.1444,0.079701
3061.0762,0.080387
3062.0080,0.081337
3062.9399,0.082401
3063.8717,0.082139
3064.8035,0.081658
3065.7354,0.083436
3066.6672,0.085349
3067.5990,0.086146
3068.5309,0.087043
3069.4627,0.087462
3070.3945,0.087649
3071.3264,0.087942
3072.2582,0.087524
3073.1900,0.088210
3074.1219,0.090495
3075.0537,0.091600
3075.9856,0.092494
3076.9174,0.093263
3077.8492,0.093906
3078.7811,0.095034
3079.7129,0.096078
3080.6447,0.096610
3081.5766,0.096587
3082.5084,0.096864
3083.4402,0.097844
3084.3721,0.099041
3085.3039,0.100151
3086.2357,0.101564
3087.1676,0.102551
3088.0994,0.102712
3089.0312,0.103421
3089.9631,0.104239
3090.8949,0.104973
3091.8267,0.105751
3092.7586,0.106273
3093.6904,0.107954
3094.6222,0.109626
3095.5541,0.110102
3096.4859,0.111390
3097.4177,0.112832
3098.3496,0.112818
3099.2814,0.112350
3100.2132,0.114285
3101.1451,0.116454
3102.0769,0.116783
3103.0087,0.117159
3103.9406,0.117852
3104.8724,0.119198
3105.8043,0.121320
3106.7361,0.122964
3107.6679,0.123817
3108.5998,0.123993
3109.5316,0.125020
3110.4634,0.126434
3111.3953,0.126225
3112.3271,0.126267
3113.2589,0.128070
3114.1908,0.129623
3115.1226,0.131250
3116.0544,0.133000
3116.9863,0.133678
3117.9181,0.134269
3118.8499,0.136192
3119.7818,0.137727
3120.7136,0.137468
3121.6454,0.136366
3122.5773,0.137322
3123.5091,0.139272
3124.4409,0.142058
3125.3728,0.144546
3126.3046,0.144878
3127.2364,0.145364
3128.1683,0.146326
3129.1001,0.147045
3130.0319,0.148518
3130.9638,0.149652
3131.8956,0.150181
3132.8275,0.151771
3133.7593,0.153962
3134.6911,0.155480
3135.6230,0.155900
3136.5548,0.157103
3137.4866,0.159030
3138.4185,0.160126
3139.3503,0.161168
3140.2821,0.162592
3141.2140,0.163217
3142.1458,0.163089
3143.0776,0.163511
3144.0095,0.165355
3144.9413,0.167483
3145.8731,0.168794
3146.8050,0.170242
3147.7368,0.172635
3148.6686,0.173451
3149.6005,0.173852
3150.5323,0.175455
3151.4641,0.177000
3152.3960,0.177834
3153.3278,0.179349
3154.2596,0.180441
3155.1915,0.180858
3156.1233,0.181735
3157.0551,0.182325
3157.9870,0.183455
3158.9188,0.185362
3159.8507,0.186570
3160.7825,0.188047
3161.7143,0.190580
3162.6462,0.192197
3163.5780,0.192615
3164.5098,0.193593
3165.4417,0.195136
3166.3735,0.195734
3167.3053,0.196552
3168.2372,0.198411
3169.1690,0.199315
3170.1008,0.199875
3171.0327,0.201911
3171.9645,0.203870
3172.8963,0.205738
3173.8282,0.207581
3174.7600,0.208185
3175.6918,0.207843
3176.6237,0.207389
3177.5555,0.208095
3178.4873,0.210492
3179.4192,0.213586
3180.3510,0.214016
3181.2828,0.214799
3182.2147,0.216496
3183.1465,0.216795
3184.0783,0.217642
3185.0102,0.218744
3185.9420,0.219637
3186.8739,0.221059
3187.8057,0.222615
3188.7375,0.224768
3189.6694,0.226472
3190.6012,0.227431
3191.5330,0.228645
3192.4649,0.228662
3193.3967,0.228406
3194.3285,0.229403
3195.2604,0.230564
3196.1922,0.232770
3197.1240,0.234213
3198.0559,0.235954
3198.9877,0.237838
3199.9195,0.238608
3200.8514,0.238584
3201.7832,0.240119
3202.7150,0.241774
3203.6469,0.242949
3204.5787,0.243608
3205.5105,0.244205
3206.4424,0.245048
3207.3742,0.246392
3208.3060,0.245684
3209.2379,0.247421
3210.1697,0.250302
3211.1015,0.249550
3212.0334,0.248732
3212.9652,0.250162
3213.8971,0.252032
3214.8289,0.253589
3215.7607,0.254124
3216.6926,0.255850
3217.6244,0.257190
3218.5562,0.257391
3219.4881,0.257577
3220.4199,0.259406
3221.3517,0.259663
3222.2836,0.258912
3223.2154,0.258542
3224.1472,0.259128
3225.0791,0.261368
3226.0109,0.263445
3226.9427,0.263330
3227.8746,0.264640
3228.8064,0.267007
3229.7382,0.266375
3230.6701,0.265529
3231.6019,0.267271
3232.5337,0.267866
3233.4656,0.268877
3234.3974,0.269336
3235.3292,0.270238
3236.2611,0.270660
3237.1929,0.268994
3238.1247,0.268780
3239.0566,0.269995
3239.9884,0.270088
3240.9202,0.271292
3241.8521,0.271778
3242.7839,0.272553
3243.7158,0.274295
3244.6476,0.275300
3245.5794,0.275421
3246.5113,0.275487
3247.4431,0.274324
3248.3749,0.274702
3249.3068,0.275008
3250.2386,0.273700
3251.1704,0.274106
3252.1023,0.275566
3253.0341,0.274888
3253.9659,0.275636
3254.8978,0.277374
3255.8296,0.278032
3256.7614,0.277707
3257.6933,0.279389
3258.6251,0.280383
3259.5569,0.280737
3260.4888,0.279427
3261.4206,0.278058
3262.3524,0.277625
3263.2843,0.278317
3264.2161,0.277796
3265.1479,0.278398
3266.0798,0.279464
3267.0116,0.280079
3267.9434,0.278811
3268.8753,0.278288
3269.8071,0.279544
3270.7390,0.280477
3271.6708,0.280561
3272.6026,0.281750
3273.5345,0.280897
3274.4663,0.280125
3275.3981,0.279320
3276.3300,0.280608
3277.2618,0.283104
3278.1936,0.281676
3279.1255,0.279538
3280.0573,0.280899
3280.9891,0.282664
3281.9210,0.284426
3282.8528,0.284251
3283.7846,0.281931
3284.7165,0.279402
3285.6483,0.279396
3286.5801,0.280304
3287.5120,0.282021
3288.4438,0.281800
3289.3756,0.283276
3290.3075,0.283517
3291.2393,0.283399
3292.1711,0.282840
3293.1030,0.281280
3294.0348,0.280312
3294.9666,0.281519
3295.8985,0.281914
3296.8303,0.281064
3297.7622,0.281035
3298.6940,0.282214
3299.6258,0.283414
3300.5577,0.285361
3301.4895,0.286381
3302.4213,0.285275
3303.3532,0.284174
3304.2850,0.284847
3305.2168,0.284808
3306.1487,0.286236
3307.0805,0.285315
3308.0123,0.283080
3308.9442,0.281782
3309.8760,0.281708
3310.8078,0.281988
3311.7397,0.283663
3312.6715,0.286046
3313.6033,0.286569
3314.5352,0.284335
3315.4670,0.284203
3316.3988,0.285854
3317.3307,0.286516
3318.2625,0.285897
3319.1943,0.287494
3320.1262,0.286589
3321.0580,0.285162
3321.9898,0.285324
3322.9217,0.284794
3323.8535,0.284581
3324.7854,0.286754
3325.7172,0.286347
3326.6490,0.286350
3327.5809,0.287889
3328.5127,0.287121
3329.4445,0.284142
3330.3764,0.285701
3331.3082,0.288008
3332.2400,0.289267
3333.1719,0.289591
3334.1037,0.288308
3335.0355,0.287293
3335.9674,0.289004
3336.8992,0.289606
3337.8310,0.288277
3338.7629,0.287369
3339.6947,0.288213
3340.6265,0.288319
3341.5584,0.289282
3342.4902,0.287042
3343.4220,0.286053
3344.3539,0.286094
3345.2857,0.285777
3346.2175,0.284986
3347.1494,0.286158
3348.0812,0.288647
3349.0130,0.291529
3349.9449,0.289009
3350.8767,0.286081
3351.8086,0.286611
3352.7404,0.288827
3353.6722,0.290020
3354.6041,0.288803
3355.5359,0.287231
3356.4677,0.287723
3357.3996,0.287787
3358.3314,0.290114
3359.2632,0.289680
3360.1951,0.285941
3361.1269,0.283879
3362.0587,0.285067
3362.9906,0.285884
3363.9224,0.287037
3364.8542,0.285645
3365.7861,0.283825
3366.7179,0.283328
3367.6497,0.284454
3368.5816,0.286130
3369.5134,0.285702
3370.4452,0.283730
3371.3771,0.284180
3372.3089,0.282809
3373.2407,0.283312
3374.1726,0.283807
3375.1044,0.282783
3376.0362,0.280389
3376.9681,0.282261
3377.8999,0.283281
3378.8317,0.281552
3379.7636,0.280619
3380.6954,0.281460
3381.6273,0.281000
3382.5591,0.282142
3383.4909,0.283577
3384.4228,0.283481
3385.3546,0.281342
3386.2864,0.278673
3387.2183,0.276727
3388.1501,0.276987
3389.0819,0.279166
3390.0138,0.280571
3390.9456,0.279854
3391.8774,0.278720
3392.8093,0.277332
3393.7411,0.276874
3394.6729,0.274993
3395.6048,0.274015
3396.5366,0.272825
3397.4684,0.270057
3398.4003,0.268015
3399.3321,0.270764
3400.2639,0.273158
3401.1958,0.273096
3402.1276,0.269624
3403.0594,0.268238
3403.9913,0.266612
3404.9231,0.265324
3405.8549,0.265623
3406.7868,0.268026
3407.7186,0.267773
3408.6505,0.266842
3409.5823,0.266462
3410.5141,0.262621
3411.4460,0.259539
3412.3778,0.262032
3413.3096,0.262679
3414.2415,0.260939
3415.1733,0.258024
3416.1051,0.256996
3417.0370,0.255261
3417.9688,0.255575
3418.9006,0.256068
3419.8325,0.254638
3420.7643,0.252608
3421.6961,0.253152
3422.6280,0.254382
3423.5598,0.254059
3424.4916,0.252588
3425.4235,0.252646
3426.3553,0.248675
3427.2871,0.245145
3428.2190,0.244454
3429.1508,0.245496
3430.0826,0.245595
3431.0145,0.245903
3431.9463,0.241135
3432.8781,0.239644
3433.8100,0.239189
3434.7418,0.237929
3435.6737,0.240042
3436.6055,0.241177
3437.5373,0.237531
3438.4692,0.233142
3439.4010,0.229799
3440.3328,0.228310
3441.2647,0.228905
3442.1965,0.229387
3443.1283,0.226898
3444.0602,0.228826
3444.9920,0.230723
3445.9238,0.230655
3446.8557,0.227586
3447.7875,0.226954
3448.7193,0.227626
3449.6512,0.226991
3450.5830,0.224978
3451.5148,0.222489
3452.4467,0.219840
3453.3785,0.217240
3454.3103,0.213637
3455.2422,0.214163
3456.1740,0.214656
3457.1058,0.215513
3458.0377,0.214530
3458.9695,0.213277
3459.9013,0.213471
3460.8332,0.213538
3461.7650,0.211619
3462.6969,0.210006
3463.6287,0.209773
3464.5605,0.210821
3465.4924,0.207657
3466.4242,0.205943
3467.3560,0.204067
3468.2879,0.201802
3469.2197,0.201902
3470.1515,0.200385
3471.0834,0.198022
3472.0152,0.196633
3472.9470,0.196231
3473.8789,0.197121
3474.8107,0.193980
3475.7425,0.193962
3476.6744,0.192737
3477.6062,0.189561
3478.5380,0.187833
3479.4699,0.190579
3480.4017,0.191264
3481.3335,0.192071
3482.2654,0.189468
3483.1972,0.188063
3484.1290,0.186555
3485.0609,0.184644
3485.9927,0.183142
3486.9245,0.181763
3487.8564,0.179740
3488.7882,0.180610
3489.7201,0.182780
3490.6519,0.179829
3491.5837,0.175051
3492.5156,0.175645
3493.4474,0.177073
3494.3792,0.177409
3495.3111,0.175401
3496.2429,0.173404
3497.1747,0.172673
3498.1066,0.172503
3499.0384,0.171562
3499.9702,0.172094
3500.9021,0.167666
3501.8339,0.162647
3502.7657,0.164346
3503.6976,0.167715
3504.6294,0.166267
3505.5612,0.164641
3506.4931,0.162082
3507.4249,0.162351
3508.3567,0.161680
3509.2886,0.159604
3510.2204,0.157142
3511.1522,0.155037
3512.0841,0.156624
3513.0159,0.158482
3513.9477,0.157603
3514.8796,0.155216
3515.8114,0.153891
3516.7432,0.154112
3517.6751,0.153749
3518.6069,0.150863
3519.5388,0.149375
3520.4706,0.148797
3521.4024,0.146331
3522.3343,0.145842
3523.2661,0.144800
3524.1979,0.143152
3525.1298,0.142474
3526.0616,0.143375
3526.9934,0.140478
3527.9253,0.137281
3528.8571,0.137233
3529.7889,0.140681
3530.7208,0.139375
3531.6526,0.135827
3532.5844,0.132934
3533.5163,0.134101
3534.4481,0.135523
3535.3799,0.134555
3536.3118,0.133415
3537.2436,0.132243
3538.1754,0.130075
3539.1073,0.130624
3540.0391,0.130207
3540.9709,0.126823
3541.9028,0.123522
3542.8346,0.125066
3543.7664,0.125056
3544.6983,0.124125
3545.6301,0.124290
3546.5620,0.123242
3547.4938,0.122074
3548.4256,0.119860
3549.3575,0.116814
3550.2893,0.117450
3551.2211,0.116344
3552.1530,0.116028
3553.0848,0.114938
3554.0166,0.113661
3554.9485,0.114485
3555.8803,0.114571
3556.8121,0.110885
3557.7440,0.109026
3558.6758,0.108934
3559.6076,0.108565
3560.5395,0.107906
3561.4713,0.106841
3562.4031,0.106241
3563.3350,0.103627
3564.2668,0.101894
3565.1986,0.104237
3566.1305,0.104209
3567.0623,0.102220
3567.9941,0.103193
3568.9260,0.105091
3569.8578,0.103518
3570.7896,0.101737
3571.7215,0.098864
3572.6533,0.094749
3573.5852,0.091846
3574.5170,0.092266
3575.4488,0.092756
3576.3807,0.092026
3577.3125,0.090900
3578.2443,0.090501
3579.1762,0.089929
3580.1080,0.090452
3581.0398,0.090231
3581.9717,0.088595
3582.9035,0.085865
3583.8353,0.086107
3584.7672,0.087090
3585.6990,0.085792
3586.6308,0.083753
3587.5627,0.083916
3588.4945,0.083885
3589.4263,0.086025
3590.3582,0.084319
3591.2900,0.079983
3592.2218,0.077017
3593.1537,0.075613
3594.0855,0.075783
3595.0173,0.078187
3595.9492,0.079275
3596.8810,0.078785
3597.8128,0.075095
3598.7447,0.070026
3599.6765,0.070431
3600.6084,0.074076
3601.5402,0.074699
3602.4720,0.072863
3603.4039,0.071681
3604.3357,0.069376
3605.2675,0.067648
3606.1994,0.068196
3607.1312,0.067431
3608.0630,0.066980
3608.9949,0.067381
3609.9267,0.068349
3610.8585,0.067008
3611.7904,0.063208
3612.7222,0.059583
3613.6540,0.060854
3614.5859,0.063949
3615.5177,0.064343
3616.4495,0.061316
3617.3814,0.059751
3618.3132,0.060643
3619.2450,0.060688
3620.1769,0.061213
3621.1087,0.062051
3622.0405,0.060093
3622.9724,0.056628
3623.9042,0.054557
3624.8360,0.053865
3625.7679,0.054255
3626.6997,0.055607
3627.6316,0.055548
3628.5634,0.053946
3629.4952,0.051652
3630.4271,0.051555
3631.3589,0.051223
3632.2907,0.048398
3633.2226,0.047768
3634.1544,0.047872
3635.0862,0.047693
3636.0181,0.047362
3636.9499,0.048196
3637.8817,0.049128
3638.8136,0.048143
3639.7454,0.046080
3640.6772,0.045233
3641.6091,0.046315
3642.5409,0.045550
3643.4727,0.043545
3644.4046,0.042131
3645.3364,0.041465
3646.2682,0.040602
3647.2001,0.041170
3648.1319,0.041946
3649.0637,0.041217
3649.9956,0.038200
3650.9274,0.037152
3651.8592,0.037244
3652.7911,0.037419
3653.7229,0.034765
3654.6547,0.030602
3655.5866,0.031287
3656.5184,0.033101
3657.4503,0.034032
3658.3821,0.034996
3659.3139,0.033806
3660.2458,0.029783
3661.1776,0.028714
3662.1094,0.028833
3663.0413,0.028551
3663.9731,0.029045
3664.9049,0.028381
3665.8368,0.027568
3666.7686,0.027312
3667.7004,0.025969
3668.6323,0.025135
3669.5641,0.025551
3670.4959,0.026219
3671.4278,0.025417
3672.3596,0.024906
3673.2914,0.023249
3674.2233,0.020643
3675.1551,0.019407
3676.0869,0.018319
3677.0188,0.019220
3677.9506,0.018942
3678.8824,0.014661
3679.8143,0.014137
3680.7461,0.016423
3681.6779,0.015036
3682.6098,0.014571
3683.5416,0.015157
3684.4735,0.014646
3685.4053,0.014478
3686.3371,0.014947
3687.2690,0.014585
3688.2008,0.014661
3689.1326,0.014655
3690.0645,0.012592
3690.9963,0.010720
3691.9281,0.010070
3692.8600,0.010223
3693.7918,0.011049
3694.7236,0.008993
3695.6555,0.007202
3696.5873,0.008471
3697.5191,0.009475
3698.4510,0.007805
3699.3828,0.005934
3700.3146,0.007204
3701.2465,0.009432
3702.1783,0.009721
3703.1101,0.008915
3704.0420,0.008061
3704.9738,0.007100
3705.9056,0.006991
3706.8375,0.006924
3707.7693,0.005797
3708.7011,0.004522
3709.6330,0.004557
3710.5648,0.005120
3711.4967,0.005390
3712.4285,0.005652
3713.3603,0.005953
3714.2922,0.004967
3715.2240,0.003098
3716.1558,0.002778
3717.0877,0.002891
3718.0195,0.002448
3718.9513,0.004010
3719.8832,0.005054
3720.8150,0.004720
3721.7468,0.003743
3722.6787,0.002973
3723.6105,0.003527
3724.5423,0.005145
3725.4742,0.004764
3726.4060,0.004200
3727.3378,0.005718
3728.2697,0.004885
3729.2015,0.002292
3730.1333,0.002198
3731.0652,0.003693
3731.9970,0.003061
3732.9288,0.001504
3733.8607,0.002569
3734.7925,0.003866
3735.7243,0.003119
3736.6562,0.001408
3737.5880,0.000839
3738.5199,-0.001407
3739.4517,-0.001553
3740.3835,0.001754
3741.3154,0.003245
3742.2472,0.001885
3743.1790,0.000884
3744.1109,0.001799
3745.0427,0.002032
3745.9745,0.001323
3746.9064,0.003165
3747.8382,0.000804
3748.7700,-0.001287
3749.7019,0.000624
3750.6337,0.001853
3751.5655,0.002527
3752.4974,0.003399
3753.4292,0.002275
3754.3610,-0.000192
3755.2929,-0.000348
3756.2247,0.000544
3757.1565,0.000476
3758.0884,0.000996
3759.0202,0.001493
3759.9520,0.001289
3760.8839,0.000940
3761.8157,0.001368
3762.7475,0.001559
3763.6794,0.001118
3764.6112,0.000447
3765.5431,0.000755
3766.4749,0.002175
3767.4067,0.002021
3768.3386,0.000379
3769.2704,-0.000640
3770.2022,-0.000046
3771.1341,0.001497
3772.0659,0.001967
3772.9977,0.002033
3773.9296,0.001029
3774.8614,0.000530
3775.7932,0.001941
3776.7251,0.002096
3777.6569,0.002661
3778.5887,0.002850
3779.5206,0.002123
3780.4524,0.002553
3781.3842,0.001987
3782.3161,0.000846
3783.2479,0.000539
3784.1797,0.001652
3785.1116,0.002592
3786.0434,0.002330
3786.9752,0.001911
3787.9071,0.000406
3788.8389,-0.000910
3789.7707,-0.000554
3790.7026,0.001665
3791.6344,0.002336
3792.5662,0.001752
3793.4981,0.001236
3794.4299,0.000811
3795.3618,0.001325
3796.2936,0.002581
3797.2254,0.002211
3798.1573,0.001066
3799.0891,0.001341
3800.0209,0.001408
3800.9528,0.000598
3801.8846,0.000716
3802.8164,0.000916
3803.7483,0.001014
3804.6801,0.001612
3805.6119,0.001082
3806.5438,-0.000067
3807.4756,-0.000156
3808.4074,0.001216
3809.3393,0.002032
3810.2711,0.001355
3811.2029,0.000285
3812.1348,-0.000377
3813.0666,-0.000058
3813.9984,0.000634
3814.9303,0.001296
3815.8621,0.001135
3816.7939,0.001345
3817.7258,0.001337
3818.6576,0.001351
3819.5894,0.001154
3820.5213,-0.000452
3821.4531,-0.001255
3822.3850,-0.000162
3823.3168,0.001699
3824.2486,0.002195
3825.1805,0.001791
3826.1123,0.000142
3827.0441,0.000083
3827.9760,0.001591
3828.9078,0.001473
3829.8396,0.001116
3830.7715,0.000519
3831.7033,0.000946
3832.6351,0.001587
3833.5670,0.001174
3834.4988,0.000950
3835.4306,0.001191
3836.3625,0.000806
3837.2943,0.001793
3838.2261,0.002039
3839.1580,0.000190
3840.0898,-0.000350
3841.0216,0.000063
3841.9535,-0.000994
3842.8853,-0.001512
3843.8171,-0.000218
3844.7490,-0.000335
3845.6808,-0.000566
3846.6126,0.001273
3847.5445,0.001824
3848.4763,0.001068
3849.4082,0.000913
3850.3400,0.001204
3851.2718,0.001433
3852.2037,0.001528
3853.1355,0.001324
3854.0673,0.002377
3854.9992,0.003000
3855.9310,0.000755
3856.8628,-0.000852
3857.7947,-0.002026
3858.7265,-0.002317
3859.6583,-0.000824
3860.5902,-0.000053
3861.5220,-0.000175
3862.4538,0.000102
3863.3857,-0.000394
3864.3175,0.000143
3865.2493,0.001559
3866.1812,0.002279
3867.1130,0.002077
3868.0448,0.001398
3868.9767,0.000798
3869.9085,0.000732
3870.8403,0.001067
3871.7722,0.001515
3872.7040,0.000989
3873.6358,-0.001740
3874.5677,-0.001496
3875.4995,0.000032
3876.4314,0.000654
3877.3632,0.000105
3878.2950,-0.000655
3879.2269,-0.000335
3880.1587,0.000430
3881.0905,0.001832
3882.0224,0.002470
3882.9542,0.001949
3883.8860,0.000103
3884.8179,-0.001210
3885.7497,0.000236
3886.6815,0.000891
3887.6134,0.000759
3888.5452,0.000732
3889.4770,-0.000144
3890.4089,-0.001064
3891.3407,0.001021
3892.2725,0.002395
3893.2044,0.001998
3894.1362,0.001454
3895.0680,0.000890
3895.9999,-0.000073
3896.9317,-0.000174
3897.8635,0.000578
3898.7954,0.001578
3899.7272,0.002079
3900.6590,0.001816
3901.5909,0.001208
3902.5227,0.000498
3903.4546,0.000075
3904.3864,0.000086
3905.3182,-0.001625
3906.2501,-0.002363
3907.1819,-0.001624
3908.1137,-0.001738
3909.0456,-0.001112
3909.9774,0.000246
3910.9092,0.000731
3911.8411,0.000757
3912.7729,0.000310
3913.7047,0.000393
3914.6366,0.000244
3915.5684,0.000263
3916.5002,0.000872
3917.4321,0.001708
3918.3639,0.001226
3919.2957,0.000740
3920.2276,0.000671
3921.1594,0.000134
3922.0912,0.000257
3923.0231,0.000409
3923.9549,0.000077
3924.8867,0.000948
3925.8186,0.001611
3926.7504,0.000893
3927.6822,0.000587
3928.6141,0.001220
3929.5459,0.001337
3930.4777,0.000993
3931.4096,0.000899
3932.3414,0.000685
3933.2733,0.001152
3934.2051,0.002280
3935.1369,0.001361
3936.0688,0.000039
3937.0006,0.000015
3937.9324,0.000171
3938.8643,-0.000314
3939.7961,0.000818
3940.7279,0.001846
3941.6598,0.000518
3942.5916,-0.000095
3943.5234,0.000538
3944.4553,0.001124
3945.3871,0.001813
3946.3189,0.001869
3947.2508,0.001592
3948.1826,0.001543
3949.1144,0.001063
3950.0463,0.000789
3950.9781,0.001635
3951.9099,0.002001
3952.8418,0.001119
3953.7736,-0.000162
3954.7054,0.000415
3955.6373,0.002071
3956.5691,0.002380
3957.5009,0.002281
3958.4328,0.002465
3959.3646,0.001843
3960.2965,0.000754
3961.2283,0.000901
3962.1601,0.001473
3963.0920,0.001194
3964.0238,0.001861
3964.9556,0.002243
3965.8875,0.001143
3966.8193,0.000910
3967.7511,0.001305
3968.6830,0.000630
3969.6148,0.000484
3970.5466,0.000442
3971.4785,0.000857
3972.4103,0.000979
3973.3421,-0.000196
3974.2740,-0.000576
3975.2058,0.000424
3976.1376,0.001135
3977.0695,0.001993
3978.0013,0.001551
3978.9331,0.000805
3979.8650,0.000760
3980.7968,0.001036
3981.7286,0.002159
3982.6605,0.002322
3983.5923,0.001045
3984.5241,0.000873
3985.4560,0.000901
3986.3878,0.000384
3987.3197,0.001169
3988.2515,0.002497
3989.1833,0.001971
3990.1152,0.001438
3991.0470,0.001982
3991.9788,0.002603
3992.9107,0.002229
3993.8425,0.000969
3994.7743,0.000587
3995.7062,0.001580
3996.6380,0.001519
3997.5698,0.000547
3998.5017,0.000404
3999.4335,0.001116
4000.3653,0.000855
