Wavenumber,Intensity
650.4205,0.384939
651.3523,0.384072
652.2841,0.366291
653.2160,0.355791
654.1478,0.349222
655.0796,0.347563
656.0115,0.365448
656.9433,0.380620
657.8751,0.377779
658.8070,0.368181
659.7388,0.358721
660.6706,0.358899
661.6025,0.358298
662.5343,0.352601
663.4661,0.355200
664.3980,0.355733
665.3298,0.350146
666.2616,0.347397
667.1935,0.340664
668.1253,0.346563
669.0571,0.361781
669.9890,0.352935
670.9208,0.347828
671.8526,0.346355
672.7845,0.345429
673.7163,0.349310
674.6481,0.350516
675.5800,0.349084
676.5118,0.350041
677.4437,0.348166
678.3755,0.339314
679.3073,0.332124
680.2392,0.325072
681.1710,0.321413
682.1028,0.323983
683.0347,0.327804
683.9665,0.327403
684.8983,0.324714
685.8302,0.326781
686.7620,0.329827
687.6938,0.328686
688.6257,0.325375
689.5575,0.322286
690.4893,0.323129
691.4212,0.324714
692.3530,0.318527
693.2848,0.314539
694.2167,0.315469
695.1485,0.312672
696.0803,0.311603
697.0122,0.309567
697.9440,0.309872
698.8758,0.311269
699.8077,0.311046
700.7395,0.308046
701.6713,0.304362
702.6032,0.305813
703.5350,0.307265
704.4669,0.303264
705.3987,0.299603
706.3305,0.297663
707.2624,0.298619
708.1942,0.298697
709.1260,0.297078
710.0579,0.295190
710.9897,0.293421
711.9215,0.292495
712.8534,0.293892
713.7852,0.293707
714.7170,0.291469
715.6489,0.288451
716.5807,0.286612
717.5125,0.287200
718.4444,0.289598
719.3762,0.288239
720.3080,0.285183
721.2399,0.282223
722.1717,0.280605
723.1035,0.278434
724.0354,0.276379
724.9672,0.275708
725.8990,0.273794
726.8309,0.271212
727.7627,0.270804
728.6945,0.269912
729.6264,0.269292
730.5582,0.270062
731.4901,0.269253
732.4219,0.266230
733.3537,0.264418
734.2856,0.263199
735.2174,0.261151
736.1492,0.259589
737.0811,0.260464
738.0129,0.260805
738.9447,0.258657
739.8766,0.255089
740.8084,0.253644
741.7402,0.252470
742.6721,0.250124
743.6039,0.250458
744.5357,0.250658
745.4676,0.247411
746.3994,0.245861
747.3312,0.246352
748.2631,0.245384
749.1949,0.242988
750.1267,0.240476
751.0586,0.238955
751.9904,0.239724
752.9222,0.238228
753.8541,0.235700
754.7859,0.235549
755.7177,0.235784
756.6496,0.233378
757.5814,0.231548
758.5132,0.232079
759.4451,0.231301
760.3769,0.229355
761.3088,0.228591
762.2406,0.228714
763.1724,0.227293
764.1043,0.223758
765.0361,0.222573
765.9679,0.222365
766.8998,0.220016
767.8316,0.217086
768.7634,0.216682
769.6953,0.216883
770.6271,0.216935
771.5589,0.216154
772.4908,0.214829
773.4226,0.212454
774.3544,0.211381
775.2863,0.211678
776.2181,0.210958
777.1499,0.209293
778.0818,0.207991
779.0136,0.205405
779.9454,0.203031
780.8773,0.202244
781.8091,0.201119
782.7409,0.200092
783.6728,0.198548
784.6046,0.196509
785.5364,0.195618
786.4683,0.195241
787.4001,0.194624
788.3320,0.193337
789.2638,0.192152
790.1956,0.190605
791.1275,0.189627
792.0593,0.189736
792.9911,0.188739
793.9230,0.187162
794.8548,0.186540
795.7866,0.185435
796.7185,0.184175
797.6503,0.182362
798.5821,0.181469
799.5140,0.179997
800.4458,0.178846
801.3776,0.178572
802.3095,0.177692
803.2413,0.177552
804.1731,0.176564
805.1050,0.174706
806.0368,0.173451
806.9686,0.172653
807.9005,0.171804
808.8323,0.170092
809.7641,0.168424
810.6960,0.166922
811.6278,0.165151
812.5596,0.164156
813.4915,0.163161
814.4233,0.160487
815.3552,0.158736
816.2870,0.158007
817.2188,0.155980
818.1507,0.154211
819.0825,0.154310
820.0143,0.153561
820.9462,0.152080
821.8780,0.151367
822.8098,0.151072
823.7417,0.150123
824.6735,0.148563
825.6053,0.147079
826.5372,0.145985
827.4690,0.144724
828.4008,0.143447
829.3327,0.143447
830.2645,0.143268
831.1963,0.142301
832.1282,0.141028
833.0600,0.139650
833.9918,0.138937
834.9237,0.137508
835.8555,0.136396
836.7873,0.135902
837.7192,0.135032
838.6510,0.133652
839.5828,0.132363
840.5147,0.131319
841.4465,0.130300
842.3784,0.129511
843.3102,0.129205
844.2420,0.128323
845.1739,0.127163
846.1057,0.125947
847.0375,0.125177
847.9694,0.124177
848.9012,0.123651
849.8330,0.123433
850.7649,0.122464
851.6967,0.121661
852.6285,0.121425
853.5604,0.121269
854.4922,0.120693
855.4240,0.119025
856.3559,0.118415
857.2877,0.118817
858.2195,0.118123
859.1514,0.117197
860.0832,0.117262
861.0150,0.117479
861.9469,0.118061
862.8787,0.118763
863.8105,0.119007
864.7424,0.118889
865.6742,0.119255
866.6060,0.120508
867.5379,0.122286
868.4697,0.124722
869.4016,0.127671
870.3334,0.130181
871.2652,0.133464
872.1971,0.138242
873.1289,0.144150
874.0607,0.150484
874.9926,0.156185
875.9244,0.161158
876.8562,0.165438
877.7881,0.167556
878.7199,0.166021
879.6517,0.162030
880.5836,0.156704
881.5154,0.150268
882.4472,0.142868
883.3791,0.134687
884.3109,0.126912
885.2427,0.120397
886.1746,0.114327
887.1064,0.108532
888.0382,0.104010
888.9701,0.100233
889.9019,0.096930
890.8337,0.094168
891.7656,0.092309
892.6974,0.090505
893.6292,0.087850
894.5611,0.085896
895.4929,0.084846
896.4247,0.083635
897.3566,0.082514
898.2884,0.081150
899.2203,0.079914
900.1521,0.079385
901.0839,0.078941
902.0158,0.078178
902.9476,0.077427
903.8794,0.076663
904.8113,0.075744
905.7431,0.075300
906.6749,0.074938
907.6068,0.073994
908.5386,0.073014
909.4704,0.072625
910.4023,0.072086
911.3341,0.071227
912.2659,0.070707
913.1978,0.070515
914.1296,0.069972
915.0614,0.069598
915.9933,0.069560
916.9251,0.068927
917.8569,0.068115
918.7888,0.067689
919.7206,0.067398
920.6524,0.067143
921.5843,0.066490
922.5161,0.065936
923.4479,0.065779
924.3798,0.065626
925.3116,0.065454
926.2435,0.064978
927.1753,0.064287
928.1071,0.064146
929.0390,0.064207
929.9708,0.063354
930.9026,0.062587
931.8345,0.062326
932.7663,0.061932
933.6981,0.061475
934.6300,0.060932
935.5618,0.060598
936.4936,0.060394
937.4255,0.060493
938.3573,0.060588
939.2891,0.060120
940.2210,0.059572
941.1528,0.059403
942.0846,0.059178
943.0165,0.058995
943.9483,0.058696
944.8801,0.058185
945.8120,0.058290
946.7438,0.058271
947.6756,0.057611
948.6075,0.057625
949.5393,0.057742
950.4711,0.057105
951.4030,0.056583
952.3348,0.056367
953.2667,0.056175
954.1985,0.055956
955.1303,0.055838
956.0622,0.055653
956.9940,0.055783
957.9258,0.055715
958.8577,0.055242
959.7895,0.054761
960.7213,0.054988
961.6532,0.055199
962.5850,0.054700
963.5168,0.054515
964.4487,0.054494
965.3805,0.054489
966.3123,0.054709
967.2442,0.054441
968.1760,0.053944
969.1078,0.053770
970.0397,0.053756
970.9715,0.053527
971.9033,0.053322
972.8352,0.053249
973.7670,0.053495
974.6988,0.053716
975.6307,0.053550
976.5625,0.053354
977.4943,0.053026
978.4262,0.052637
979.3580,0.052954
980.2899,0.053593
981.2217,0.053639
982.1535,0.053203
983.0854,0.052964
984.0172,0.053126
984.9490,0.052969
985.8809,0.052761
986.8127,0.053018
987.7445,0.053412
988.6764,0.053524
989.6082,0.053320
990.5400,0.053316
991.4719,0.053327
992.4037,0.053439
993.3355,0.053582
994.2674,0.053457
995.1992,0.053731
996.1310,0.054409
997.0629,0.054709
997.9947,0.054665
998.9265,0.054620
999.8584,0.054606
1000.7902,0.054865
1001.7220,0.055118
1002.6539,0.055476
1003.5857,0.056001
1004.5175,0.056330
1005.4494,0.056597
1006.3812,0.056831
1007.3131,0.057136
1008.2449,0.057858
1009.1767,0.058184
1010.1086,0.058616
1011.0404,0.059463
1011.9722,0.060139
1012.9041,0.060887
1013.8359,0.062038
1014.7677,0.062957
1015.6996,0.063748
1016.6314,0.064609
1017.5632,0.065918
1018.4951,0.067542
1019.4269,0.069101
1020.3587,0.070584
1021.2906,0.072396
1022.2224,0.074629
1023.1542,0.076860
1024.0861,0.079479
1025.0179,0.082200
1025.9497,0.085243
1026.8816,0.088810
1027.8134,0.092800
1028.7452,0.097306
1029.6771,0.102082
1030.6089,0.107230
1031.5407,0.113876
1032.4726,0.121569
1033.4044,0.130012
1034.3362,0.140062
1035.2681,0.151650
1036.1999,0.164186
1037.1318,0.178128
1038.0636,0.193550
1038.9954,0.209874
1039.9273,0.225933
1040.8591,0.241103
1041.7909,0.254125
1042.7228,0.263877
1043.6546,0.269304
1044.5864,0.270211
1045.5183,0.266217
1046.4501,0.257431
1047.3819,0.245014
1048.3138,0.230110
1049.2456,0.213809
1050.1774,0.197026
1051.1093,0.180197
1052.0411,0.164024
1052.9729,0.148885
1053.9048,0.134924
1054.8366,0.122736
1055.7684,0.112354
1056.7003,0.103400
1057.6321,0.095807
1058.5639,0.089628
1059.4958,0.084790
1060.4276,0.081043
1061.3594,0.077921
1062.2913,0.075374
1063.2231,0.073665
1064.1550,0.072603
1065.0868,0.072132
1066.0186,0.072016
1066.9505,0.072332
1067.8823,0.072788
1068.8141,0.073598
1069.7460,0.074552
1070.6778,0.075904
1071.6096,0.077881
1072.5415,0.079988
1073.4733,0.082166
1074.4051,0.084522
1075.3370,0.087196
1076.2688,0.090084
1077.2006,0.093348
1078.1325,0.096645
1079.0643,0.099996
1079.9961,0.103251
1080.9280,0.106085
1081.8598,0.108983
1082.7916,0.111365
1083.7235,0.113236
1084.6553,0.114608
1085.5871,0.114908
1086.5190,0.114466
1087.4508,0.113170
1088.3826,0.110792
1089.3145,0.107555
1090.2463,0.103748
1091.1782,0.099431
1092.1100,0.094692
1093.0418,0.089930
1093.9737,0.085192
1094.9055,0.080578
1095.8373,0.076338
1096.7692,0.072235
1097.7010,0.068442
1098.6328,0.065335
1099.5647,0.062561
1100.4965,0.060075
1101.4283,0.057843
1102.3602,0.055865
1103.2920,0.054154
1104.2238,0.052701
1105.1557,0.051562
1106.0875,0.050334
1107.0193,0.049526
1107.9512,0.048971
1108.8830,0.048249
1109.8148,0.047465
1110.7467,0.046924
1111.6785,0.046420
1112.6103,0.045933
1113.5422,0.045630
1114.4740,0.045209
1115.4058,0.045078
1116.3377,0.045063
1117.2695,0.044803
1118.2014,0.044618
1119.1332,0.044315
1120.0650,0.044389
1120.9969,0.044783
1121.9287,0.044766
1122.8605,0.044529
1123.7924,0.044397
1124.7242,0.044559
1125.6560,0.044462
1126.5879,0.044272
1127.5197,0.044194
1128.4515,0.044004
1129.3834,0.043745
1130.3152,0.043701
1131.2470,0.043608
1132.1789,0.043515
1133.1107,0.043239
1134.0425,0.042829
1134.9744,0.042599
1135.9062,0.042595
1136.8380,0.042682
1137.7699,0.042601
1138.7017,0.042419
1139.6335,0.042309
1140.5654,0.042374
1141.4972,0.042100
1142.4290,0.041788
1143.3609,0.041929
1144.2927,0.042075
1145.2246,0.041772
1146.1564,0.041398
1147.0882,0.041130
1148.0201,0.041319
1148.9519,0.041656
1149.8837,0.041842
1150.8156,0.041833
1151.7474,0.041636
1152.6792,0.041734
1153.6111,0.041909
1154.5429,0.041731
1155.4747,0.041560
1156.4066,0.041505
1157.3384,0.041378
1158.2702,0.041372
1159.2021,0.041328
1160.1339,0.041097
1161.0657,0.040889
1161.9976,0.040416
1162.9294,0.039946
1163.8612,0.040017
1164.7931,0.039977
1165.7249,0.039654
1166.6567,0.039391
1167.5886,0.038947
1168.5204,0.038907
1169.4522,0.039099
1170.3841,0.038943
1171.3159,0.038670
1172.2477,0.038659
1173.1796,0.038752
1174.1114,0.038769
1175.0433,0.038662
1175.9751,0.038735
1176.9069,0.038772
1177.8388,0.038582
1178.7706,0.038409
1179.7024,0.038558
1180.6343,0.038658
1181.5661,0.038475
1182.4979,0.038452
1183.4298,0.038624
1184.3616,0.038408
1185.2934,0.038151
1186.2253,0.038117
1187.1571,0.038235
1188.0889,0.038491
1189.0208,0.038535
1189.9526,0.038383
1190.8844,0.038359
1191.8163,0.038456
1192.7481,0.038449
1193.6799,0.038401
1194.6118,0.038259
1195.5436,0.038374
1196.4754,0.038552
1197.4073,0.038660
1198.3391,0.038712
1199.2709,0.038772
1200.2028,0.038756
1201.1346,0.038723
1202.0665,0.038686
1202.9983,0.038636
1203.9301,0.038638
1204.8620,0.038598
1205.7938,0.038625
1206.7256,0.038776
1207.6575,0.039023
1208.5893,0.039104
1209.5211,0.039028
1210.4530,0.038940
1211.3848,0.038885
1212.3166,0.039078
1213.2485,0.039247
1214.1803,0.039040
1215.1121,0.038939
1216.0440,0.039167
1216.9758,0.039374
1217.9076,0.039443
1218.8395,0.039450
1219.7713,0.039502
1220.7031,0.039381
1221.6350,0.039213
1222.5668,0.039437
1223.4986,0.039561
1224.4305,0.039578
1225.3623,0.039640
1226.2941,0.039813
1227.2260,0.040047
1228.1578,0.040170
1229.0897,0.040160
1230.0215,0.040130
1230.9533,0.040066
1231.8852,0.040006
1232.8170,0.040303
1233.7488,0.040512
1234.6807,0.040646
1235.6125,0.040669
1236.5443,0.040563
1237.4762,0.040664
1238.4080,0.040806
1239.3398,0.040889
1240.2717,0.041047
1241.2035,0.041103
1242.1353,0.041270
1243.0672,0.041579
1243.9990,0.041724
1244.9308,0.041657
1245.8627,0.041639
1246.7945,0.041969
1247.7263,0.042323
1248.6582,0.042590
1249.5900,0.042887
1250.5218,0.042950
1251.4537,0.043005
1252.3855,0.043206
1253.3173,0.043491
1254.2492,0.043865
1255.1810,0.044220
1256.1129,0.044637
1257.0447,0.044894
1257.9765,0.045142
1258.9084,0.045319
1259.8402,0.045677
1260.7720,0.046106
1261.7039,0.046513
1262.6357,0.047285
1263.5675,0.047782
1264.4994,0.048334
1265.4312,0.049075
1266.3630,0.049851
1267.2949,0.050546
1268.2267,0.050942
1269.1585,0.051549
1270.0904,0.052281
1271.0222,0.052775
1271.9540,0.053091
1272.8859,0.053367
1273.8177,0.053515
1274.7495,0.053525
1275.6814,0.053646
1276.6132,0.053397
1277.5450,0.053000
1278.4769,0.052359
1279.4087,0.051782
1280.3405,0.051450
1281.2724,0.051182
1282.2042,0.050699
1283.1361,0.050101
1284.0679,0.049763
1284.9997,0.049695
1285.9316,0.049525
1286.8634,0.049271
1287.7952,0.049010
1288.7271,0.049118
1289.6589,0.049279
1290.5907,0.049453
1291.5226,0.049452
1292.4544,0.049224
1293.3862,0.049197
1294.3181,0.049179
1295.2499,0.049456
1296.1817,0.049963
1297.1136,0.050453
1298.0454,0.050628
1298.9772,0.050740
1299.9091,0.050926
1300.8409,0.051292
1301.7727,0.051607
1302.7046,0.051696
1303.6364,0.051716
1304.5682,0.052086
1305.5001,0.052550
1306.4319,0.053023
1307.3637,0.053164
1308.2956,0.053363
1309.2274,0.053641
1310.1592,0.053939
1311.0911,0.054098
1312.0229,0.054185
1312.9548,0.054437
1313.8866,0.054873
1314.8184,0.055403
1315.7503,0.055653
1316.6821,0.055672
1317.6139,0.055940
1318.5458,0.056364
1319.4776,0.056375
1320.4094,0.056470
1321.3413,0.056448
1322.2731,0.056401
1323.2049,0.056648
1324.1368,0.056716
1325.0686,0.056368
1326.0004,0.056123
1326.9323,0.056307
1327.8641,0.056451
1328.7959,0.056296
1329.7278,0.056077
1330.6596,0.056112
1331.5914,0.056160
1332.5233,0.055932
1333.4551,0.055426
1334.3869,0.055004
1335.3188,0.054622
1336.2506,0.053990
1337.1824,0.053724
1338.1143,0.053750
1339.0461,0.053622
1339.9780,0.053700
1340.9098,0.054107
1341.8416,0.053692
1342.7735,0.052637
1343.7053,0.051976
1344.6371,0.051692
1345.5690,0.051375
1346.5008,0.051004
1347.4326,0.050673
1348.3645,0.050399
1349.2963,0.050154
1350.2281,0.049763
1351.1600,0.049465
1352.0918,0.049525
1353.0236,0.049696
1353.9555,0.049427
1354.8873,0.049217
1355.8191,0.049452
1356.7510,0.049346
1357.6828,0.049043
1358.6146,0.049059
1359.5465,0.048813
1360.4783,0.048377
1361.4101,0.048580
1362.3420,0.049333
1363.2738,0.050136
1364.2056,0.051234
1365.1375,0.050945
1366.0693,0.050675
1367.0012,0.051128
1367.9330,0.051529
1368.8648,0.052236
1369.7967,0.053150
1370.7285,0.053840
1371.6603,0.054775
1372.5922,0.055946
1373.5240,0.057383
1374.4558,0.059480
1375.3877,0.061803
1376.3195,0.063221
1377.2513,0.063627
1378.1832,0.064118
1379.1150,0.064990
1380.0468,0.065660
1380.9787,0.066136
1381.9105,0.066378
1382.8423,0.066821
1383.7742,0.067049
1384.7060,0.066644
1385.6378,0.066278
1386.5697,0.066217
1387.5015,0.066782
1388.4333,0.067525
1389.3652,0.066850
1390.2970,0.065443
1391.2288,0.064512
1392.1607,0.063759
1393.0925,0.062775
1394.0244,0.062031
1394.9562,0.062609
1395.8880,0.064058
1396.8199,0.063876
1397.7517,0.062940
1398.6835,0.062896
1399.6154,0.063866
1400.5472,0.064796
1401.4790,0.064115
1402.4109,0.063387
1403.3427,0.063352
1404.2745,0.063502
1405.2064,0.064042
1406.1382,0.064813
1407.0700,0.064745
1408.0019,0.064685
1408.9337,0.064882
1409.8655,0.064962
1410.7974,0.064927
1411.7292,0.065066
1412.6610,0.065438
1413.5929,0.065394
1414.5247,0.065009
1415.4565,0.064615
1416.3884,0.064423
1417.3202,0.064448
1418.2520,0.064589
1419.1839,0.065184
1420.1157,0.067255
1421.0476,0.067566
1421.9794,0.065046
1422.9112,0.063643
1423.8431,0.063140
1424.7749,0.063633
1425.7067,0.063879
1426.6386,0.063021
1427.5704,0.061884
1428.5022,0.060963
1429.4341,0.060266
1430.3659,0.060229
1431.2977,0.060680
1432.2296,0.059745
1433.1614,0.058421
1434.0932,0.057799
1435.0251,0.057010
1435.9569,0.056194
1436.8887,0.056841
1437.8206,0.058996
1438.7524,0.058615
1439.6842,0.056942
1440.6161,0.056193
1441.5479,0.056456
1442.4797,0.056913
1443.4116,0.056942
1444.3434,0.056722
1445.2752,0.056882
1446.2071,0.057684
1447.1389,0.058604
1448.0707,0.059806
1449.0026,0.061820
1449.9344,0.062721
1450.8663,0.062112
1451.7981,0.061700
1452.7299,0.061881
1453.6618,0.061767
1454.5936,0.060495
1455.5254,0.059300
1456.4573,0.059264
1457.3891,0.060149
1458.3209,0.060944
1459.2528,0.059710
1460.1846,0.057321
1461.1164,0.054442
1462.0483,0.052001
1462.9801,0.050496
1463.9119,0.049374
1464.8438,0.048666
1465.7756,0.048689
1466.7074,0.048103
1467.6393,0.046719
1468.5711,0.045494
1469.5029,0.044425
1470.4348,0.043832
1471.3666,0.043562
1472.2984,0.043419
1473.2303,0.044207
1474.1621,0.044941
1475.0939,0.044693
1476.0258,0.044483
1476.9576,0.045063
1477.8895,0.045535
1478.8213,0.045007
1479.7531,0.044649
1480.6850,0.044567
1481.6168,0.044826
1482.5486,0.045469
1483.4805,0.045270
1484.4123,0.044532
1485.3441,0.044115
1486.2760,0.043622
1487.2078,0.043400
1488.1396,0.043767
1489.0715,0.043657
1490.0033,0.043040
1490.9351,0.043279
1491.8670,0.043146
1492.7988,0.041575
1493.7306,0.040228
1494.6625,0.039569
1495.5943,0.039116
1496.5261,0.039403
1497.4580,0.040102
1498.3898,0.039870
1499.3216,0.040044
1500.2535,0.039950
1501.1853,0.038820
1502.1171,0.038484
1503.0490,0.038360
1503.9808,0.037612
1504.9127,0.036612
1505.8445,0.036451
1506.7763,0.038191
1507.7082,0.040628
1508.6400,0.040530
1509.5718,0.039930
1510.5037,0.039096
1511.4355,0.038251
1512.3673,0.037804
1513.2992,0.038197
1514.2310,0.038373
1515.1628,0.037652
1516.0947,0.037145
1517.0265,0.037412
1517.9583,0.038324
1518.8902,0.038501
1519.8220,0.037496
1520.7538,0.037081
1521.6857,0.038661
1522.6175,0.040062
1523.5493,0.039326
1524.4812,0.038580
1525.4130,0.038389
1526.3448,0.039059
1527.2767,0.039669
1528.2085,0.039213
1529.1403,0.038906
1530.0722,0.038877
1531.0040,0.038199
1531.9359,0.037783
1532.8677,0.038267
1533.7995,0.038828
1534.7314,0.039983
1535.6632,0.039928
1536.5950,0.038788
1537.5269,0.038028
1538.4587,0.037566
1539.3905,0.037338
1540.3224,0.039045
1541.2542,0.041446
1542.1860,0.041400
1543.1179,0.041218
1544.0497,0.040946
1544.9815,0.040756
1545.9134,0.041039
1546.8452,0.040873
1547.7770,0.040273
1548.7089,0.039978
1549.6407,0.040072
1550.5725,0.041194
1551.5044,0.042291
1552.4362,0.041564
1553.3680,0.040349
1554.2999,0.039841
1555.2317,0.040567
1556.1635,0.041171
1557.0954,0.040832
1558.0272,0.040930
1558.9591,0.043184
1559.8909,0.047908
1560.8227,0.050100
1561.7546,0.047749
1562.6864,0.044955
1563.6182,0.043918
1564.5501,0.043818
1565.4819,0.044473
1566.4137,0.045290
1567.3456,0.045022
1568.2774,0.044519
1569.2092,0.044746
1570.1411,0.046761
1571.0729,0.048780
1572.0047,0.047739
1572.9366,0.046386
1573.8684,0.046160
1574.8002,0.046674
1575.7321,0.047795
1576.6639,0.050460
1577.5957,0.053489
1578.5276,0.052869
1579.4594,0.051565
1580.3912,0.051472
1581.3231,0.051864
1582.2549,0.052492
1583.1867,0.053200
1584.1186,0.053664
1585.0504,0.054210
1585.9822,0.054838
1586.9141,0.055612
1587.8459,0.056458
1588.7778,0.057215
1589.7096,0.058018
1590.6414,0.058681
1591.5733,0.059433
1592.5051,0.060464
1593.4369,0.061572
1594.3688,0.062517
1595.3006,0.063628
1596.2324,0.064990
1597.1643,0.066049
1598.0961,0.066977
1599.0279,0.067761
1599.9598,0.068241
1600.8916,0.069001
1601.8234,0.070371
1602.7553,0.072127
1603.6871,0.073886
1604.6189,0.075687
1605.5508,0.077020
1606.4826,0.078003
1607.4144,0.079567
1608.3463,0.081493
1609.2781,0.083230
1610.2099,0.085277
1611.1418,0.087207
1612.0736,0.088141
1613.0054,0.089035
1613.9373,0.090539
1614.8691,0.091951
1615.8010,0.093794
1616.7328,0.097125
1617.6646,0.103065
1618.5965,0.106852
1619.5283,0.105758
1620.4601,0.105473
1621.3920,0.106639
1622.3238,0.109217
1623.2556,0.112739
1624.1875,0.116675
1625.1193,0.119721
1626.0511,0.119784
1626.9830,0.120384
1627.9148,0.122510
1628.8466,0.125889
1629.7785,0.128068
1630.7103,0.127205
1631.6421,0.126624
1632.5740,0.127495
1633.5058,0.127362
1634.4376,0.127282
1635.3695,0.129498
1636.3013,0.135828
1637.2331,0.141314
1638.1650,0.140496
1639.0968,0.139018
1640.0286,0.137004
1640.9605,0.135284
1641.8923,0.134753
1642.8242,0.134635
1643.7560,0.133841
1644.6878,0.131807
1645.6197,0.130989
1646.5515,0.132930
1647.4833,0.135529
1648.4152,0.134317
1649.3470,0.131738
1650.2788,0.128851
1651.2107,0.125735
1652.1425,0.124283
1653.0743,0.127031
1654.0062,0.135715
1654.9380,0.137221
1655.8698,0.130792
1656.8017,0.125780
1657.7335,0.122207
1658.6653,0.119851
1659.5972,0.118008
1660.5290,0.116259
1661.4608,0.114771
1662.3927,0.113568
1663.3245,0.112751
1664.2563,0.111895
1665.1882,0.109563
1666.1200,0.106747
1667.0518,0.104390
1667.9837,0.102562
1668.9155,0.101012
1669.8474,0.100633
1670.7792,0.100311
1671.7110,0.098464
1672.6429,0.096478
1673.5747,0.094009
1674.5065,0.091508
1675.4384,0.089857
1676.3702,0.089802
1677.3020,0.088876
1678.2339,0.085629
1679.1657,0.082842
1680.0975,0.080999
1681.0294,0.079737
1681.9612,0.078301
1682.8930,0.076249
1683.8249,0.074632
1684.7567,0.074356
1685.6885,0.074578
1686.6204,0.072459
1687.5522,0.069469
1688.4840,0.067681
1689.4159,0.066124
1690.3477,0.064399
1691.2795,0.063326
1692.2114,0.061538
1693.1432,0.059697
1694.0750,0.058390
1695.0069,0.056754
1695.9387,0.055470
1696.8706,0.055020
1697.8024,0.054162
1698.7342,0.052843
1699.6661,0.051288
1700.5979,0.049804
1701.5297,0.049752
1702.4616,0.048954
1703.3934,0.047017
1704.3252,0.045803
1705.2571,0.045065
1706.1889,0.044075
1707.1207,0.042978
1708.0526,0.042047
1708.9844,0.040822
1709.9162,0.039601
1710.8481,0.038738
1711.7799,0.038002
1712.7117,0.037086
1713.6436,0.036124
1714.5754,0.035267
1715.5072,0.034400
1716.4391,0.033350
1717.3709,0.032648
1718.3027,0.032433
1719.2346,0.032223
1720.1664,0.031777
1721.0982,0.031263
1722.0301,0.031009
1722.9619,0.030310
1723.8937,0.029397
1724.8256,0.028844
1725.7574,0.028255
1726.6893,0.027709
1727.6211,0.027061
1728.5529,0.026442
1729.4848,0.026029
1730.4166,0.025862
1731.3484,0.025405
1732.2803,0.024669
1733.2121,0.024419
1734.1439,0.023803
1735.0758,0.023485
1736.0076,0.023588
1736.9394,0.022793
1737.8713,0.022366
1738.8031,0.022272
1739.7349,0.022116
1740.6668,0.021989
1741.5986,0.022170
1742.5304,0.021691
1743.4623,0.021013
1744.3941,0.021150
1745.3259,0.020790
1746.2578,0.019567
1747.1896,0.019282
1748.1214,0.019674
1749.0533,0.019685
1749.9851,0.020028
1750.9169,0.019822
1751.8488,0.018942
1752.7806,0.018167
1753.7125,0.017644
1754.6443,0.017290
1755.5761,0.016949
1756.5080,0.017006
1757.4398,0.017156
1758.3716,0.017041
1759.3035,0.017285
1760.2353,0.017476
1761.1671,0.017063
1762.0990,0.016606
1763.0308,0.016346
1763.9626,0.015913
1764.8945,0.015782
1765.8263,0.015923
1766.7581,0.015335
1767.6900,0.014619
1768.6218,0.014685
1769.5536,0.015026
1770.4855,0.015044
1771.4173,0.014609
1772.3491,0.014175
1773.2810,0.014367
1774.2128,0.014399
1775.1446,0.014028
1776.0765,0.013756
1777.0083,0.013537
1777.9401,0.013688
1778.8720,0.013930
1779.8038,0.013707
1780.7357,0.013560
1781.6675,0.013868
1782.5993,0.013764
1783.5312,0.013138
1784.4630,0.012605
1785.3948,0.012694
1786.3267,0.013143
1787.2585,0.013150
1788.1903,0.013027
1789.1222,0.012941
1790.0540,0.012462
1790.9858,0.011929
1791.9177,0.011709
1792.8495,0.011991
1793.7813,0.012651
1794.7132,0.012354
1795.6450,0.011442
1796.5768,0.011334
1797.5087,0.012057
1798.4405,0.012274
1799.3723,0.011620
1800.3042,0.011215
1801.2360,0.011312
1802.1678,0.011542
1803.0997,0.011492
1804.0315,0.010920
1804.9633,0.010828
1805.8952,0.011141
1806.8270,0.011193
1807.7589,0.010762
1808.6907,0.010362
1809.6225,0.010188
1810.5544,0.010441
1811.4862,0.011128
1812.4180,0.010794
1813.3499,0.010360
1814.2817,0.010675
1815.2135,0.010539
1816.1454,0.010078
1817.0772,0.009837
1818.0090,0.009853
1818.9409,0.010069
1819.8727,0.009905
1820.8045,0.009868
1821.7364,0.010019
1822.6682,0.009822
1823.6000,0.009983
1824.5319,0.010568
1825.4637,0.010247
1826.3955,0.009044
1827.3274,0.009398
1828.2592,0.010128
1829.1910,0.009819
1830.1229,0.009388
1831.0547,0.008884
1831.9865,0.009096
1832.9184,0.009209
1833.8502,0.008959
1834.7821,0.009483
1835.7139,0.009665
1836.6457,0.009189
1837.5776,0.009578
1838.5094,0.010326
1839.4412,0.010231
1840.3731,0.009710
1841.3049,0.009689
1842.2367,0.009376
1843.1686,0.008610
1844.1004,0.008496
1845.0322,0.008105
1845.9641,0.007285
1846.8959,0.007275
1847.8277,0.008005
1848.7596,0.009500
1849.6914,0.009654
1850.6232,0.008425
1851.5551,0.008967
1852.4869,0.009544
1853.4187,0.009042
1854.3506,0.009124
1855.2824,0.008920
1856.2142,0.008506
1857.1461,0.008604
1858.0779,0.009023
1859.0097,0.009246
1859.9416,0.009071
1860.8734,0.008941
1861.8052,0.009161
1862.7371,0.009277
1863.6689,0.009151
1864.6008,0.008800
1865.5326,0.008441
1866.4644,0.008280
1867.3963,0.008436
1868.3281,0.008363
1869.2599,0.008021
1870.1918,0.008304
1871.1236,0.008384
1872.0554,0.008294
1872.9873,0.008778
1873.9191,0.008884
1874.8509,0.008390
1875.7828,0.007414
1876.7146,0.007000
1877.6464,0.008153
1878.5783,0.009401
1879.5101,0.009411
1880.4419,0.008524
1881.3738,0.007935
1882.3056,0.007638
1883.2374,0.007636
1884.1693,0.007545
1885.1011,0.007741
1886.0329,0.008574
1886.9648,0.008934
1887.8966,0.009237
1888.8284,0.008814
1889.7603,0.008218
1890.6921,0.008145
1891.6240,0.008500
1892.5558,0.008767
1893.4876,0.008184
1894.4195,0.008010
1895.3513,0.007857
1896.2831,0.007660
1897.2150,0.008063
1898.1468,0.007917
1899.0786,0.007493
1900.0105,0.007680
1900.9423,0.008192
1901.8741,0.007907
1902.8060,0.007269
1903.7378,0.007663
1904.6696,0.008548
1905.6015,0.008952
1906.5333,0.009337
1907.4651,0.009475
1908.3970,0.008267
1909.3288,0.007733
1910.2606,0.008530
1911.1925,0.009043
1912.1243,0.009642
1913.0561,0.009613
1913.9880,0.009073
1914.9198,0.008032
1915.8516,0.008743
1916.7835,0.010759
1917.7153,0.010182
1918.6472,0.008487
1919.5790,0.008771
1920.5108,0.010157
1921.4427,0.009233
1922.3745,0.007452
1923.3063,0.006676
1924.2382,0.006544
1925.1700,0.006332
1926.1018,0.006472
1927.0337,0.007836
1927.9655,0.008021
1928.8973,0.007804
1929.8292,0.007661
1930.7610,0.007271
1931.6928,0.008103
1932.6247,0.007391
1933.5565,0.006789
1934.4883,0.007967
1935.4202,0.008575
1936.3520,0.006705
1937.2838,0.004415
1938.2157,0.005420
1939.1475,0.008136
1940.0793,0.008379
1941.0112,0.008070
1941.9430,0.007966
1942.8748,0.006418
1943.8067,0.004275
1944.7385,0.005435
1945.6704,0.007294
1946.6022,0.006048
1947.5340,0.005751
1948.4659,0.007060
1949.3977,0.008248
1950.3295,0.009021
1951.2614,0.007204
1952.1932,0.006364
1953.1250,0.005772
1954.0569,0.005398
1954.9887,0.007637
1955.9205,0.005994
1956.8524,0.003104
1957.7842,0.003826
1958.7160,0.005866
1959.6479,0.005420
1960.5797,0.005624
1961.5115,0.007489
1962.4434,0.008358
1963.3752,0.006473
1964.3070,0.003947
1965.2389,0.001682
1966.1707,0.002492
1967.1025,0.004110
1968.0344,0.003343
1968.9662,0.001380
1969.8980,0.001318
1970.8299,0.003434
1971.7617,0.003087
1972.6936,0.001708
1973.6254,0.002761
1974.5572,0.002797
1975.4891,0.002400
1976.4209,0.001472
1977.3527,0.000755
1978.2846,0.000979
1979.2164,0.003706
1980.1482,0.003153
1981.0801,0.001751
1982.0119,0.003960
1982.9437,0.005167
1983.8756,0.004581
1984.8074,0.004750
1985.7392,0.005818
1986.6711,0.007727
1987.6029,0.006428
1988.5347,0.003606
1989.4666,0.003209
1990.3984,0.004196
1991.3302,0.005104
1992.2621,0.005119
1993.1939,0.004324
1994.1257,0.002944
1995.0576,0.000652
1995.9894,0.001313
1996.9212,0.006620
1997.8531,0.009204
1998.7849,0.004424
1999.7167,0.003851
2000.6486,0.007340
2001.5804,0.007582
2002.5123,0.006413
2003.4441,0.006126
2004.3759,0.004975
2005.3078,0.005019
2006.2396,0.003702
2007.1714,0.002217
2008.1033,0.005336
2009.0351,0.007179
2009.9669,0.008901
2010.8988,0.010450
2011.8306,0.006002
2012.7624,0.001311
2013.6943,0.001925
2014.6261,0.002499
2015.5579,0.002490
2016.4898,0.004999
2017.4216,0.004080
2018.3534,0.002098
2019.2853,0.004512
2020.2171,0.007437
2021.1489,0.006851
2022.0808,0.004950
2023.0126,0.002924
2023.9444,0.004624
2024.8763,0.005494
2025.8081,0.003993
2026.7399,0.003764
2027.6718,0.005659
2028.6036,0.005749
2029.5355,0.004599
2030.4673,0.004554
2031.3991,0.005890
2032.3310,0.002814
2033.2628,0.002562
2034.1946,0.005550
2035.1265,0.008235
2036.0583,0.010170
2036.9901,0.008962
2037.9220,0.005171
2038.8538,0.003859
2039.7856,0.005327
2040.7175,0.005037
2041.6493,0.004716
2042.5811,0.007223
2043.5130,0.008229
2044.4448,0.007836
2045.3766,0.008064
2046.3085,0.006995
2047.2403,0.006234
2048.1721,0.005362
2049.1040,0.005598
2050.0358,0.008160
2050.9676,0.009571
2051.8995,0.009757
2052.8313,0.010705
2053.7631,0.010305
2054.6950,0.008255
2055.6268,0.008630
2056.5587,0.010127
2057.4905,0.010430
2058.4223,0.010014
2059.3542,0.010027
2060.2860,0.009457
2061.2178,0.009017
2062.1497,0.009037
2063.0815,0.010223
2064.0133,0.009966
2064.9452,0.009458
2065.8770,0.010090
2066.8088,0.010567
2067.7407,0.009805
2068.6725,0.008512
2069.6043,0.008489
2070.5362,0.009898
2071.4680,0.009197
2072.3998,0.009450
2073.3317,0.012345
2074.2635,0.013429
2075.1953,0.011072
2076.1272,0.009636
2077.0590,0.012317
2077.9908,0.014095
2078.9227,0.013181
2079.8545,0.012005
2080.7863,0.011706
2081.7182,0.012825
2082.6500,0.013103
2083.5819,0.013262
2084.5137,0.011747
2085.4455,0.010204
2086.3774,0.010627
2087.3092,0.009454
2088.2410,0.009048
2089.1729,0.011743
2090.1047,0.012260
2091.0365,0.011645
2091.9684,0.011166
2092.9002,0.011032
2093.8320,0.011603
2094.7639,0.010652
2095.6957,0.010036
2096.6275,0.010660
2097.5594,0.013139
2098.4912,0.013581
2099.4230,0.010825
2100.3549,0.010603
2101.2867,0.012170
2102.2185,0.012253
2103.1504,0.012257
2104.0822,0.011714
2105.0140,0.009957
2105.9459,0.010669
2106.8777,0.012042
2107.8095,0.012594
2108.7414,0.012313
2109.6732,0.011526
2110.6051,0.012089
2111.5369,0.012141
2112.4687,0.011957
2113.4006,0.012498
2114.3324,0.012661
2115.2642,0.012119
2116.1961,0.012742
2117.1279,0.013059
2118.0597,0.011552
2118.9916,0.009659
2119.9234,0.010353
2120.8552,0.012196
2121.7871,0.011792
2122.7189,0.011398
2123.6507,0.012103
2124.5826,0.013208
2125.5144,0.012475
2126.4462,0.011702
2127.3781,0.013158
2128.3099,0.013900
2129.2417,0.013524
2130.1736,0.012646
2131.1054,0.012618
2132.0372,0.012873
2132.9691,0.012135
2133.9009,0.012380
2134.8327,0.013448
2135.7646,0.013997
2136.6964,0.013387
2137.6282,0.012104
2138.5601,0.010914
2139.4919,0.009746
2140.4238,0.008876
2141.3556,0.008481
2142.2874,0.010111
2143.2193,0.011444
2144.1511,0.009593
2145.0829,0.008580
2146.0148,0.008551
2146.9466,0.008210
2147.8784,0.006762
2148.8103,0.007253
2149.7421,0.009068
2150.6739,0.009114
2151.6058,0.010633
2152.5376,0.012254
2153.4694,0.008286
2154.4013,0.002880
2155.3331,0.000742
2156.2649,0.001257
2157.1968,0.003973
2158.1286,0.006319
2159.0604,0.006410
2159.9923,0.007472
2160.9241,0.007844
2161.8559,0.003452
2162.7878,0.000540
2163.7196,0.002651
2164.6514,0.006581
2165.5833,0.007735
2166.5151,0.007620
2167.4470,0.005357
2168.3788,0.005554
2169.3106,0.007563
2170.2425,0.008806
2171.1743,0.008354
2172.1061,0.006984
2173.0380,0.007980
2173.9698,0.009019
2174.9016,0.007475
2175.8335,0.005514
2176.7653,0.003014
2177.6971,0.007391
2178.6290,0.010884
2179.5608,0.008223
2180.4926,0.004637
2181.4245,0.006143
2182.3563,0.006449
2183.2881,0.003450
2184.2200,0.002770
2185.1518,0.003756
2186.0836,0.005830
2187.0155,0.007569
2187.9473,0.008247
2188.8791,0.006393
2189.8110,0.005724
2190.7428,0.007026
2191.6746,0.008370
2192.6065,0.008936
2193.5383,0.009467
2194.4702,0.009890
2195.4020,0.008574
2196.3338,0.006124
2197.2657,0.005078
2198.1975,0.005552
2199.1293,0.005439
2200.0612,0.006322
2200.9930,0.008684
2201.9248,0.009002
2202.8567,0.007814
2203.7885,0.006142
2204.7203,0.006017
2205.6522,0.007063
2206.5840,0.006602
2207.5158,0.006802
2208.4477,0.007753
2209.3795,0.008046
2210.3113,0.008977
2211.2432,0.007142
2212.1750,0.007980
2213.1068,0.009104
2214.0387,0.008751
2214.9705,0.009198
2215.9023,0.010926
2216.8342,0.009788
2217.7660,0.006906
2218.6978,0.006905
2219.6297,0.006122
2220.5615,0.006243
2221.4934,0.008038
2222.4252,0.006586
2223.3570,0.006602
2224.2889,0.009896
2225.2207,0.010301
2226.1525,0.009620
2227.0844,0.008952
2228.0162,0.009236
2228.9480,0.011065
2229.8799,0.009838
2230.8117,0.008151
2231.7435,0.009453
2232.6754,0.009185
2233.6072,0.009670
2234.5390,0.009419
2235.4709,0.006618
2236.4027,0.005991
2237.3345,0.007015
2238.2664,0.007975
2239.1982,0.007467
2240.1300,0.007419
2241.0619,0.008281
2241.9937,0.009813
2242.9255,0.010023
2243.8574,0.008674
2244.7892,0.008054
2245.7210,0.009033
2246.6529,0.008822
2247.5847,0.007869
2248.5166,0.008363
2249.4484,0.007976
2250.3802,0.008354
2251.3121,0.009379
2252.2439,0.009598
2253.1757,0.008251
2254.1076,0.007140
2255.0394,0.008009
2255.9712,0.009151
2256.9031,0.009275
2257.8349,0.008550
2258.7667,0.008110
2259.6986,0.008864
2260.6304,0.008748
2261.5622,0.007910
2262.4941,0.008280
2263.4259,0.009223
2264.3577,0.009668
2265.2896,0.008025
2266.2214,0.006997
2267.1532,0.007126
2268.0851,0.007245
2269.0169,0.007921
2269.9487,0.007484
2270.8806,0.006727
2271.8124,0.007201
2272.7442,0.006641
2273.6761,0.007327
2274.6079,0.008665
2275.5397,0.007822
2276.4716,0.007375
2277.4034,0.008588
2278.3353,0.009336
2279.2671,0.009790
2280.1989,0.009181
2281.1308,0.008796
2282.0626,0.009270
2282.9944,0.009115
2283.9263,0.008706
2284.8581,0.008500
2285.7899,0.008727
2286.7218,0.009107
2287.6536,0.008514
2288.5854,0.008862
2289.5173,0.009131
2290.4491,0.008500
2291.3809,0.007718
2292.3128,0.007098
2293.2446,0.007198
2294.1764,0.007188
2295.1083,0.008047
2296.0401,0.009161
2296.9719,0.009365
2297.9038,0.009625
2298.8356,0.009023
2299.7674,0.008260
2300.6993,0.008906
2301.6311,0.009210
2302.5629,0.009104
2303.4948,0.008979
2304.4266,0.008668
2305.3585,0.008035
2306.2903,0.007366
2307.2221,0.008101
2308.1540,0.008842
2309.0858,0.008857
2310.0176,0.008641
2310.9495,0.008629
2311.8813,0.008405
2312.8131,0.008344
2313.7450,0.008677
2314.6768,0.008681
2315.6086,0.009010
2316.5405,0.008469
2317.4723,0.007524
2318.4041,0.007469
2319.3360,0.007348
2320.2678,0.007787
2321.1996,0.008469
2322.1315,0.009058
2323.0633,0.008206
2323.9951,0.008055
2324.9270,0.008246
2325.8588,0.008724
2326.7906,0.008670
2327.7225,0.008031
2328.6543,0.008292
2329.5861,0.007992
2330.5180,0.007784
2331.4498,0.007558
2332.3817,0.007736
2333.3135,0.007853
2334.2453,0.007180
2335.1772,0.006982
2336.1090,0.007981
2337.0408,0.008164
2337.9727,0.007379
2338.9045,0.007194
2339.8363,0.008347
2340.7682,0.008486
2341.7000,0.008042
2342.6318,0.007713
2343.5637,0.007841
2344.4955,0.007717
2345.4273,0.007322
2346.3592,0.006992
2347.2910,0.007272
2348.2228,0.008039
2349.1547,0.007573
2350.0865,0.007156
2351.0183,0.007411
2351.9502,0.008120
2352.8820,0.008404
2353.8138,0.008442
2354.7457,0.007633
2355.6775,0.007203
2356.6093,0.007669
2357.5412,0.007701
2358.4730,0.007338
2359.4049,0.007329
2360.3367,0.007383
2361.2685,0.006825
2362.2004,0.007426
2363.1322,0.007521
2364.0640,0.006669
2364.9959,0.005354
2365.9277,0.004125
2366.8595,0.004828
2367.7914,0.007060
2368.7232,0.007408
2369.6550,0.006201
2370.5869,0.004971
2371.5187,0.005605
2372.4505,0.006893
2373.3824,0.006416
2374.3142,0.005598
2375.2460,0.006542
2376.1779,0.007294
2377.1097,0.006780
2378.0415,0.006557
2378.9734,0.006554
2379.9052,0.006295
2380.8370,0.006375
2381.7689,0.006559
2382.7007,0.007203
2383.6325,0.007675
2384.5644,0.006863
2385.4962,0.006057
2386.4281,0.006202
2387.3599,0.006290
2388.2917,0.006533
2389.2236,0.006734
2390.1554,0.006437
2391.0872,0.006462
2392.0191,0.006683
2392.9509,0.007015
2393.8827,0.006783
2394.8146,0.006617
2395.7464,0.006753
2396.6782,0.006154
2397.6101,0.005843
2398.5419,0.006019
2399.4737,0.006450
2400.4056,0.006731
2401.3374,0.007244
2402.2692,0.006784
2403.2011,0.006488
2404.1329,0.006259
2405.0647,0.006025
2405.9966,0.006204
2406.9284,0.006257
2407.8602,0.005819
2408.7921,0.005623
2409.7239,0.005816
2410.6557,0.005973
2411.5876,0.006135
2412.5194,0.006558
2413.4512,0.006861
2414.3831,0.006557
2415.3149,0.006615
2416.2468,0.007030
2417.1786,0.007019
2418.1104,0.006404
2419.0423,0.005897
2419.9741,0.005609
2420.9059,0.005348
2421.8378,0.005800
2422.7696,0.006048
2423.7014,0.005068
2424.6333,0.004756
2425.5651,0.005003
2426.4969,0.005500
2427.4288,0.005642
2428.3606,0.005388
2429.2924,0.005717
2430.2243,0.006189
2431.1561,0.006022
2432.0879,0.005089
2433.0198,0.005164
2433.9516,0.005730
2434.8834,0.005974
2435.8153,0.005676
2436.7471,0.004814
2437.6789,0.004232
2438.6108,0.004974
2439.5426,0.005479
2440.4744,0.005407
2441.4063,0.005526
2442.3381,0.005248
2443.2700,0.005526
2444.2018,0.005514
2445.1336,0.004707
2446.0655,0.004765
2446.9973,0.005296
2447.9291,0.005449
2448.8610,0.004992
2449.7928,0.004485
2450.7246,0.004540
2451.6565,0.005592
2452.5883,0.006090
2453.5201,0.005898
2454.4520,0.005627
2455.3838,0.005813
2456.3156,0.005581
2457.2475,0.004783
2458.1793,0.004523
2459.1111,0.005149
2460.0430,0.005290
2460.9748,0.004825
2461.9066,0.004675
2462.8385,0.006040
2463.7703,0.006507
2464.7021,0.005643
2465.6340,0.005362
2466.5658,0.005717
2467.4976,0.005771
2468.4295,0.005530
2469.3613,0.005531
2470.2932,0.005426
2471.2250,0.005664
2472.1568,0.005501
2473.0887,0.005133
2474.0205,0.004839
2474.9523,0.004749
2475.8842,0.004384
2476.8160,0.004287
2477.7478,0.004342
2478.6797,0.004489
2479.6115,0.004832
2480.5433,0.005838
2481.4752,0.006282
2482.4070,0.005203
2483.3388,0.004985
2484.2707,0.005719
2485.2025,0.005966
2486.1343,0.005348
2487.0662,0.005042
2487.9980,0.004430
2488.9298,0.004356
2489.8617,0.004734
2490.7935,0.004945
2491.7253,0.004626
2492.6572,0.005107
2493.5890,0.005450
2494.5208,0.005015
2495.4527,0.004632
2496.3845,0.005183
2497.3164,0.005130
2498.2482,0.004431
2499.1800,0.005310
2500.1119,0.006134
2501.0437,0.006081
2501.9755,0.005846
2502.9074,0.005461
2503.8392,0.004929
2504.7710,0.005004
2505.7029,0.005497
2506.6347,0.006070
2507.5665,0.005796
2508.4984,0.005618
2509.4302,0.005437
2510.3620,0.005302
2511.2939,0.004719
2512.2257,0.004488
2513.1575,0.005262
2514.0894,0.006212
2515.0212,0.006298
2515.9530,0.005918
2516.8849,0.006273
2517.8167,0.005349
2518.7485,0.004632
2519.6804,0.005097
2520.6122,0.005374
2521.5440,0.005532
2522.4759,0.005412
2523.4077,0.005594
2524.3396,0.005085
2525.2714,0.004738
2526.2032,0.004601
2527.1351,0.004858
2528.0669,0.004966
2528.9987,0.005130
2529.9306,0.005832
2530.8624,0.005680
2531.7942,0.005431
2532.7261,0.004953
2533.6579,0.005012
2534.5897,0.005986
2535.5216,0.005359
2536.4534,0.004452
2537.3852,0.004467
2538.3171,0.005696
2539.2489,0.006141
2540.1807,0.005181
2541.1126,0.004755
2542.0444,0.005020
2542.9762,0.005241
2543.9081,0.006124
2544.8399,0.006796
2545.7717,0.005149
2546.7036,0.003481
2547.6354,0.003229
2548.5672,0.004187
2549.4991,0.004666
2550.4309,0.005041
2551.3627,0.005100
2552.2946,0.004419
2553.2264,0.004671
2554.1583,0.005223
2555.0901,0.005105
2556.0219,0.004581
2556.9538,0.004374
2557.8856,0.003748
2558.8174,0.003740
2559.7493,0.004788
2560.6811,0.005066
2561.6129,0.005035
2562.5448,0.005598
2563.4766,0.005979
2564.4084,0.005804
2565.3403,0.005219
2566.2721,0.004870
2567.2039,0.004912
2568.1358,0.004612
2569.0676,0.004747
2569.9994,0.004969
2570.9313,0.004219
2571.8631,0.004234
2572.7949,0.004986
2573.7268,0.004929
2574.6586,0.004920
2575.5904,0.005489
2576.5223,0.005812
2577.4541,0.004327
2578.3859,0.003647
2579.3178,0.004233
2580.2496,0.004421
2581.1815,0.003765
2582.1133,0.003521
2583.0451,0.004664
2583.9770,0.005190
2584.9088,0.004796
2585.8406,0.004823
2586.7725,0.004860
2587.7043,0.004803
2588.6361,0.004651
2589.5680,0.004255
2590.4998,0.004215
2591.4316,0.004715
2592.3635,0.004887
2593.2953,0.004808
2594.2271,0.004060
2595.1590,0.004246
2596.0908,0.004542
2597.0226,0.004483
2597.9545,0.004996
2598.8863,0.005083
2599.8181,0.004905
2600.7500,0.004918
2601.6818,0.004813
2602.6136,0.004354
2603.5455,0.004137
2604.4773,0.003780
2605.4091,0.004119
2606.3410,0.004678
2607.2728,0.004425
2608.2047,0.004682
2609.1365,0.004888
2610.0683,0.004999
2611.0002,0.005188
2611.9320,0.004533
2612.8638,0.003920
2613.7957,0.004669
2614.7275,0.005546
2615.6593,0.005671
2616.5912,0.005347
2617.5230,0.005094
2618.4548,0.004930
2619.3867,0.004598
2620.3185,0.005005
2621.2503,0.005926
2622.1822,0.005665
2623.1140,0.005060
2624.0458,0.005034
2624.9777,0.005082
2625.9095,0.005945
2626.8413,0.006469
2627.7732,0.005746
2628.7050,0.005167
2629.6368,0.005497
2630.5687,0.005564
2631.5005,0.005366
2632.4323,0.005565
2633.3642,0.005675
2634.2960,0.005407
2635.2279,0.005479
2636.1597,0.005969
2637.0915,0.006279
2638.0234,0.005684
2638.9552,0.004786
2639.8870,0.005095
2640.8189,0.005813
2641.7507,0.005551
2642.6825,0.005362
2643.6144,0.005254
2644.5462,0.005492
2645.4780,0.005520
2646.4099,0.005621
2647.3417,0.006491
2648.2735,0.006784
2649.2054,0.006490
2650.1372,0.006621
2651.0690,0.006507
2652.0009,0.006003
2652.9327,0.006104
2653.8645,0.006757
2654.7964,0.006487
2655.7282,0.005690
2656.6600,0.005876
2657.5919,0.006293
2658.5237,0.006384
2659.4555,0.006782
2660.3874,0.006614
2661.3192,0.006294
2662.2511,0.006418
2663.1829,0.006519
2664.1147,0.006615
2665.0466,0.007076
2665.9784,0.007226
2666.9102,0.006945
2667.8421,0.006368
2668.7739,0.006192
2669.7057,0.006550
2670.6376,0.006633
2671.5694,0.006442
2672.5012,0.006595
2673.4331,0.007089
2674.3649,0.006784
2675.2967,0.006441
2676.2286,0.006892
2677.1604,0.006976
2678.0922,0.006937
2679.0241,0.007132
2679.9559,0.007388
2680.8877,0.007748
2681.8196,0.007837
2682.7514,0.007561
2683.6832,0.007132
2684.6151,0.007035
2685.5469,0.007521
2686.4787,0.007864
2687.4106,0.007962
2688.3424,0.008159
2689.2742,0.008537
2690.2061,0.008536
2691.1379,0.008271
2692.0698,0.007905
2693.0016,0.007901
2693.9334,0.008136
2694.8653,0.008119
2695.7971,0.007719
2696.7289,0.008043
2697.6608,0.008355
2698.5926,0.007997
2699.5244,0.007773
2700.4563,0.008128
2701.3881,0.008394
2702.3199,0.008737
2703.2518,0.009167
2704.1836,0.009037
2705.1154,0.008890
2706.0473,0.009116
2706.9791,0.009204
2707.9109,0.009267
2708.8428,0.009035
2709.7746,0.008941
2710.7064,0.009288
2711.6383,0.009187
2712.5701,0.008925
2713.5019,0.009044
2714.4338,0.009458
2715.3656,0.009662
2716.2974,0.009453
2717.2293,0.009842
2718.1611,0.009953
2719.0930,0.009490
2720.0248,0.009296
2720.9566,0.009475
2721.8885,0.009677
2722.8203,0.009558
2723.7521,0.009617
2724.6840,0.009963
2725.6158,0.010219
2726.5476,0.010280
2727.4795,0.010493
2728.4113,0.010543
2729.3431,0.010521
2730.2750,0.010655
2731.2068,0.010719
2732.1386,0.011003
2733.0705,0.011183
2734.0023,0.011101
2734.9341,0.011038
2735.8660,0.011057
2736.7978,0.010730
2737.7296,0.010493
2738.6615,0.010492
2739.5933,0.010610
2740.5251,0.010916
2741.4570,0.011231
2742.3888,0.011297
2743.3206,0.011369
2744.2525,0.011457
2745.1843,0.011425
2746.1162,0.011408
2747.0480,0.011582
2747.9798,0.011920
2748.9117,0.011635
2749.8435,0.011416
2750.7753,0.011923
2751.7072,0.012346
2752.6390,0.012275
2753.5708,0.012229
2754.5027,0.012209
2755.4345,0.011661
2756.3663,0.011428
2757.2982,0.011976
2758.2300,0.012189
2759.1618,0.011771
2760.0937,0.011568
2761.0255,0.011838
2761.9573,0.012538
2762.8892,0.012507
2763.8210,0.011804
2764.7528,0.012021
2765.6847,0.012422
2766.6165,0.012784
2767.5483,0.012842
2768.4802,0.012157
2769.4120,0.011444
2770.3438,0.011815
2771.2757,0.012135
2772.2075,0.011941
2773.1394,0.012352
2774.0712,0.012934
2775.0030,0.013086
2775.9349,0.013545
2776.8667,0.013859
2777.7985,0.013533
2778.7304,0.013094
2779.6622,0.012542
2780.5940,0.012411
2781.5259,0.013108
2782.4577,0.013461
2783.3895,0.013427
2784.3214,0.013106
2785.2532,0.013587
2786.1850,0.014205
2787.1169,0.014207
2788.0487,0.014081
2788.9805,0.014026
2789.9124,0.014235
2790.8442,0.014580
2791.7760,0.014511
2792.7079,0.014373
2793.6397,0.014406
2794.5715,0.014610
2795.5034,0.014902
2796.4352,0.014890
2797.3670,0.014542
2798.2989,0.014843
2799.2307,0.015416
2800.1626,0.015858
2801.0944,0.016521
2802.0262,0.016335
2802.9581,0.015497
2803.8899,0.015832
2804.8217,0.016785
2805.7536,0.016641
2806.6854,0.016381
2807.6172,0.016995
2808.5491,0.017355
2809.4809,0.017868
2810.4127,0.018234
2811.3446,0.017999
2812.2764,0.018033
2813.2082,0.018120
2814.1401,0.018706
2815.0719,0.018852
2816.0037,0.018410
2816.9356,0.018792
2817.8674,0.019142
2818.7992,0.019151
2819.7311,0.019296
2820.6629,0.019662
2821.5947,0.019783
2822.5266,0.020141
2823.4584,0.020392
2824.3902,0.020075
2825.3221,0.019867
2826.2539,0.020562
2827.1857,0.021131
2828.1176,0.021021
2829.0494,0.021367
2829.9813,0.021373
2830.9131,0.021025
2831.8449,0.021341
2832.7768,0.021990
2833.7086,0.022218
2834.6404,0.022308
2835.5723,0.022543
2836.5041,0.022864
2837.4359,0.023129
2838.3678,0.023389
2839.2996,0.024015
2840.2314,0.024049
2841.1633,0.024223
2842.0951,0.024873
2843.0269,0.024997
2843.9588,0.024705
2844.8906,0.024596
2845.8224,0.024574
2846.7543,0.024793
2847.6861,0.025414
2848.6179,0.025871
2849.5498,0.025896
2850.4816,0.025480
2851.4134,0.025593
2852.3453,0.026553
2853.2771,0.026875
2854.2089,0.026811
2855.1408,0.027634
2856.0726,0.028291
2857.0045,0.028549
2857.9363,0.028920
2858.8681,0.028971
2859.8000,0.029008
2860.7318,0.029694
2861.6636,0.030565
2862.5955,0.030881
2863.5273,0.031073
2864.4591,0.031482
2865.3910,0.032208
2866.3228,0.032833
2867.2546,0.033386
2868.1865,0.034054
2869.1183,0.034319
2870.0501,0.034499
2870.9820,0.035263
2871.9138,0.036482
2872.8456,0.037400
2873.7775,0.037920
2874.7093,0.038311
2875.6411,0.039009
2876.5730,0.039961
2877.5048,0.040615
2878.4366,0.041210
2879.3685,0.042061
2880.3003,0.042857
2881.2321,0.043361
2882.1640,0.043193
2883.0958,0.042806
2884.0277,0.043283
2884.9595,0.043862
2885.8913,0.043373
2886.8232,0.043085
2887.7550,0.044526
2888.6868,0.046087
2889.6187,0.047204
2890.5505,0.047972
2891.4823,0.047822
2892.4142,0.047940
2893.3460,0.048181
2894.2778,0.048744
2895.2097,0.049714
2896.1415,0.050062
2897.0733,0.050481
2898.0052,0.050684
2898.9370,0.050186
2899.8688,0.050460
2900.8007,0.051347
2901.7325,0.051919
2902.6643,0.051782
2903.5962,0.051003
2904.5280,0.050483
2905.4598,0.050289
2906.3917,0.050549
2907.3235,0.050894
2908.2553,0.050626
2909.1872,0.049958
2910.1190,0.049243
2911.0509,0.049058
2911.9827,0.049031
2912.9145,0.048185
2913.8464,0.047757
2914.7782,0.047749
2915.7100,0.047258
2916.6419,0.046901
2917.5737,0.046236
2918.5055,0.045774
2919.4374,0.046326
2920.3692,0.046342
2921.3010,0.046296
2922.2329,0.046512
2923.1647,0.046764
2924.0965,0.047430
2925.0284,0.047980
2925.9602,0.048749
2926.8920,0.048733
2927.8239,0.048206
2928.7557,0.048274
2929.6875,0.048512
2930.6194,0.049097
2931.5512,0.049821
2932.4830,0.050155
2933.4149,0.050193
2934.3467,0.050361
2935.2785,0.050513
2936.2104,0.050781
2937.1422,0.050470
2938.0741,0.050302
2939.0059,0.050690
2939.9377,0.050463
2940.8696,0.049970
2941.8014,0.050175
2942.7332,0.050790
2943.6651,0.050690
2944.5969,0.050557
2945.5287,0.050689
2946.4606,0.050730
2947.3924,0.050919
2948.3242,0.050901
2949.2561,0.050318
2950.1879,0.050436
2951.1197,0.050869
2952.0516,0.050472
2952.9834,0.050489
2953.9152,0.050775
2954.8471,0.050968
2955.7789,0.051781
2956.7107,0.052557
2957.6426,0.053020
2958.5744,0.053479
2959.5062,0.054464
2960.4381,0.055740
2961.3699,0.056118
2962.3017,0.056219
2963.2336,0.057336
2964.1654,0.059519
2965.0972,0.061872
2966.0291,0.063605
2966.9609,0.065417
2967.8928,0.067883
2968.8246,0.070366
2969.7564,0.072713
2970.6883,0.075538
2971.6201,0.078691
2972.5519,0.081839
2973.4838,0.084988
2974.4156,0.087582
2975.3474,0.089753
2976.2793,0.092081
2977.2111,0.094133
2978.1429,0.095697
2979.0748,0.096598
2980.0066,0.097254
2980.9384,0.098305
2981.8703,0.098144
2982.8021,0.096315
2983.7339,0.093583
2984.6658,0.090652
2985.5976,0.088220
2986.5294,0.085843
2987.4613,0.083003
2988.3931,0.080088
2989.3249,0.077409
2990.2568,0.074171
2991.1886,0.071192
2992.1204,0.069349
2993.0523,0.068286
2993.9841,0.066302
2994.9160,0.063147
2995.8478,0.061291
2996.7796,0.060634
2997.7115,0.059401
2998.6433,0.057937
2999.5751,0.057359
3000.5070,0.057002
3001.4388,0.056212
3002.3706,0.055339
3003.3025,0.054984
3004.2343,0.055295
3005.1661,0.055167
3006.0980,0.054385
3007.0298,0.053903
3007.9616,0.054229
3008.8935,0.055072
3009.8253,0.055171
3010.7571,0.054925
3011.6890,0.055140
3012.6208,0.055090
3013.5526,0.055232
3014.4845,0.055306
3015.4163,0.055270
3016.3481,0.055967
3017.2800,0.056020
3018.2118,0.055531
3019.1436,0.055895
3020.0755,0.056383
3021.0073,0.056396
3021.9392,0.056152
3022.8710,0.056980
3023.8028,0.058074
3024.7347,0.058241
3025.6665,0.058289
3026.5983,0.058860
3027.5302,0.059403
3028.4620,0.059417
3029.3938,0.059223
3030.3257,0.060161
3031.2575,0.061436
3032.1893,0.061734
3033.1212,0.062461
3034.0530,0.063421
3034.9848,0.063432
3035.9167,0.063937
3036.8485,0.065285
3037.7803,0.065042
3038.7122,0.063954
3039.6440,0.064661
3040.5758,0.065634
3041.5077,0.065973
3042.4395,0.066831
3043.3713,0.068356
3044.3032,0.069795
3045.2350,0.069960
3046.1668,0.069803
3047.0987,0.070403
3048.0305,0.070926
3048.9624,0.071164
3049.8942,0.071472
3050.8260,0.072565
3051.7579,0.072979
3052.6897,0.072393
3053.6215,0.073086
3054.5534,0.074682
3055.4852,0.075828
3056.4170,0.076550
3057.3489,0.076631
3058.2807,0.077071
3059.2125,0.077779
3060.1444,0.077960
3061.0762,0.078489
3062.0080,0.079346
3062.9399,0.080292
3063.8717,0.081068
3064.8035,0.081230
3065.7354,0.081553
3066.6672,0.082863
3067.5990,0.084564
3068.5309,0.085308
3069.4627,0.084898
3070.3945,0.085085
3071.3264,0.086740
3072.2582,0.088250
3073.1900,0.088538
3074.1219,0.088756
3075.0537,0.090431
3075.9856,0.091541
3076.9174,0.091451
3077.8492,0.091660
3078.7811,0.092841
3079.7129,0.093896
3080.6447,0.093973
3081.5766,0.094600
3082.5084,0.095791
3083.4402,0.097122
3084.3721,0.098523
3085.3039,0.099089
3086.2357,0.099393
3087.1676,0.099769
3088.0994,0.100564
3089.0312,0.102394
3089.9631,0.104166
3090.8949,0.104015
3091.8267,0.104076
3092.7586,0.105018
3093.6904,0.106630
3094.6222,0.107619
3095.5541,0.107929
3096.4859,0.108725
3097.4177,0.109626
3098.3496,0.111472
3099.2814,0.113203
3100.2132,0.113818
3101.1451,0.115254
3102.0769,0.115453
3103.0087,0.114939
3103.9406,0.116262
3104.8724,0.117485
3105.8043,0.117863
3106.7361,0.119046
3107.6679,0.120488
3108.5998,0.121639
3109.5316,0.122718
3110.4634,0.123892
3111.3953,0.124498
3112.3271,0.125384
3113.2589,0.126701
3114.1908,0.128329
3115.1226,0.129105
3116.0544,0.128857
3116.9863,0.129391
3117.9181,0.131547
3118.8499,0.133741
3119.7818,0.134959
3120.7136,0.135059
3121.6454,0.136544
3122.5773,0.137640
3123.5091,0.137580
3124.4409,0.138240
3125.3728,0.139827
3126.3046,0.141229
3127.2364,0.142644
3128.1683,0.144507
3129.1001,0.145351
3130.0319,0.146469
3130.9638,0.148309
3131.8956,0.149431
3132.8275,0.150583
3133.7593,0.151025
3134.6911,0.151258
3135.6230,0.151565
3136.5548,0.153591
3137.4866,0.156176
3138.4185,0.157257
3139.3503,0.158387
3140.2821,0.161045
3141.2140,0.160918
3142.1458,0.159828
3143.0776,0.161313
3144.0095,0.163418
3144.9413,0.164996
3145.8731,0.166179
3146.8050,0.167510
3147.7368,0.169279
3148.6686,0.170490
3149.6005,0.172416
3150.5323,0.173027
3151.4641,0.173243
3152.3960,0.173936
3153.3278,0.175024
3154.2596,0.177066
3155.1915,0.179214
3156.1233,0.180080
3157.0551,0.180747
3157.9870,0.180008
3158.9188,0.179757
3159.8507,0.181743
3160.7825,0.183970
3161.7143,0.185882
3162.6462,0.188452
3163.5780,0.190243
3164.5098,0.190945
3165.4417,0.192222
3166.3735,0.193787
3167.3053,0.194396
3168.2372,0.196397
3169.1690,0.197602
3170.1008,0.197815
3171.0327,0.198626
3171.9645,0.199375
3172.8963,0.200616
3173.8282,0.202334
3174.7600,0.203482
3175.6918,0.204856
3176.6237,0.204945
3177.5555,0.206255
3178.4873,0.208862
3179.4192,0.209603
3180.3510,0.209747
3181.2828,0.211333
3182.2147,0.212534
3183.1465,0.213407
3184.0783,0.215427
3185.0102,0.217767
3185.9420,0.218230
3186.8739,0.219223
3187.8057,0.220173
3188.7375,0.221334
3189.6694,0.222083
3190.6012,0.223133
3191.5330,0.225494
3192.4649,0.227586
3193.3967,0.227975
3194.3285,0.228024
3195.2604,0.229291
3196.1922,0.230658
3197.1240,0.230466
3198.0559,0.232038
3198.9877,0.233737
3199.9195,0.234630
3200.8514,0.235217
3201.7832,0.236064
3202.7150,0.236852
3203.6469,0.238711
3204.5787,0.240118
3205.5105,0.240384
3206.4424,0.240588
3207.3742,0.243215
3208.3060,0.244374
3209.2379,0.243482
3210.1697,0.244709
3211.1015,0.246734
3212.0334,0.247052
3212.9652,0.248442
3213.8971,0.249461
3214.8289,0.249552
3215.7607,0.250458
3216.6926,0.252302
3217.6244,0.252124
3218.5562,0.252471
3219.4881,0.253556
3220.4199,0.254371
3221.3517,0.254047
3222.2836,0.255758
3223.2154,0.257741
3224.1472,0.259138
3225.0791,0.259652
3226.0109,0.259712
3226.9427,0.258684
3227.8746,0.258474
3228.8064,0.260412
3229.7382,0.263741
3230.6701,0.263068
3231.6019,0.262815
3232.5337,0.264445
3233.4656,0.264883
3234.3974,0.264518
3235.3292,0.265317
3236.2611,0.264472
3237.1929,0.265416
3238.1247,0.267247
3239.0566,0.267131
3239.9884,0.264759
3240.9202,0.265490
3241.8521,0.268084
3242.7839,0.268218
3243.7158,0.268076
3244.6476,0.269993
3245.5794,0.271509
3246.5113,0.272958
3247.4431,0.272893
3248.3749,0.271677
3249.3068,0.271311
3250.2386,0.271380
3251.1704,0.269532
3252.1023,0.270386
3253.0341,0.272419
3253.9659,0.273863
3254.8978,0.274777
3255.8296,0.274369
3256.7614,0.272741
3257.6933,0.273535
3258.6251,0.276445
3259.5569,0.276474
3260.4888,0.273386
3261.4206,0.274450
3262.3524,0.276489
3263.2843,0.278128
3264.2161,0.278591
3265.1479,0.276748
3266.0798,0.274298
3267.0116,0.275195
3267.9434,0.278406
3268.8753,0.279571
3269.8071,0.277615
3270.7390,0.276085
3271.6708,0.273538
3272.6026,0.273323
3273.5345,0.273753
3274.4663,0.274273
3275.3981,0.276453
3276.3300,0.277669
3277.2618,0.275736
3278.1936,0.276935
3279.1255,0.277538
3280.0573,0.277936
3280.9891,0.279932
3281.9210,0.279950
3282.8528,0.278337
3283.7846,0.278593
3284.7165,0.278942
3285.6483,0.280196
3286.5801,0.281066
3287.5120,0.281172
3288.4438,0.279633
3289.3756,0.280022
3290.3075,0.280120
3291.2393,0.279926
3292.1711,0.279869
3293.1030,0.281182
3294.0348,0.281686
3294.9666,0.280539
3295.8985,0.278706
3296.8303,0.279481
3297.7622,0.279529
3298.6940,0.278969
3299.6258,0.279967
3300.5577,0.279923
3301.4895,0.278708
3302.4213,0.280435
3303.3532,0.282421
3304.2850,0.282015
3305.2168,0.279581
3306.1487,0.279521
3307.0805,0.280043
3308.0123,0.281910
3308.9442,0.282330
3309.8760,0.281904
3310.8078,0.280235
3311.7397,0.280596
3312.6715,0.280442
3313.6033,0.279795
3314.5352,0.280613
3315.4670,0.282087
3316.3988,0.282142
3317.3307,0.282906
3318.2625,0.282488
3319.1943,0.282292
3320.1262,0.283503
3321.0580,0.284286
3321.9898,0.282259
3322.9217,0.284256
3323.8535,0.285837
3324.7854,0.285523
3325.7172,0.282834
3326.6490,0.282570
3327.5809,0.284112
3328.5127,0.284406
3329.4445,0.283953
3330.3764,0.283752
3331.3082,0.283845
3332.2400,0.283775
3333.1719,0.284632
3334.1037,0.286661
3335.0355,0.286676
3335.9674,0.286114
3336.8992,0.284857
3337.8310,0.282789
3338.7629,0.280960
3339.6947,0.281818
3340.6265,0.284545
3341.5584,0.287420
3342.4902,0.286863
3343.4220,0.284659
3344.3539,0.283371
3345.2857,0.285023
3346.2175,0.284650
3347.1494,0.284443
3348.0812,0.282928
3349.0130,0.281517
3349.9449,0.282170
3350.8767,0.284373
3351.8086,0.284131
3352.7404,0.284625
3353.6722,0.285223
3354.6041,0.284852
3355.5359,0.282489
3356.4677,0.283169
3357.3996,0.283825
3358.3314,0.284710
3359.2632,0.283496
3360.1951,0.283199
3361.1269,0.283960
3362.0587,0.283156
3362.9906,0.280593
3363.9224,0.282038
3364.8542,0.281563
3365.7861,0.283771
3366.7179,0.283915
3367.6497,0.282166
3368.5816,0.280451
3369.5134,0.279929
3370.4452,0.281256
3371.3771,0.280413
3372.3089,0.279913
3373.2407,0.283802
3374.1726,0.281986
3375.1044,0.280145
3376.0362,0.279459
3376.9681,0.280905
3377.8999,0.282115
3378.8317,0.283160
3379.7636,0.280560
3380.6954,0.279270
3381.6273,0.278180
3382.5591,0.278434
3383.4909,0.277344
3384.4228,0.277791
3385.3546,0.278466
3386.2864,0.277801
3387.2183,0.277066
3388.1501,0.276015
3389.0819,0.274448
3390.0138,0.276068
3390.9456,0.277144
3391.8774,0.275509
3392.8093,0.274546
3393.7411,0.275291
3394.6729,0.274289
3395.6048,0.272574
3396.5366,0.273408
3397.4684,0.271498
3398.4003,0.268194
3399.3321,0.266883
3400.2639,0.263893
3401.1958,0.264258
3402.1276,0.264996
3403.0594,0.264970
3403.9913,0.265268
3404.9231,0.265495
3405.8549,0.263315
3406.7868,0.261085
3407.7186,0.260328
3408.6505,0.261859
3409.5823,0.259712
3410.5141,0.260095
3411.4460,0.261457
3412.3778,0.262726
3413.3096,0.260014
3414.2415,0.258316
3415.1733,0.253633
3416.1051,0.249629
3417.0370,0.249329
3417.9688,0.252558
3418.9006,0.253316
3419.8325,0.252695
3420.7643,0.250890
3421.6961,0.250651
3422.6280,0.249100
3423.5598,0.249859
3424.4916,0.249400
3425.4235,0.247828
3426.3553,0.246672
3427.2871,0.247234
3428.2190,0.245084
3429.1508,0.241530
3430.0826,0.241007
3431.0145,0.242150
3431.9463,0.239683
3432.8781,0.236642
3433.8100,0.235726
3434.7418,0.236330
3435.6737,0.233980
3436.6055,0.233930
3437.5373,0.234263
3438.4692,0.232650
3439.4010,0.230554
3440.3328,0.228605
3441.2647,0.226309
3442.1965,0.226727
3443.1283,0.225621
3444.0602,0.226528
3444.9920,0.226017
3445.9238,0.224818
3446.8557,0.224122
3447.7875,0.222629
3448.7193,0.222051
3449.6512,0.223897
3450.5830,0.222208
3451.5148,0.219801
3452.4467,0.217926
3453.3785,0.216961
3454.3103,0.214677
3455.2422,0.214800
3456.1740,0.214036
3457.1058,0.214595
3458.0377,0.214173
3458.9695,0.211224
3459.9013,0.210617
3460.8332,0.210754
3461.7650,0.210404
3462.6969,0.208818
3463.6287,0.205294
3464.5605,0.207595
3465.4924,0.208009
3466.4242,0.205913
3467.3560,0.203782
3468.2879,0.201721
3469.2197,0.197853
3470.1515,0.196330
3471.0834,0.195322
3472.0152,0.195354
3472.9470,0.192807
3473.8789,0.191705
3474.8107,0.191095
3475.7425,0.192058
3476.6744,0.191833
3477.6062,0.192985
3478.5380,0.192065
3479.4699,0.189019
3480.4017,0.184850
3481.3335,0.183437
3482.2654,0.182660
3483.1972,0.184606
3484.1290,0.183263
3485.0609,0.180720
3485.9927,0.181920
3486.9245,0.181378
3487.8564,0.176801
3488.7882,0.176645
3489.7201,0.176758
3490.6519,0.178288
3491.5837,0.176600
3492.5156,0.172982
3493.4474,0.172753
3494.3792,0.175959
3495.3111,0.174661
3496.2429,0.172029
3497.1747,0.170309
3498.1066,0.170754
3499.0384,0.167858
3499.9702,0.166453
3500.9021,0.164915
3501.8339,0.164487
3502.7657,0.166819
3503.6976,0.166017
3504.6294,0.161891
3505.5612,0.160803
3506.4931,0.158441
3507.4249,0.157390
3508.3567,0.156746
3509.2886,0.159219
3510.2204,0.158294
3511.1522,0.154531
3512.0841,0.152202
3513.0159,0.150400
3513.9477,0.149890
3514.8796,0.149448
3515.8114,0.148817
3516.7432,0.150082
3517.6751,0.148574
3518.6069,0.146979
3519.5388,0.145811
3520.4706,0.144709
3521.4024,0.142419
3522.3343,0.140946
3523.2661,0.138443
3524.1979,0.140479
3525.1298,0.142728
3526.0616,0.144811
3526.9934,0.142595
3527.9253,0.139763
3528.8571,0.138537
3529.7889,0.139001
3530.7208,0.137906
3531.6526,0.137730
3532.5844,0.135886
3533.5163,0.132657
3534.4481,0.128691
3535.3799,0.127570
3536.3118,0.129606
3537.2436,0.130886
3538.1754,0.130265
3539.1073,0.130541
3540.0391,0.126658
3540.9709,0.120696
3541.9028,0.121035
3542.8346,0.122985
3543.7664,0.122546
3544.6983,0.119848
3545.6301,0.121512
3546.5620,0.122713
3547.4938,0.117670
3548.4256,0.117517
3549.3575,0.115984
3550.2893,0.115207
3551.2211,0.115424
3552.1530,0.115726
3553.0848,0.115409
3554.0166,0.112836
3554.9485,0.109124
3555.8803,0.108294
3556.8121,0.109584
3557.7440,0.108328
3558.6758,0.107052
3559.6076,0.108166
3560.5395,0.106956
3561.4713,0.105084
3562.4031,0.104848
3563.3350,0.102436
3564.2668,0.101876
3565.1986,0.102232
3566.1305,0.100351
3567.0623,0.098652
3567.9941,0.096978
3568.9260,0.095677
3569.8578,0.096099
3570.7896,0.095977
3571.7215,0.093372
3572.6533,0.094129
3573.5852,0.095021
3574.5170,0.095199
3575.4488,0.094559
3576.3807,0.094649
3577.3125,0.093269
3578.2443,0.091318
3579.1762,0.089752
3580.1080,0.088382
3581.0398,0.087691
3581.9717,0.088079
3582.9035,0.088174
3583.8353,0.087358
3584.7672,0.085884
3585.6990,0.084408
3586.6308,0.081907
3587.5627,0.081627
3588.4945,0.079840
3589.4263,0.075633
3590.3582,0.077730
3591.2900,0.081359
3592.2218,0.080885
3593.1537,0.078464
3594.0855,0.076043
3595.0173,0.075793
3595.9492,0.076073
3596.8810,0.075129
3597.8128,0.073532
3598.7447,0.072813
3599.6765,0.072544
3600.6084,0.070856
3601.5402,0.070289
3602.4720,0.069983
3603.4039,0.067770
3604.3357,0.067994
3605.2675,0.067357
3606.1994,0.065135
3607.1312,0.064071
3608.0630,0.063986
3608.9949,0.062563
3609.9267,0.061927
3610.8585,0.063549
3611.7904,0.065043
3612.7222,0.064313
3613.6540,0.062813
3614.5859,0.061991
3615.5177,0.061276
3616.4495,0.061711
3617.3814,0.062812
3618.3132,0.062640
3619.2450,0.060529
3620.1769,0.058637
3621.1087,0.056888
3622.0405,0.055356
3622.9724,0.053952
3623.9042,0.055073
3624.8360,0.054787
3625.7679,0.054204
3626.6997,0.052430
3627.6316,0.050862
3628.5634,0.051776
3629.4952,0.051578
3630.4271,0.050241
3631.3589,0.048758
3632.2907,0.048797
3633.2226,0.049269
3634.1544,0.047656
3635.0862,0.044921
3636.0181,0.045730
3636.9499,0.048518
3637.8817,0.049875
3638.8136,0.048220
3639.7454,0.045969
3640.6772,0.043527
3641.6091,0.042485
3642.5409,0.040988
3643.4727,0.040733
3644.4046,0.042133
3645.3364,0.041179
3646.2682,0.039305
3647.2001,0.039044
3648.1319,0.038964
3649.0637,0.037349
3649.9956,0.034886
3650.9274,0.036797
3651.8592,0.037601
3652.7911,0.036462
3653.7229,0.036064
3654.6547,0.034248
3655.5866,0.031976
3656.5184,0.031741
3657.4503,0.032089
3658.3821,0.032475
3659.3139,0.030687
3660.2458,0.030226
3661.1776,0.030967
3662.1094,0.029365
3663.0413,0.027650
3663.9731,0.028432
3664.9049,0.028488
3665.8368,0.025651
3666.7686,0.023986
3667.7004,0.023520
3668.6323,0.023373
3669.5641,0.024506
3670.4959,0.023795
3671.4278,0.021728
3672.3596,0.020045
3673.2914,0.019997
3674.2233,0.020884
3675.1551,0.020221
3676.0869,0.018884
3677.0188,0.016484
3677.9506,0.015663
3678.8824,0.016376
3679.8143,0.017386
3680.7461,0.016336
3681.6779,0.014640
3682.6098,0.014720
3683.5416,0.015746
3684.4735,0.015479
3685.4053,0.014066
3686.3371,0.012888
3687.2690,0.011395
3688.2008,0.012298
3689.1326,0.013136
3690.0645,0.011485
3690.9963,0.010323
3691.9281,0.008930
3692.8600,0.007475
3693.7918,0.008222
3694.7236,0.009518
3695.6555,0.010260
3696.5873,0.009127
3697.5191,0.008049
3698.4510,0.007940
3699.3828,0.008395
3700.3146,0.007776
3701.2465,0.006223
3702.1783,0.005482
3703.1101,0.006212
3704.0420,0.007630
3704.9738,0.006354
3705.9056,0.004704
3706.8375,0.005990
3707.7693,0.006754
3708.7011,0.006416
3709.6330,0.005485
3710.5648,0.004434
3711.4967,0.003898
3712.4285,0.003012
3713.3603,0.003808
3714.2922,0.004589
3715.2240,0.003961
3716.1558,0.003419
3717.0877,0.003012
3718.0195,0.002480
3718.9513,0.002836
3719.8832,0.003710
3720.8150,0.003822
3721.7468,0.002705
3722.6787,0.002689
3723.6105,0.002231
3724.5423,0.001083
3725.4742,0.001966
3726.4060,0.003037
3727.3378,0.002609
3728.2697,0.001881
3729.2015,0.002125
3730.1333,0.002813
3731.0652,0.001853
3731.9970,0.001474
3732.9288,0.002382
3733.8607,0.003496
3734.7925,0.001446
3735.7243,0.000900
3736.6562,0.001123
3737.5880,0.000681
3738.5199,0.001871
3739.4517,0.003802
3740.3835,0.002447
3741.3154,0.002235
3742.2472,0.002438
3743.1790,0.002402
3744.1109,0.002316
3745.0427,0.001545
3745.9745,0.001502
3746.9064,0.001702
3747.8382,0.001175
3748.7700,0.000802
3749.7019,0.001114
3750.6337,0.000668
3751.5655,0.001412
3752.4974,0.001507
3753.4292,0.000933
3754.3610,0.000073
3755.2929,0.000212
3756.2247,0.001789
3757.1565,0.001761
3758.0884,0.001054
3759.0202,0.001070
3759.9520,0.001836
3760.8839,0.001697
3761.8157,0.001123
3762.7475,0.000254
3763.6794,0.000252
3764.6112,0.001716
3765.5431,0.002619
3766.4749,0.002443
3767.4067,0.002071
3768.3386,0.001103
3769.2704,0.001232
3770.2022,0.001497
3771.1341,0.001353
3772.0659,0.001721
3772.9977,0.001903
3773.9296,0.001584
3774.8614,0.001686
3775.7932,0.002259
3776.7251,0.001891
3777.6569,0.001460
3778.5887,0.001232
3779.5206,0.000579
3780.4524,-0.000257
3781.3842,0.000389
3782.3161,0.001706
3783.2479,0.001796
3784.1797,0.000743
3785.1116,0.000588
3786.0434,0.001370
3786.9752,0.001371
3787.9071,0.001150
3788.8389,0.001441
3789.7707,0.001711
3790.7026,0.001449
3791.6344,0.001725
3792.5662,0.001773
3793.4981,0.001935
3794.4299,0.001338
3795.3618,0.000990
3796.2936,0.001445
3797.2254,0.000493
3798.1573,0.000477
3799.0891,0.001093
3800.0209,0.000796
3800.9528,-0.000007
3801.8846,-0.000377
3802.8164,-0.000614
3803.7483,-0.000307
3804.6801,-0.000393
3805.6119,-0.000721
3806.5438,0.000323
3807.4756,0.000641
3808.4074,0.000381
3809.3393,0.000761
3810.2711,0.001580
3811.2029,0.001520
3812.1348,0.001543
3813.0666,0.001404
3813.9984,0.001321
3814.9303,0.001121
3815.8621,0.001213
3816.7939,0.001783
3817.7258,0.001416
3818.6576,0.000229
3819.5894,0.000282
3820.5213,0.000723
3821.4531,0.000759
3822.3850,-0.000166
3823.3168,-0.000892
3824.2486,-0.000638
3825.1805,0.000410
3826.1123,0.000517
3827.0441,0.000130
3827.9760,0.000317
3828.9078,0.000678
3829.8396,0.001566
3830.7715,0.000713
3831.7033,0.000054
3832.6351,0.000908
3833.5670,0.000722
3834.4988,-0.000398
3835.4306,-0.001024
3836.3625,-0.000508
3837.2943,0.000245
3838.2261,0.000688
3839.1580,0.000567
3840.0898,-0.000355
3841.0216,-0.000225
3841.9535,-0.000681
3842.8853,-0.001441
3843.8171,-0.001037
3844.7490,-0.000257
3845.6808,0.000935
3846.6126,0.002035
3847.5445,0.001034
3848.4763,0.000536
3849.4082,0.000830
3850.3400,0.001192
3851.2718,0.001578
3852.2037,0.000466
3853.1355,-0.000446
3854.0673,-0.000280
3854.9992,-0.000344
3855.9310,-0.001233
3856.8628,-0.001387
3857.7947,-0.000527
3858.7265,0.000291
3859.6583,0.000009
3860.5902,0.000414
3861.5220,0.001630
3862.4538,0.001667
3863.3857,0.000323
3864.3175,-0.000716
3865.2493,-0.000127
3866.1812,0.000999
3867.1130,0.001322
3868.0448,0.000599
3868.9767,-0.000034
3869.9085,-0.000306
3870.8403,-0.000649
3871.7722,-0.000046
3872.7040,0.000495
3873.6358,0.000513
3874.5677,-0.000126
3875.4995,-0.000557
3876.4314,0.000321
3877.3632,0.000644
3878.2950,0.000052
3879.2269,-0.000631
3880.1587,-0.000798
3881.0905,-0.000321
3882.0224,-0.000494
3882.9542,-0.000695
3883.8860,-0.000650
3884.8179,-0.000418
3885.7497,0.000246
3886.6815,0.000481
3887.6134,0.000037
3888.5452,-0.000124
3889.4770,0.000606
3890.4089,0.000945
3891.3407,0.000915
3892.2725,0.001628
3893.2044,0.001167
3894.1362,-0.000003
3895.0680,-0.000182
3895.9999,-0.000051
3896.9317,0.000227
3897.8635,0.000279
3898.7954,0.000520
3899.7272,0.000619
3900.6590,-0.000386
3901.5909,-0.000622
3902.5227,0.000126
3903.4546,-0.000960
3904.3864,-0.001698
3905.3182,-0.001172
3906.2501,0.000341
3907.1819,0.001487
3908.1137,0.000775
3909.0456,0.000721
3909.9774,0.000852
3910.9092,0.001169
3911.8411,0.000947
3912.7729,0.000266
3913.7047,0.000007
3914.6366,0.000686
3915.5684,0.000838
3916.5002,0.000390
3917.4321,0.000921
3918.3639,0.001407
3919.2957,0.001028
3920.2276,0.000560
3921.1594,0.000426
3922.0912,0.000446
3923.0231,0.000769
3923.9549,0.000449
3924.8867,-0.000283
3925.8186,0.000937
3926.7504,0.001739
3927.6822,0.000679
3928.6141,0.000361
3929.5459,0.001514
3930.4777,0.002077
3931.4096,0.001804
3932.3414,0.001280
3933.2733,0.000682
3934.2051,0.000778
3935.1369,0.000871
3936.0688,0.000914
3937.0006,0.000640
3937.9324,0.000149
3938.8643,0.000922
3939.7961,0.002015
3940.7279,0.002757
3941.6598,0.002745
3942.5916,0.002000
3943.5234,0.001370
3944.4553,0.001110
3945.3871,0.000964
3946.3189,0.001097
3947.2508,0.000524
3948.1826,-0.000115
3949.1144,0.000679
3950.0463,0.001047
3950.9781,-0.000288
3951.9099,-0.001123
3952.8418,-0.000946
3953.7736,-0.000583
3954.7054,0.000020
3955.6373,0.000284
3956.5691,0.000298
3957.5009,0.001361
3958.4328,0.002284
3959.3646,0.001237
3960.2965,-0.000188
3961.2283,0.000581
3962.1601,0.001175
3963.0920,0.000435
3964.0238,0.000956
3964.9556,0.001863
3965.8875,0.001751
3966.8193,0.001592
3967.7511,0.001551
3968.6830,0.001652
3969.6148,0.001798
3970.5466,0.001055
3971.4785,0.000621
3972.4103,0.001063
3973.3421,0.001267
3974.2740,0.001015
3975.2058,0.001670
3976.1376,0.002831
3977.0695,0.001940
3978.0013,0.000557
3978.9331,0.000563
3979.8650,0.000608
3980.7968,-0.000307
3981.7286,-0.000277
3982.6605,0.000862
3983.5923,0.001414
3984.5241,0.002063
3985.4560,0.002447
3986.3878,0.001222
3987.3197,0.000433
3988.2515,0.001161
3989.1833,0.001820
3990.1152,0.001089
3991.0470,0.000630
3991.9788,0.001639
3992.9107,0.002185
3993.8425,0.002321
3994.7743,0.001939
3995.7062,0.000835
3996.6380,0.000965
3997.5698,0.001379
3998.5017,0.001432
3999.4335,0.001808
4000.3653,0.001010
