Wavenumber,Intensity
650.4205,0.369532
651.3523,0.380972
652.2841,0.386142
653.2160,0.385190
654.1478,0.386919
655.0796,0.391205
656.0115,0.379873
656.9433,0.374393
657.8751,0.383443
658.8070,0.389573
659.7388,0.378934
660.6706,0.373353
661.6025,0.373141
662.5343,0.374188
663.4661,0.373008
664.3980,0.366186
665.3298,0.360992
666.2616,0.364190
667.1935,0.368951
668.1253,0.370663
669.0571,0.369329
669.9890,0.369447
670.9208,0.367561
671.8526,0.361603
672.7845,0.360817
673.7163,0.362389
674.6481,0.353376
675.5800,0.352436
676.5118,0.355424
677.4437,0.359257
678.3755,0.357971
679.3073,0.354966
680.2392,0.346804
681.1710,0.344068
682.1028,0.346029
683.0347,0.350299
683.9665,0.350486
684.8983,0.347425
685.8302,0.345845
686.7620,0.343028
687.6938,0.338960
688.6257,0.344085
689.5575,0.343506
690.4893,0.337922
691.4212,0.336939
692.3530,0.339883
693.2848,0.337016
694.2167,0.334120
695.1485,0.332464
696.0803,0.328276
697.0122,0.327264
697.9440,0.328833
698.8758,0.327261
699.8077,0.323973
700.7395,0.315593
701.6713,0.316652
702.6032,0.319739
703.5350,0.321795
704.4669,0.323912
705.3987,0.321266
706.3305,0.317289
707.2624,0.314765
708.1942,0.311532
709.1260,0.312682
710.0579,0.312006
710.9897,0.308546
711.9215,0.307816
712.8534,0.306651
713.7852,0.304269
714.7170,0.304317
715.6489,0.301809
716.5807,0.298618
717.5125,0.298947
718.4444,0.300273
719.3762,0.296769
720.3080,0.295454
721.2399,0.293802
722.1717,0.293077
723.1035,0.292045
724.0354,0.292495
724.9672,0.293265
725.8990,0.293253
726.8309,0.291409
727.7627,0.285711
728.6945,0.284842
729.6264,0.286035
730.5582,0.282186
731.4901,0.277186
732.4219,0.276386
733.3537,0.278109
734.2856,0.275440
735.2174,0.275691
736.1492,0.273632
737.0811,0.270053
738.0129,0.271796
738.9447,0.272148
739.8766,0.268515
740.8084,0.267505
741.7402,0.268567
742.6721,0.270010
743.6039,0.268702
744.5357,0.265536
745.4676,0.262565
746.3994,0.260921
747.3312,0.256995
748.2631,0.256282
749.1949,0.257835
750.1267,0.255155
751.0586,0.251180
751.9904,0.250742
752.9222,0.251302
753.8541,0.250344
754.7859,0.249124
755.7177,0.247513
756.6496,0.246938
757.5814,0.245871
758.5132,0.242828
759.4451,0.242041
760.3769,0.240594
761.3088,0.239790
762.2406,0.238867
763.1724,0.237864
764.1043,0.236119
765.0361,0.234201
765.9679,0.232828
766.8998,0.233361
767.8316,0.232774
768.7634,0.231482
769.6953,0.230499
770.6271,0.227914
771.5589,0.225770
772.4908,0.224038
773.4226,0.221959
774.3544,0.220818
775.2863,0.219491
776.2181,0.217926
777.1499,0.217119
778.0818,0.218093
779.0136,0.218165
779.9454,0.216589
780.8773,0.214191
781.8091,0.212835
782.7409,0.211706
783.6728,0.210005
784.6046,0.208183
785.5364,0.206095
786.4683,0.204140
787.4001,0.204011
788.3320,0.203616
789.2638,0.201832
790.1956,0.199338
791.1275,0.198145
792.0593,0.197169
792.9911,0.196675
793.9230,0.195629
794.8548,0.195528
795.7866,0.195641
796.7185,0.194446
797.6503,0.192403
798.5821,0.191071
799.5140,0.190507
800.4458,0.188571
801.3776,0.186803
802.3095,0.186898
803.2413,0.186252
804.1731,0.185915
805.1050,0.183091
806.0368,0.180710
806.9686,0.180610
807.9005,0.179132
808.8323,0.177300
809.7641,0.177075
810.6960,0.175810
811.6278,0.173103
812.5596,0.171356
813.4915,0.170974
814.4233,0.169546
815.3552,0.168596
816.2870,0.167403
817.2188,0.166332
818.1507,0.164564
819.0825,0.163335
820.0143,0.161835
820.9462,0.161357
821.8780,0.159766
822.8098,0.157770
823.7417,0.157840
824.6735,0.157413
825.6053,0.155095
826.5372,0.153443
827.4690,0.152997
828.4008,0.151644
829.3327,0.150535
830.2645,0.149887
831.1963,0.148599
832.1282,0.148019
833.0600,0.147423
833.9918,0.146082
834.9237,0.144404
835.8555,0.143633
836.7873,0.142149
837.7192,0.141052
838.6510,0.141149
839.5828,0.140514
840.5147,0.139457
841.4465,0.138458
842.3784,0.137357
843.3102,0.136186
844.2420,0.134171
845.1739,0.132694
846.1057,0.132787
847.0375,0.132936
847.9694,0.131962
848.9012,0.131131
849.8330,0.130197
850.7649,0.129151
851.6967,0.128092
852.6285,0.127489
853.5604,0.127008
854.4922,0.126372
855.4240,0.125944
856.3559,0.125403
857.2877,0.124522
858.2195,0.124076
859.1514,0.123454
860.0832,0.122268
861.0150,0.122051
861.9469,0.122505
862.8787,0.122868
863.8105,0.122667
864.7424,0.122499
865.6742,0.123941
866.6060,0.125069
867.5379,0.125460
868.4697,0.126681
869.4016,0.129139
870.3334,0.132060
871.2652,0.135280
872.1971,0.139147
873.1289,0.142947
874.0607,0.147544
874.9926,0.152272
875.9244,0.155992
876.8562,0.159280
877.7881,0.160655
878.7199,0.159464
879.6517,0.156094
880.5836,0.151093
881.5154,0.145221
882.4472,0.138108
883.3791,0.131042
884.3109,0.124588
885.2427,0.118355
886.1746,0.113480
887.1064,0.109234
888.0382,0.105423
888.9701,0.102241
889.9019,0.099364
890.8337,0.096598
891.7656,0.094408
892.6974,0.092890
893.6292,0.091471
894.5611,0.089878
895.4929,0.088594
896.4247,0.087310
897.3566,0.086451
898.2884,0.085474
899.2203,0.084355
900.1521,0.083284
901.0839,0.082372
902.0158,0.081787
902.9476,0.081018
903.8794,0.080153
904.8113,0.079583
905.7431,0.079096
906.6749,0.078453
907.6068,0.077540
908.5386,0.076634
909.4704,0.076172
910.4023,0.075904
911.3341,0.075221
912.2659,0.074443
913.1978,0.073767
914.1296,0.073445
915.0614,0.072797
915.9933,0.072188
916.9251,0.071756
917.8569,0.071279
918.7888,0.070695
919.7206,0.070125
920.6524,0.069706
921.5843,0.069524
922.5161,0.069209
923.4479,0.068967
924.3798,0.068531
925.3116,0.067942
926.2435,0.067195
927.1753,0.066466
928.1071,0.066209
929.0390,0.065906
929.9708,0.065279
930.9026,0.064891
931.8345,0.064655
932.7663,0.064584
933.6981,0.064097
934.6300,0.063528
935.5618,0.063774
936.4936,0.063603
937.4255,0.062901
938.3573,0.062628
939.2891,0.062604
940.2210,0.062289
941.1528,0.061902
942.0846,0.061452
943.0165,0.061256
943.9483,0.061203
944.8801,0.060821
945.8120,0.060237
946.7438,0.059914
947.6756,0.059735
948.6075,0.059442
949.5393,0.059035
950.4711,0.059042
951.4030,0.059068
952.3348,0.058626
953.2667,0.058151
954.1985,0.057915
955.1303,0.057649
956.0622,0.057372
956.9940,0.057484
957.9258,0.057377
958.8577,0.057135
959.7895,0.057220
960.7213,0.057091
961.6532,0.056856
962.5850,0.056662
963.5168,0.056421
964.4487,0.055782
965.3805,0.055714
966.3123,0.055827
967.2442,0.055692
968.1760,0.055455
969.1078,0.055128
970.0397,0.055047
970.9715,0.055037
971.9033,0.054911
972.8352,0.054737
973.7670,0.054426
974.6988,0.054250
975.6307,0.054092
976.5625,0.053905
977.4943,0.054021
978.4262,0.053923
979.3580,0.053745
980.2899,0.053788
981.2217,0.053701
982.1535,0.053462
983.0854,0.053547
984.0172,0.053634
984.9490,0.053435
985.8809,0.053376
986.8127,0.053332
987.7445,0.053187
988.6764,0.053114
989.6082,0.053044
990.5400,0.052987
991.4719,0.053181
992.4037,0.053165
993.3355,0.053078
994.2674,0.053308
995.1992,0.053530
996.1310,0.053697
997.0629,0.053846
997.9947,0.053559
998.9265,0.053862
999.8584,0.054152
1000.7902,0.054028
1001.7220,0.054143
1002.6539,0.054774
1003.5857,0.054928
1004.5175,0.055117
1005.4494,0.055713
1006.3812,0.056098
1007.3131,0.056363
1008.2449,0.056803
1009.1767,0.057314
1010.1086,0.057642
1011.0404,0.058022
1011.9722,0.058628
1012.9041,0.059512
1013.8359,0.060254
1014.7677,0.060508
1015.6996,0.061101
1016.6314,0.062235
1017.5632,0.063206
1018.4951,0.064160
1019.4269,0.065359
1020.3587,0.066806
1021.2906,0.068282
1022.2224,0.069958
1023.1542,0.071668
1024.0861,0.073665
1025.0179,0.076337
1025.9497,0.079110
1026.8816,0.081698
1027.8134,0.084638
1028.7452,0.088190
1029.6771,0.092294
1030.6089,0.096941
1031.5407,0.102416
1032.4726,0.108892
1033.4044,0.116111
1034.3362,0.124455
1035.2681,0.134244
1036.1999,0.145418
1037.1318,0.157758
1038.0636,0.171033
1038.9954,0.185084
1039.9273,0.199357
1040.8591,0.213055
1041.7909,0.224957
1042.7228,0.233636
1043.6546,0.238967
1044.5864,0.239980
1045.5183,0.236201
1046.4501,0.228166
1047.3819,0.216781
1048.3138,0.203442
1049.2456,0.188909
1050.1774,0.173844
1051.1093,0.158552
1052.0411,0.143824
1052.9729,0.130737
1053.9048,0.118974
1054.8366,0.108514
1055.7684,0.099439
1056.7003,0.091844
1057.6321,0.085417
1058.5639,0.080314
1059.4958,0.076426
1060.4276,0.073301
1061.3594,0.070795
1062.2913,0.068586
1063.2231,0.067079
1064.1550,0.066520
1065.0868,0.066452
1066.0186,0.066215
1066.9505,0.066141
1067.8823,0.066623
1068.8141,0.067418
1069.7460,0.068374
1070.6778,0.069404
1071.6096,0.070958
1072.5415,0.072957
1073.4733,0.074783
1074.4051,0.076717
1075.3370,0.079080
1076.2688,0.081588
1077.2006,0.084336
1078.1325,0.087387
1079.0643,0.090212
1079.9961,0.092873
1080.9280,0.095481
1081.8598,0.098168
1082.7916,0.100542
1083.7235,0.102117
1084.6553,0.103143
1085.5871,0.103564
1086.5190,0.103096
1087.4508,0.101798
1088.3826,0.099709
1089.3145,0.097132
1090.2463,0.093909
1091.1782,0.090013
1092.1100,0.085916
1093.0418,0.081695
1093.9737,0.077591
1094.9055,0.073551
1095.8373,0.069719
1096.7692,0.066280
1097.7010,0.063275
1098.6328,0.060731
1099.5647,0.058503
1100.4965,0.056619
1101.4283,0.054900
1102.3602,0.053053
1103.2920,0.051441
1104.2238,0.050222
1105.1557,0.049178
1106.0875,0.048362
1107.0193,0.047819
1107.9512,0.047282
1108.8830,0.046649
1109.8148,0.046104
1110.7467,0.045628
1111.6785,0.045191
1112.6103,0.044952
1113.5422,0.045041
1114.4740,0.044825
1115.4058,0.044408
1116.3377,0.044217
1117.2695,0.044127
1118.2014,0.043972
1119.1332,0.043960
1120.0650,0.044131
1120.9969,0.044184
1121.9287,0.044231
1122.8605,0.044352
1123.7924,0.044311
1124.7242,0.044146
1125.6560,0.043835
1126.5879,0.043654
1127.5197,0.043673
1128.4515,0.043680
1129.3834,0.043662
1130.3152,0.043664
1131.2470,0.043432
1132.1789,0.043242
1133.1107,0.043215
1134.0425,0.043126
1134.9744,0.042995
1135.9062,0.042977
1136.8380,0.042751
1137.7699,0.042329
1138.7017,0.042175
1139.6335,0.042173
1140.5654,0.042029
1141.4972,0.042124
1142.4290,0.042292
1143.3609,0.042251
1144.2927,0.042099
1145.2246,0.042005
1146.1564,0.042176
1147.0882,0.042119
1148.0201,0.042015
1148.9519,0.042125
1149.8837,0.042016
1150.8156,0.041829
1151.7474,0.041855
1152.6792,0.042064
1153.6111,0.042203
1154.5429,0.042198
1155.4747,0.042256
1156.4066,0.042223
1157.3384,0.042097
1158.2702,0.041853
1159.2021,0.041749
1160.1339,0.041579
1161.0657,0.041149
1161.9976,0.040901
1162.9294,0.041061
1163.8612,0.041203
1164.7931,0.040995
1165.7249,0.040781
1166.6567,0.040505
1167.5886,0.040430
1168.5204,0.040436
1169.4522,0.040106
1170.3841,0.039972
1171.3159,0.040011
1172.2477,0.039949
1173.1796,0.039854
1174.1114,0.039797
1175.0433,0.039760
1175.9751,0.039908
1176.9069,0.039998
1177.8388,0.039726
1178.7706,0.039409
1179.7024,0.039424
1180.6343,0.039767
1181.5661,0.039958
1182.4979,0.039666
1183.4298,0.039589
1184.3616,0.039865
1185.2934,0.039829
1186.2253,0.039761
1187.1571,0.039673
1188.0889,0.039409
1189.0208,0.039535
1189.9526,0.039876
1190.8844,0.039935
1191.8163,0.039903
1192.7481,0.040009
1193.6799,0.039890
1194.6118,0.039776
1195.5436,0.039754
1196.4754,0.039691
1197.4073,0.039826
1198.3391,0.039871
1199.2709,0.039703
1200.2028,0.039771
1201.1346,0.039970
1202.0665,0.040057
1202.9983,0.040160
1203.9301,0.040218
1204.8620,0.040093
1205.7938,0.040000
1206.7256,0.039997
1207.6575,0.040022
1208.5893,0.040050
1209.5211,0.040092
1210.4530,0.040164
1211.3848,0.040217
1212.3166,0.040359
1213.2485,0.040471
1214.1803,0.040316
1215.1121,0.040163
1216.0440,0.040307
1216.9758,0.040478
1217.9076,0.040426
1218.8395,0.040532
1219.7713,0.040717
1220.7031,0.040757
1221.6350,0.040677
1222.5668,0.040580
1223.4986,0.040631
1224.4305,0.040756
1225.3623,0.040768
1226.2941,0.040794
1227.2260,0.040775
1228.1578,0.040814
1229.0897,0.041223
1230.0215,0.041386
1230.9533,0.041145
1231.8852,0.041239
1232.8170,0.041681
1233.7488,0.041626
1234.6807,0.041316
1235.6125,0.041511
1236.5443,0.041777
1237.4762,0.041782
1238.4080,0.041799
1239.3398,0.041958
1240.2717,0.042132
1241.2035,0.042066
1242.1353,0.042118
1243.0672,0.042268
1243.9990,0.042287
1244.9308,0.042338
1245.8627,0.042546
1246.7945,0.042817
1247.7263,0.042967
1248.6582,0.043127
1249.5900,0.043407
1250.5218,0.043655
1251.4537,0.043848
1252.3855,0.043996
1253.3173,0.044169
1254.2492,0.044396
1255.1810,0.044560
1256.1129,0.044840
1257.0447,0.045264
1257.9765,0.045549
1258.9084,0.045718
1259.8402,0.045965
1260.7720,0.046308
1261.7039,0.046865
1262.6357,0.047298
1263.5675,0.047576
1264.4994,0.048120
1265.4312,0.048836
1266.3630,0.049451
1267.2949,0.049942
1268.2267,0.050469
1269.1585,0.051077
1270.0904,0.051534
1271.0222,0.052070
1271.9540,0.052711
1272.8859,0.052955
1273.8177,0.053009
1274.7495,0.053066
1275.6814,0.052943
1276.6132,0.052657
1277.5450,0.052275
1278.4769,0.051947
1279.4087,0.051723
1280.3405,0.051286
1281.2724,0.050759
1282.2042,0.050413
1283.1361,0.050012
1284.0679,0.049700
1284.9997,0.049560
1285.9316,0.049390
1286.8634,0.049073
1287.7952,0.048811
1288.7271,0.048919
1289.6589,0.049106
1290.5907,0.049063
1291.5226,0.049029
1292.4544,0.049185
1293.3862,0.049194
1294.3181,0.049102
1295.2499,0.049524
1296.1817,0.049917
1297.1136,0.050020
1298.0454,0.050204
1298.9772,0.050287
1299.9091,0.050330
1300.8409,0.050368
1301.7727,0.050708
1302.7046,0.051047
1303.6364,0.051092
1304.5682,0.051426
1305.5001,0.051853
1306.4319,0.052000
1307.3637,0.052158
1308.2956,0.052477
1309.2274,0.052780
1310.1592,0.053044
1311.0911,0.053227
1312.0229,0.053357
1312.9548,0.053691
1313.8866,0.054245
1314.8184,0.054640
1315.7503,0.054740
1316.6821,0.054602
1317.6139,0.054563
1318.5458,0.054833
1319.4776,0.055242
1320.4094,0.055728
1321.3413,0.055849
1322.2731,0.055556
1323.2049,0.055345
1324.1368,0.055267
1325.0686,0.055197
1326.0004,0.055208
1326.9323,0.055233
1327.8641,0.055202
1328.7959,0.055155
1329.7278,0.055052
1330.6596,0.054929
1331.5914,0.054751
1332.5233,0.054473
1333.4551,0.054388
1334.3869,0.054285
1335.3188,0.053873
1336.2506,0.053275
1337.1824,0.052842
1338.1143,0.052758
1339.0461,0.052955
1339.9780,0.053214
1340.9098,0.053164
1341.8416,0.052913
1342.7735,0.052382
1343.7053,0.051816
1344.6371,0.051405
1345.5690,0.051050
1346.5008,0.050783
1347.4326,0.050372
1348.3645,0.049943
1349.2963,0.049776
1350.2281,0.049709
1351.1600,0.049613
1352.0918,0.049471
1353.0236,0.049312
1353.9555,0.048993
1354.8873,0.048636
1355.8191,0.048740
1356.7510,0.049007
1357.6828,0.048703
1358.6146,0.048338
1359.5465,0.048236
1360.4783,0.048121
1361.4101,0.048373
1362.3420,0.049023
1363.2738,0.049509
1364.2056,0.050393
1365.1375,0.050806
1366.0693,0.050054
1367.0012,0.049814
1367.9330,0.050226
1368.8648,0.051038
1369.7967,0.052347
1370.7285,0.052825
1371.6603,0.052908
1372.5922,0.053965
1373.5240,0.055388
1374.4558,0.057347
1375.3877,0.059867
1376.3195,0.061159
1377.2513,0.061405
1378.1832,0.061563
1379.1150,0.061886
1380.0468,0.062468
1380.9787,0.063322
1381.9105,0.063878
1382.8423,0.063865
1383.7742,0.063744
1384.7060,0.063640
1385.6378,0.063543
1386.5697,0.063671
1387.5015,0.064362
1388.4333,0.065145
1389.3652,0.064664
1390.2970,0.063158
1391.2288,0.061986
1392.1607,0.061240
1393.0925,0.060491
1394.0244,0.059976
1394.9562,0.060182
1395.8880,0.061423
1396.8199,0.061878
1397.7517,0.061256
1398.6835,0.060988
1399.6154,0.061513
1400.5472,0.062311
1401.4790,0.062091
1402.4109,0.061275
1403.3427,0.060998
1404.2745,0.061211
1405.2064,0.061804
1406.1382,0.062960
1407.0700,0.063254
1408.0019,0.062888
1408.9337,0.062870
1409.8655,0.062890
1410.7974,0.063071
1411.7292,0.063194
1412.6610,0.063201
1413.5929,0.063240
1414.5247,0.062729
1415.4565,0.061881
1416.3884,0.061685
1417.3202,0.062001
1418.2520,0.062266
1419.1839,0.062804
1420.1157,0.064574
1421.0476,0.065587
1421.9794,0.063361
1422.9112,0.061498
1423.8431,0.061372
1424.7749,0.062279
1425.7067,0.062542
1426.6386,0.061101
1427.5704,0.059640
1428.5022,0.059400
1429.4341,0.059158
1430.3659,0.058641
1431.2977,0.058756
1432.2296,0.058346
1433.1614,0.057283
1434.0932,0.056429
1435.0251,0.055772
1435.9569,0.055280
1436.8887,0.055946
1437.8206,0.058557
1438.7524,0.058418
1439.6842,0.056547
1440.6161,0.055737
1441.5479,0.055398
1442.4797,0.055432
1443.4116,0.055558
1444.3434,0.055278
1445.2752,0.055340
1446.2071,0.056074
1447.1389,0.056993
1448.0707,0.058033
1449.0026,0.060026
1449.9344,0.061439
1450.8663,0.060941
1451.7981,0.060685
1452.7299,0.060909
1453.6618,0.060370
1454.5936,0.059367
1455.5254,0.058581
1456.4573,0.058403
1457.3891,0.059410
1458.3209,0.060594
1459.2528,0.059017
1460.1846,0.056989
1461.1164,0.054765
1462.0483,0.052357
1462.9801,0.050779
1463.9119,0.049876
1464.8438,0.049214
1465.7756,0.048805
1466.7074,0.048540
1467.6393,0.047468
1468.5711,0.046336
1469.5029,0.045218
1470.4348,0.044375
1471.3666,0.044070
1472.2984,0.044162
1473.2303,0.045469
1474.1621,0.047132
1475.0939,0.046879
1476.0258,0.045838
1476.9576,0.046021
1477.8895,0.047096
1478.8213,0.046538
1479.7531,0.045953
1480.6850,0.046096
1481.6168,0.046336
1482.5486,0.046526
1483.4805,0.046162
1484.4123,0.045501
1485.3441,0.045141
1486.2760,0.044920
1487.2078,0.044819
1488.1396,0.045254
1489.0715,0.045604
1490.0033,0.045331
1490.9351,0.046016
1491.8670,0.046416
1492.7988,0.044790
1493.7306,0.042827
1494.6625,0.041433
1495.5943,0.040795
1496.5261,0.040843
1497.4580,0.042237
1498.3898,0.042834
1499.3216,0.042394
1500.2535,0.042714
1501.1853,0.042005
1502.1171,0.040797
1503.0490,0.040125
1503.9808,0.039298
1504.9127,0.038692
1505.8445,0.038542
1506.7763,0.039992
1507.7082,0.044859
1508.6400,0.045790
1509.5718,0.043361
1510.5037,0.042134
1511.4355,0.041900
1512.3673,0.041280
1513.2992,0.041082
1514.2310,0.040990
1515.1628,0.040258
1516.0947,0.039979
1517.0265,0.040555
1517.9583,0.041192
1518.8902,0.042227
1519.8220,0.041360
1520.7538,0.039910
1521.6857,0.040696
1522.6175,0.043434
1523.5493,0.043704
1524.4812,0.042680
1525.4130,0.041667
1526.3448,0.041706
1527.2767,0.042662
1528.2085,0.042419
1529.1403,0.042620
1530.0722,0.042610
1531.0040,0.041633
1531.9359,0.040985
1532.8677,0.041298
1533.7995,0.042124
1534.7314,0.043370
1535.6632,0.043675
1536.5950,0.042062
1537.5269,0.040749
1538.4587,0.039945
1539.3905,0.039531
1540.3224,0.041557
1541.2542,0.044814
1542.1860,0.044927
1543.1179,0.045471
1544.0497,0.046320
1544.9815,0.045309
1545.9134,0.044670
1546.8452,0.045484
1547.7770,0.045253
1548.7089,0.044093
1549.6407,0.043401
1550.5725,0.044227
1551.5044,0.046096
1552.4362,0.046150
1553.3680,0.044927
1554.2999,0.043982
1555.2317,0.044823
1556.1635,0.046128
1557.0954,0.044620
1558.0272,0.042736
1558.9591,0.044971
1559.8909,0.053186
1560.8227,0.055203
1561.7546,0.052528
1562.6864,0.049744
1563.6182,0.048282
1564.5501,0.047670
1565.4819,0.048067
1566.4137,0.049188
1567.3456,0.049278
1568.2774,0.048940
1569.2092,0.049136
1570.1411,0.050797
1571.0729,0.053107
1572.0047,0.052382
1572.9366,0.051107
1573.8684,0.050992
1574.8002,0.051226
1575.7321,0.052122
1576.6639,0.053914
1577.5957,0.057238
1578.5276,0.057771
1579.4594,0.056319
1580.3912,0.056191
1581.3231,0.056676
1582.2549,0.057186
1583.1867,0.057506
1584.1186,0.058092
1585.0504,0.059041
1585.9822,0.059721
1586.9141,0.060509
1587.8459,0.061315
1588.7778,0.061916
1589.7096,0.063282
1590.6414,0.064400
1591.5733,0.064966
1592.5051,0.065468
1593.4369,0.066085
1594.3688,0.067319
1595.3006,0.069123
1596.2324,0.070350
1597.1643,0.071090
1598.0961,0.072312
1599.0279,0.073557
1599.9598,0.074673
1600.8916,0.075678
1601.8234,0.077134
1602.7553,0.078847
1603.6871,0.080093
1604.6189,0.081750
1605.5508,0.083083
1606.4826,0.084138
1607.4144,0.086482
1608.3463,0.088783
1609.2781,0.090341
1610.2099,0.091844
1611.1418,0.093798
1612.0736,0.095156
1613.0054,0.096335
1613.9373,0.097497
1614.8691,0.098904
1615.8010,0.101084
1616.7328,0.104767
1617.6646,0.110998
1618.5965,0.115825
1619.5283,0.113743
1620.4601,0.112816
1621.3920,0.114127
1622.3238,0.115567
1623.2556,0.117889
1624.1875,0.122769
1625.1193,0.128076
1626.0511,0.128395
1626.9830,0.128051
1627.9148,0.129625
1628.8466,0.133427
1629.7785,0.135930
1630.7103,0.134757
1631.6421,0.133537
1632.5740,0.132945
1633.5058,0.133283
1634.4376,0.134341
1635.3695,0.136823
1636.3013,0.143806
1637.2331,0.150216
1638.1650,0.148764
1639.0968,0.146958
1640.0286,0.144768
1640.9605,0.142669
1641.8923,0.141295
1642.8242,0.140884
1643.7560,0.139785
1644.6878,0.138402
1645.6197,0.138181
1646.5515,0.139065
1647.4833,0.141138
1648.4152,0.141859
1649.3470,0.139936
1650.2788,0.136077
1651.2107,0.131949
1652.1425,0.129687
1653.0743,0.130390
1654.0062,0.139129
1654.9380,0.142743
1655.8698,0.137235
1656.8017,0.131663
1657.7335,0.127718
1658.6653,0.125330
1659.5972,0.124051
1660.5290,0.123100
1661.4608,0.121109
1662.3927,0.119639
1663.3245,0.119038
1664.2563,0.117784
1665.1882,0.115644
1666.1200,0.112809
1667.0518,0.110130
1667.9837,0.108205
1668.9155,0.106719
1669.8474,0.106291
1670.7792,0.106601
1671.7110,0.104916
1672.6429,0.102395
1673.5747,0.099731
1674.5065,0.097087
1675.4384,0.094959
1676.3702,0.094427
1677.3020,0.093865
1678.2339,0.091109
1679.1657,0.088068
1680.0975,0.086054
1681.0294,0.084668
1681.9612,0.082730
1682.8930,0.080720
1683.8249,0.078988
1684.7567,0.078405
1685.6885,0.080644
1686.6204,0.078709
1687.5522,0.075202
1688.4840,0.072809
1689.4159,0.071261
1690.3477,0.069623
1691.2795,0.067688
1692.2114,0.065868
1693.1432,0.064522
1694.0750,0.062925
1695.0069,0.061168
1695.9387,0.059469
1696.8706,0.058284
1697.8024,0.058332
1698.7342,0.057011
1699.6661,0.055231
1700.5979,0.054056
1701.5297,0.054318
1702.4616,0.053881
1703.3934,0.051171
1704.3252,0.048870
1705.2571,0.047743
1706.1889,0.047397
1707.1207,0.046707
1708.0526,0.046232
1708.9844,0.044786
1709.9162,0.043265
1710.8481,0.042128
1711.7799,0.041365
1712.7117,0.040541
1713.6436,0.039428
1714.5754,0.037953
1715.5072,0.036994
1716.4391,0.037371
1717.3709,0.037033
1718.3027,0.035806
1719.2346,0.035962
1720.1664,0.035882
1721.0982,0.034863
1722.0301,0.033432
1722.9619,0.031918
1723.8937,0.031255
1724.8256,0.031422
1725.7574,0.031165
1726.6893,0.030253
1727.6211,0.029259
1728.5529,0.028509
1729.4848,0.028034
1730.4166,0.027722
1731.3484,0.027529
1732.2803,0.027308
1733.2121,0.026229
1734.1439,0.025396
1735.0758,0.026409
1736.0076,0.027398
1736.9394,0.026157
1737.8713,0.024932
1738.8031,0.024403
1739.7349,0.023796
1740.6668,0.023450
1741.5986,0.024020
1742.5304,0.023775
1743.4623,0.022860
1744.3941,0.021976
1745.3259,0.022132
1746.2578,0.022138
1747.1896,0.021474
1748.1214,0.020966
1749.0533,0.021168
1749.9851,0.020619
1750.9169,0.020200
1751.8488,0.020101
1752.7806,0.020412
1753.7125,0.020724
1754.6443,0.019838
1755.5761,0.018824
1756.5080,0.018511
1757.4398,0.018694
1758.3716,0.019342
1759.3035,0.019250
1760.2353,0.018303
1761.1671,0.017602
1762.0990,0.016954
1763.0308,0.017310
1763.9626,0.017776
1764.8945,0.017652
1765.8263,0.017562
1766.7581,0.017024
1767.6900,0.015926
1768.6218,0.015551
1769.5536,0.016619
1770.4855,0.016886
1771.4173,0.015723
1772.3491,0.015326
1773.2810,0.015988
1774.2128,0.016105
1775.1446,0.015921
1776.0765,0.015868
1777.0083,0.015697
1777.9401,0.015433
1778.8720,0.015011
1779.8038,0.014653
1780.7357,0.014580
1781.6675,0.014738
1782.5993,0.014881
1783.5312,0.014132
1784.4630,0.013826
1785.3948,0.013854
1786.3267,0.013945
1787.2585,0.013805
1788.1903,0.013262
1789.1222,0.013212
1790.0540,0.013027
1790.9858,0.012568
1791.9177,0.012781
1792.8495,0.013689
1793.7813,0.013947
1794.7132,0.013851
1795.6450,0.013435
1796.5768,0.013023
1797.5087,0.013137
1798.4405,0.012666
1799.3723,0.012530
1800.3042,0.012469
1801.2360,0.012073
1802.1678,0.012753
1803.0997,0.013209
1804.0315,0.013108
1804.9633,0.012830
1805.8952,0.012362
1806.8270,0.011654
1807.7589,0.011396
1808.6907,0.011406
1809.6225,0.011355
1810.5544,0.011468
1811.4862,0.011729
1812.4180,0.012226
1813.3499,0.012240
1814.2817,0.011870
1815.2135,0.011842
1816.1454,0.011513
1817.0772,0.011134
1818.0090,0.010797
1818.9409,0.010615
1819.8727,0.010827
1820.8045,0.011086
1821.7364,0.010917
1822.6682,0.011232
1823.6000,0.011607
1824.5319,0.011211
1825.4637,0.010409
1826.3955,0.010347
1827.3274,0.010964
1828.2592,0.011208
1829.1910,0.010881
1830.1229,0.010665
1831.0547,0.010700
1831.9865,0.010362
1832.9184,0.009892
1833.8502,0.009920
1834.7821,0.010260
1835.7139,0.010582
1836.6457,0.010359
1837.5776,0.009490
1838.5094,0.008945
1839.4412,0.009557
1840.3731,0.010142
1841.3049,0.010134
1842.2367,0.010026
1843.1686,0.009730
1844.1004,0.009752
1845.0322,0.010143
1845.9641,0.010717
1846.8959,0.010396
1847.8277,0.009678
1848.7596,0.009195
1849.6914,0.009480
1850.6232,0.010010
1851.5551,0.009908
1852.4869,0.009249
1853.4187,0.008951
1854.3506,0.008647
1855.2824,0.009067
1856.2142,0.009470
1857.1461,0.009479
1858.0779,0.009913
1859.0097,0.010255
1859.9416,0.010599
1860.8734,0.010722
1861.8052,0.009870
1862.7371,0.009244
1863.6689,0.009260
1864.6008,0.009674
1865.5326,0.009721
1866.4644,0.008930
1867.3963,0.008983
1868.3281,0.009389
1869.2599,0.008914
1870.1918,0.009087
1871.1236,0.010096
1872.0554,0.008777
1872.9873,0.008018
1873.9191,0.009436
1874.8509,0.009174
1875.7828,0.008310
1876.7146,0.008408
1877.6464,0.008552
1878.5783,0.008857
1879.5101,0.009170
1880.4419,0.008752
1881.3738,0.008268
1882.3056,0.008506
1883.2374,0.008444
1884.1693,0.008186
1885.1011,0.008211
1886.0329,0.008435
1886.9648,0.008945
1887.8966,0.009090
1888.8284,0.008640
1889.7603,0.008355
1890.6921,0.009036
1891.6240,0.009834
1892.5558,0.009417
1893.4876,0.008135
1894.4195,0.007633
1895.3513,0.007696
1896.2831,0.008711
1897.2150,0.009977
1898.1468,0.009428
1899.0786,0.008722
1900.0105,0.008452
1900.9423,0.008802
1901.8741,0.009254
1902.8060,0.009432
1903.7378,0.009496
1904.6696,0.009223
1905.6015,0.008939
1906.5333,0.008537
1907.4651,0.009471
1908.3970,0.009848
1909.3288,0.008634
1910.2606,0.008527
1911.1925,0.009280
1912.1243,0.009343
1913.0561,0.009376
1913.9880,0.010018
1914.9198,0.010015
1915.8516,0.010048
1916.7835,0.010007
1917.7153,0.009559
1918.6472,0.009498
1919.5790,0.009823
1920.5108,0.008365
1921.4427,0.007373
1922.3745,0.007827
1923.3063,0.008493
1924.2382,0.009997
1925.1700,0.009645
1926.1018,0.008083
1927.0337,0.008202
1927.9655,0.007543
1928.8973,0.006805
1929.8292,0.007950
1930.7610,0.008322
1931.6928,0.007734
1932.6247,0.007308
1933.5565,0.007286
1934.4883,0.008387
1935.4202,0.008133
1936.3520,0.007788
1937.2838,0.008645
1938.2157,0.007989
1939.1475,0.007216
1940.0793,0.006393
1941.0112,0.005912
1941.9430,0.006309
1942.8748,0.006853
1943.8067,0.007103
1944.7385,0.006430
1945.6704,0.006007
1946.6022,0.006693
1947.5340,0.006838
1948.4659,0.006680
1949.3977,0.006356
1950.3295,0.005374
1951.2614,0.004688
1952.1932,0.007650
1953.1250,0.010755
1954.0569,0.008772
1954.9887,0.006359
1955.9205,0.005082
1956.8524,0.002824
1957.7842,0.004045
1958.7160,0.005717
1959.6479,0.004460
1960.5797,0.004509
1961.5115,0.004020
1962.4434,0.003864
1963.3752,0.007091
1964.3070,0.007250
1965.2389,0.005619
1966.1707,0.003819
1967.1025,0.000775
1968.0344,-0.000167
1968.9662,0.004844
1969.8980,0.006391
1970.8299,0.003820
1971.7617,0.003482
1972.6936,0.002290
1973.6254,0.000271
1974.5572,0.002862
1975.4891,0.005170
1976.4209,0.004095
1977.3527,0.004485
1978.2846,0.006662
1979.2164,0.006373
1980.1482,0.003445
1981.0801,0.002292
1982.0119,0.004782
1982.9437,0.007425
1983.8756,0.006123
1984.8074,0.004822
1985.7392,0.006369
1986.6711,0.007727
1987.6029,0.005869
1988.5347,0.005403
1989.4666,0.005521
1990.3984,0.005870
1991.3302,0.007671
1992.2621,0.005491
1993.1939,0.002669
1994.1257,0.003549
1995.0576,0.004188
1995.9894,0.004175
1996.9212,0.004233
1997.8531,0.005883
1998.7849,0.006383
1999.7167,0.004705
2000.6486,0.004995
2001.5804,0.006416
2002.5123,0.009422
2003.4441,0.009929
2004.3759,0.005729
2005.3078,0.005880
2006.2396,0.008579
2007.1714,0.007644
2008.1033,0.004411
2009.0351,0.005102
2009.9669,0.007972
2010.8988,0.008454
2011.8306,0.005472
2012.7624,0.001832
2013.6943,0.003312
2014.6261,0.007013
2015.5579,0.007156
2016.4898,0.005396
2017.4216,0.004566
2018.3534,0.002905
2019.2853,0.002014
2020.2171,0.003179
2021.1489,0.004357
2022.0808,0.005699
2023.0126,0.006770
2023.9444,0.005637
2024.8763,0.003979
2025.8081,0.004886
2026.7399,0.006602
2027.6718,0.005285
2028.6036,0.002239
2029.5355,0.002338
2030.4673,0.005768
2031.3991,0.005998
2032.3310,0.004420
2033.2628,0.006429
2034.1946,0.008285
2035.1265,0.009446
2036.0583,0.007526
2036.9901,0.005101
2037.9220,0.006442
2038.8538,0.007349
2039.7856,0.006649
2040.7175,0.004548
2041.6493,0.003413
2042.5811,0.005156
2043.5130,0.006410
2044.4448,0.006569
2045.3766,0.006665
2046.3085,0.007732
2047.2403,0.008301
2048.1721,0.007272
2049.1040,0.006646
2050.0358,0.007220
2050.9676,0.007545
2051.8995,0.008574
2052.8313,0.009309
2053.7631,0.010302
2054.6950,0.011090
2055.6268,0.010458
2056.5587,0.010264
2057.4905,0.010284
2058.4223,0.009385
2059.3542,0.009862
2060.2860,0.010695
2061.2178,0.011846
2062.1497,0.012016
2063.0815,0.012083
2064.0133,0.011018
2064.9452,0.008988
2065.8770,0.010225
2066.8088,0.011523
2067.7407,0.011988
2068.6725,0.013093
2069.6043,0.011819
2070.5362,0.010634
2071.4680,0.012113
2072.3998,0.013234
2073.3317,0.012858
2074.2635,0.013552
2075.1953,0.014713
2076.1272,0.013449
2077.0590,0.011802
2077.9908,0.012809
2078.9227,0.014252
2079.8545,0.014462
2080.7863,0.013899
2081.7182,0.012847
2082.6500,0.013496
2083.5819,0.014075
2084.5137,0.013577
2085.4455,0.013800
2086.3774,0.012974
2087.3092,0.012797
2088.2410,0.014055
2089.1729,0.013676
2090.1047,0.011745
2091.0365,0.012027
2091.9684,0.013364
2092.9002,0.013262
2093.8320,0.013364
2094.7639,0.013731
2095.6957,0.014076
2096.6275,0.013847
2097.5594,0.013291
2098.4912,0.012625
2099.4230,0.012437
2100.3549,0.012786
2101.2867,0.012196
2102.2185,0.012330
2103.1504,0.013160
2104.0822,0.012517
2105.0140,0.013388
2105.9459,0.014674
2106.8777,0.014504
2107.8095,0.014398
2108.7414,0.014489
2109.6732,0.014177
2110.6051,0.014244
2111.5369,0.014818
2112.4687,0.013808
2113.4006,0.013024
2114.3324,0.014174
2115.2642,0.014606
2116.1961,0.014543
2117.1279,0.014548
2118.0597,0.013945
2118.9916,0.013868
2119.9234,0.013811
2120.8552,0.012440
2121.7871,0.011238
2122.7189,0.012442
2123.6507,0.014733
2124.5826,0.015720
2125.5144,0.014588
2126.4462,0.013011
2127.3781,0.013128
2128.3099,0.013260
2129.2417,0.012776
2130.1736,0.013559
2131.1054,0.014191
2132.0372,0.013950
2132.9691,0.014329
2133.9009,0.013722
2134.8327,0.011442
2135.7646,0.010734
2136.6964,0.012372
2137.6282,0.013015
2138.5601,0.012897
2139.4919,0.011771
2140.4238,0.011971
2141.3556,0.012684
2142.2874,0.012557
2143.2193,0.013267
2144.1511,0.012746
2145.0829,0.013998
2146.0148,0.014183
2146.9466,0.010776
2147.8784,0.009692
2148.8103,0.010810
2149.7421,0.012282
2150.6739,0.010444
2151.6058,0.007856
2152.5376,0.008981
2153.4694,0.010901
2154.4013,0.011265
2155.3331,0.010148
2156.2649,0.007124
2157.1968,0.005293
2158.1286,0.005780
2159.0604,0.005182
2159.9923,0.005145
2160.9241,0.004938
2161.8559,0.003760
2162.7878,0.004646
2163.7196,0.006487
2164.6514,0.006534
2165.5833,0.006159
2166.5151,0.005679
2167.4470,0.007541
2168.3788,0.011012
2169.3106,0.010096
2170.2425,0.007779
2171.1743,0.007999
2172.1061,0.009558
2173.0380,0.007291
2173.9698,0.004301
2174.9016,0.004712
2175.8335,0.005576
2176.7653,0.006262
2177.6971,0.006380
2178.6290,0.006923
2179.5608,0.010159
2180.4926,0.010647
2181.4245,0.007843
2182.3563,0.007152
2183.2881,0.006520
2184.2200,0.006231
2185.1518,0.007800
2186.0836,0.010778
2187.0155,0.009521
2187.9473,0.007529
2188.8791,0.007937
2189.8110,0.006700
2190.7428,0.006980
2191.6746,0.007931
2192.6065,0.007205
2193.5383,0.007282
2194.4702,0.008434
2195.4020,0.009920
2196.3338,0.009894
2197.2657,0.008325
2198.1975,0.007662
2199.1293,0.008583
2200.0612,0.011204
2200.9930,0.012022
2201.9248,0.010558
2202.8567,0.011074
2203.7885,0.010875
2204.7203,0.009820
2205.6522,0.011110
2206.5840,0.011336
2207.5158,0.010092
2208.4477,0.009421
2209.3795,0.008516
2210.3113,0.006800
2211.2432,0.006082
2212.1750,0.007370
2213.1068,0.008112
2214.0387,0.008871
2214.9705,0.010695
2215.9023,0.010183
2216.8342,0.009177
2217.7660,0.009807
2218.6978,0.010209
2219.6297,0.010655
2220.5615,0.011473
2221.4934,0.010386
2222.4252,0.008152
2223.3570,0.009303
2224.2889,0.011414
2225.2207,0.010563
2226.1525,0.010247
2227.0844,0.010743
2228.0162,0.011301
2228.9480,0.011939
2229.8799,0.010710
2230.8117,0.009820
2231.7435,0.010612
2232.6754,0.011121
2233.6072,0.010281
2234.5390,0.010081
2235.4709,0.010857
2236.4027,0.010105
2237.3345,0.009162
2238.2664,0.010574
2239.1982,0.012725
2240.1300,0.011697
2241.0619,0.009619
2241.9937,0.009976
2242.9255,0.011306
2243.8574,0.010610
2244.7892,0.008838
2245.7210,0.008707
2246.6529,0.008534
2247.5847,0.007845
2248.5166,0.008369
2249.4484,0.010229
2250.3802,0.010734
2251.3121,0.009944
2252.2439,0.009952
2253.1757,0.009668
2254.1076,0.009584
2255.0394,0.010352
2255.9712,0.009703
2256.9031,0.008948
2257.8349,0.009630
2258.7667,0.010497
2259.6986,0.010407
2260.6304,0.009884
2261.5622,0.010183
2262.4941,0.009458
2263.4259,0.008366
2264.3577,0.009848
2265.2896,0.010407
2266.2214,0.009798
2267.1532,0.010089
2268.0851,0.010247
2269.0169,0.010008
2269.9487,0.009567
2270.8806,0.009278
2271.8124,0.009575
2272.7442,0.008433
2273.6761,0.007632
2274.6079,0.008394
2275.5397,0.009937
2276.4716,0.010975
2277.4034,0.010738
2278.3353,0.010220
2279.2671,0.009037
2280.1989,0.008276
2281.1308,0.008664
2282.0626,0.009203
2282.9944,0.009666
2283.9263,0.009730
2284.8581,0.009103
2285.7899,0.008559
2286.7218,0.009167
2287.6536,0.010536
2288.5854,0.011137
2289.5173,0.011060
2290.4491,0.011730
2291.3809,0.011862
2292.3128,0.010244
2293.2446,0.008790
2294.1764,0.009066
2295.1083,0.009334
2296.0401,0.008983
2296.9719,0.008881
2297.9038,0.009194
2298.8356,0.009658
2299.7674,0.010276
2300.6993,0.010403
2301.6311,0.009481
2302.5629,0.009105
2303.4948,0.009549
2304.4266,0.009541
2305.3585,0.009484
2306.2903,0.009543
2307.2221,0.009709
2308.1540,0.010466
2309.0858,0.010201
2310.0176,0.008584
2310.9495,0.007520
2311.8813,0.008333
2312.8131,0.009150
2313.7450,0.009256
2314.6768,0.009289
2315.6086,0.009738
2316.5405,0.010336
2317.4723,0.009775
2318.4041,0.009182
2319.3360,0.009965
2320.2678,0.010109
2321.1996,0.009363
2322.1315,0.009687
2323.0633,0.009619
2323.9951,0.008512
2324.9270,0.008285
2325.8588,0.009281
2326.7906,0.010318
2327.7225,0.010470
2328.6543,0.009588
2329.5861,0.008825
2330.5180,0.008299
2331.4498,0.008517
2332.3817,0.008930
2333.3135,0.009184
2334.2453,0.009445
2335.1772,0.008900
2336.1090,0.008025
2337.0408,0.008235
2337.9727,0.008956
2338.9045,0.009826
2339.8363,0.009524
2340.7682,0.008681
2341.7000,0.008705
2342.6318,0.008260
2343.5637,0.008187
2344.4955,0.009060
2345.4273,0.008723
2346.3592,0.008601
2347.2910,0.009602
2348.2228,0.009448
2349.1547,0.008687
2350.0865,0.009132
2351.0183,0.009344
2351.9502,0.008092
2352.8820,0.007882
2353.8138,0.009307
2354.7457,0.009435
2355.6775,0.008436
2356.6093,0.008295
2357.5412,0.008186
2358.4730,0.007218
2359.4049,0.006853
2360.3367,0.007476
2361.2685,0.007584
2362.2004,0.008143
2363.1322,0.009053
2364.0640,0.008659
2364.9959,0.008336
2365.9277,0.008287
2366.8595,0.007457
2367.7914,0.007041
2368.7232,0.006506
2369.6550,0.006693
2370.5869,0.007227
2371.5187,0.007217
2372.4505,0.007469
2373.3824,0.007760
2374.3142,0.007767
2375.2460,0.008463
2376.1779,0.008183
2377.1097,0.007457
2378.0415,0.007278
2378.9734,0.007498
2379.9052,0.007582
2380.8370,0.007736
2381.7689,0.007821
2382.7007,0.007994
2383.6325,0.007652
2384.5644,0.006675
2385.4962,0.006876
2386.4281,0.007435
2387.3599,0.007559
2388.2917,0.007108
2389.2236,0.006664
2390.1554,0.007365
2391.0872,0.007956
2392.0191,0.007446
2392.9509,0.007037
2393.8827,0.006765
2394.8146,0.006507
2395.7464,0.006482
2396.6782,0.006735
2397.6101,0.007160
2398.5419,0.007559
2399.4737,0.007497
2400.4056,0.006726
2401.3374,0.006584
2402.2692,0.006870
2403.2011,0.006893
2404.1329,0.006566
2405.0647,0.006338
2405.9966,0.006088
2406.9284,0.005835
2407.8602,0.006485
2408.7921,0.006465
2409.7239,0.006472
2410.6557,0.006897
2411.5876,0.006973
2412.5194,0.007498
2413.4512,0.007588
2414.3831,0.007065
2415.3149,0.006285
2416.2468,0.006052
2417.1786,0.006344
2418.1104,0.006802
2419.0423,0.006995
2419.9741,0.007276
2420.9059,0.007331
2421.8378,0.006981
2422.7696,0.006780
2423.7014,0.005664
2424.6333,0.005118
2425.5651,0.005423
2426.4969,0.005954
2427.4288,0.006238
2428.3606,0.005974
2429.2924,0.006361
2430.2243,0.006369
2431.1561,0.005952
2432.0879,0.005729
2433.0198,0.006108
2433.9516,0.007120
2434.8834,0.007422
2435.8153,0.006774
2436.7471,0.006075
2437.6789,0.005430
2438.6108,0.005229
2439.5426,0.005602
2440.4744,0.006294
2441.4063,0.006172
2442.3381,0.006061
2443.2700,0.006655
2444.2018,0.007040
2445.1336,0.006261
2446.0655,0.005180
2446.9973,0.005107
2447.9291,0.005168
2448.8610,0.005039
2449.7928,0.005203
2450.7246,0.005269
2451.6565,0.005929
2452.5883,0.005538
2453.5201,0.004934
2454.4520,0.005812
2455.3838,0.005935
2456.3156,0.004741
2457.2475,0.005299
2458.1793,0.005964
2459.1111,0.005647
2460.0430,0.005419
2460.9748,0.006300
2461.9066,0.006351
2462.8385,0.006037
2463.7703,0.006579
2464.7021,0.006797
2465.6340,0.006111
2466.5658,0.005784
2467.4976,0.006104
2468.4295,0.005574
2469.3613,0.005440
2470.2932,0.006229
2471.2250,0.006419
2472.1568,0.005714
2473.0887,0.004662
2474.0205,0.004108
2474.9523,0.004915
2475.8842,0.005798
2476.8160,0.006337
2477.7478,0.006430
2478.6797,0.005919
2479.6115,0.005059
2480.5433,0.004421
2481.4752,0.005136
2482.4070,0.005540
2483.3388,0.004959
2484.2707,0.005040
2485.2025,0.005851
2486.1343,0.006127
2487.0662,0.005831
2487.9980,0.005660
2488.9298,0.005718
2489.8617,0.005661
2490.7935,0.005429
2491.7253,0.005064
2492.6572,0.004979
2493.5890,0.005815
2494.5208,0.006147
2495.4527,0.005794
2496.3845,0.005297
2497.3164,0.005222
2498.2482,0.005571
2499.1800,0.005709
2500.1119,0.006031
2501.0437,0.006150
2501.9755,0.006028
2502.9074,0.005452
2503.8392,0.004715
2504.7710,0.004731
2505.7029,0.005601
2506.6347,0.006709
2507.5665,0.006359
2508.4984,0.005473
2509.4302,0.005662
2510.3620,0.005574
2511.2939,0.005345
2512.2257,0.005596
2513.1575,0.005500
2514.0894,0.005951
2515.0212,0.006047
2515.9530,0.005646
2516.8849,0.005334
2517.8167,0.005164
2518.7485,0.004514
2519.6804,0.004633
2520.6122,0.005641
2521.5440,0.005906
2522.4759,0.005531
2523.4077,0.005154
2524.3396,0.004942
2525.2714,0.004880
2526.2032,0.004803
2527.1351,0.005297
2528.0669,0.005324
2528.9987,0.004407
2529.9306,0.004650
2530.8624,0.005194
2531.7942,0.005310
2532.7261,0.005803
2533.6579,0.005562
2534.5897,0.005585
2535.5216,0.006152
2536.4534,0.005327
2537.3852,0.004325
2538.3171,0.004630
2539.2489,0.005039
2540.1807,0.004008
2541.1126,0.003687
2542.0444,0.004691
2542.9762,0.005266
2543.9081,0.004964
2544.8399,0.005356
2545.7717,0.006357
2546.7036,0.005430
2547.6354,0.004263
2548.5672,0.004746
2549.4991,0.004911
2550.4309,0.004635
2551.3627,0.004841
2552.2946,0.005251
2553.2264,0.005473
2554.1583,0.005041
2555.0901,0.004831
2556.0219,0.005571
2556.9538,0.005288
2557.8856,0.004383
2558.8174,0.003933
2559.7493,0.004564
2560.6811,0.005046
2561.6129,0.005086
2562.5448,0.005102
2563.4766,0.005790
2564.4084,0.006069
2565.3403,0.005195
2566.2721,0.004677
2567.2039,0.005280
2568.1358,0.005214
2569.0676,0.004361
2569.9994,0.004619
2570.9313,0.005300
2571.8631,0.004812
2572.7949,0.004553
2573.7268,0.004307
2574.6586,0.003212
2575.5904,0.003167
2576.5223,0.003857
2577.4541,0.004288
2578.3859,0.004072
2579.3178,0.004394
2580.2496,0.004037
2581.1815,0.003792
2582.1133,0.004514
2583.0451,0.005345
2583.9770,0.004611
2584.9088,0.003883
2585.8406,0.004121
2586.7725,0.003962
2587.7043,0.003369
2588.6361,0.003262
2589.5680,0.003917
2590.4998,0.004477
2591.4316,0.005120
2592.3635,0.005405
2593.2953,0.005070
2594.2271,0.004561
2595.1590,0.004170
2596.0908,0.005044
2597.0226,0.005061
2597.9545,0.004760
2598.8863,0.004933
2599.8181,0.004903
2600.7500,0.004786
2601.6818,0.004565
2602.6136,0.004370
2603.5455,0.004494
2604.4773,0.004637
2605.4091,0.004907
2606.3410,0.004991
2607.2728,0.005251
2608.2047,0.005397
2609.1365,0.004888
2610.0683,0.005384
2611.0002,0.005744
2611.9320,0.005346
2612.8638,0.005115
2613.7957,0.004864
2614.7275,0.004596
2615.6593,0.004614
2616.5912,0.004445
2617.5230,0.004497
2618.4548,0.004732
2619.3867,0.005004
2620.3185,0.005695
2621.2503,0.005486
2622.1822,0.005095
2623.1140,0.005487
2624.0458,0.005169
2624.9777,0.004686
2625.9095,0.005185
2626.8413,0.005792
2627.7732,0.006243
2628.7050,0.005708
2629.6368,0.004906
2630.5687,0.005109
2631.5005,0.005623
2632.4323,0.005838
2633.3642,0.005611
2634.2960,0.005469
2635.2279,0.005873
2636.1597,0.006226
2637.0915,0.006106
2638.0234,0.005622
2638.9552,0.005522
2639.8870,0.005670
2640.8189,0.006001
2641.7507,0.005701
2642.6825,0.005432
2643.6144,0.005181
2644.5462,0.005425
2645.4780,0.006063
2646.4099,0.006067
2647.3417,0.005907
2648.2735,0.005979
2649.2054,0.005921
2650.1372,0.005900
2651.0690,0.006361
2652.0009,0.006271
2652.9327,0.006066
2653.8645,0.006570
2654.7964,0.006558
2655.7282,0.005869
2656.6600,0.005490
2657.5919,0.006021
2658.5237,0.006857
2659.4555,0.006991
2660.3874,0.006331
2661.3192,0.005849
2662.2511,0.006122
2663.1829,0.006262
2664.1147,0.006183
2665.0466,0.006079
2665.9784,0.006602
2666.9102,0.006816
2667.8421,0.007046
2668.7739,0.007319
2669.7057,0.007336
2670.6376,0.007140
2671.5694,0.006951
2672.5012,0.006575
2673.4331,0.006273
2674.3649,0.006718
2675.2967,0.007150
2676.2286,0.007138
2677.1604,0.006924
2678.0922,0.007020
2679.0241,0.007026
2679.9559,0.006931
2680.8877,0.007066
2681.8196,0.007464
2682.7514,0.007195
2683.6832,0.006984
2684.6151,0.007592
2685.5469,0.007727
2686.4787,0.007745
2687.4106,0.008402
2688.3424,0.008436
2689.2742,0.007947
2690.2061,0.007663
2691.1379,0.007730
2692.0698,0.007663
2693.0016,0.007775
2693.9334,0.007829
2694.8653,0.008173
2695.7971,0.008326
2696.7289,0.008142
2697.6608,0.007821
2698.5926,0.007976
2699.5244,0.008064
2700.4563,0.008063
2701.3881,0.008282
2702.3199,0.008249
2703.2518,0.008094
2704.1836,0.008325
2705.1154,0.008746
2706.0473,0.008973
2706.9791,0.008759
2707.9109,0.008282
2708.8428,0.007979
2709.7746,0.008212
2710.7064,0.008561
2711.6383,0.008628
2712.5701,0.008835
2713.5019,0.009059
2714.4338,0.008797
2715.3656,0.008576
2716.2974,0.008700
2717.2293,0.008747
2718.1611,0.008553
2719.0930,0.009010
2720.0248,0.009594
2720.9566,0.009746
2721.8885,0.009232
2722.8203,0.009552
2723.7521,0.009886
2724.6840,0.009846
2725.6158,0.009929
2726.5476,0.009660
2727.4795,0.009257
2728.4113,0.009318
2729.3431,0.010102
2730.2750,0.010401
2731.2068,0.010473
2732.1386,0.010616
2733.0705,0.010480
2734.0023,0.010615
2734.9341,0.010583
2735.8660,0.010575
2736.7978,0.010395
2737.7296,0.010350
2738.6615,0.010626
2739.5933,0.010769
2740.5251,0.010918
2741.4570,0.010796
2742.3888,0.010350
2743.3206,0.010305
2744.2525,0.010706
2745.1843,0.011261
2746.1162,0.011453
2747.0480,0.011249
2747.9798,0.011116
2748.9117,0.011225
2749.8435,0.011287
2750.7753,0.011725
2751.7072,0.011301
2752.6390,0.010997
2753.5708,0.011663
2754.5027,0.011888
2755.4345,0.011427
2756.3663,0.011253
2757.2982,0.011269
2758.2300,0.011505
2759.1618,0.011885
2760.0937,0.012013
2761.0255,0.011869
2761.9573,0.011782
2762.8892,0.011619
2763.8210,0.011936
2764.7528,0.011541
2765.6847,0.011295
2766.6165,0.011769
2767.5483,0.011959
2768.4802,0.011659
2769.4120,0.011724
2770.3438,0.011959
2771.2757,0.011936
2772.2075,0.011934
2773.1394,0.012044
2774.0712,0.012163
2775.0030,0.012233
2775.9349,0.012115
2776.8667,0.012007
2777.7985,0.012283
2778.7304,0.012890
2779.6622,0.012894
2780.5940,0.012656
2781.5259,0.012828
2782.4577,0.012687
2783.3895,0.012764
2784.3214,0.013085
2785.2532,0.013052
2786.1850,0.012895
2787.1169,0.012998
2788.0487,0.013078
2788.9805,0.013010
2789.9124,0.013177
2790.8442,0.013402
2791.7760,0.013918
2792.7079,0.014535
2793.6397,0.014474
2794.5715,0.014405
2795.5034,0.014463
2796.4352,0.014627
2797.3670,0.014829
2798.2989,0.014798
2799.2307,0.014994
2800.1626,0.015201
2801.0944,0.015006
2802.0262,0.015346
2802.9581,0.015773
2803.8899,0.015877
2804.8217,0.015897
2805.7536,0.015851
2806.6854,0.015768
2807.6172,0.015981
2808.5491,0.016504
2809.4809,0.016987
2810.4127,0.017297
2811.3446,0.017344
2812.2764,0.017082
2813.2082,0.017013
2814.1401,0.017115
2815.0719,0.017321
2816.0037,0.017766
2816.9356,0.018460
2817.8674,0.018604
2818.7992,0.018157
2819.7311,0.017964
2820.6629,0.018416
2821.5947,0.018823
2822.5266,0.019124
2823.4584,0.019448
2824.3902,0.019317
2825.3221,0.019450
2826.2539,0.019747
2827.1857,0.019814
2828.1176,0.019791
2829.0494,0.020182
2829.9813,0.019962
2830.9131,0.019636
2831.8449,0.020186
2832.7768,0.020725
2833.7086,0.020682
2834.6404,0.020649
2835.5723,0.020930
2836.5041,0.021300
2837.4359,0.021392
2838.3678,0.021560
2839.2996,0.022188
2840.2314,0.022589
2841.1633,0.022515
2842.0951,0.022701
2843.0269,0.023000
2843.9588,0.023441
2844.8906,0.023655
2845.8224,0.023751
2846.7543,0.023564
2847.6861,0.023439
2848.6179,0.023489
2849.5498,0.023620
2850.4816,0.024205
2851.4134,0.024579
2852.3453,0.024084
2853.2771,0.024631
2854.2089,0.025561
2855.1408,0.025608
2856.0726,0.025979
2857.0045,0.026445
2857.9363,0.026453
2858.8681,0.026720
2859.8000,0.026663
2860.7318,0.026696
2861.6636,0.027250
2862.5955,0.028085
2863.5273,0.028653
2864.4591,0.029075
2865.3910,0.029340
2866.3228,0.030193
2867.2546,0.031268
2868.1865,0.031337
2869.1183,0.031206
2870.0501,0.031446
2870.9820,0.032158
2871.9138,0.033455
2872.8456,0.034140
2873.7775,0.034260
2874.7093,0.034908
2875.6411,0.035785
2876.5730,0.036038
2877.5048,0.035933
2878.4366,0.036407
2879.3685,0.037552
2880.3003,0.038299
2881.2321,0.038541
2882.1640,0.038812
2883.0958,0.038847
2884.0277,0.038730
2884.9595,0.039162
2885.8913,0.040011
2886.8232,0.040514
2887.7550,0.040674
2888.6868,0.040919
2889.6187,0.041318
2890.5505,0.042470
2891.4823,0.043526
2892.4142,0.043759
2893.3460,0.043537
2894.2778,0.043969
2895.2097,0.044680
2896.1415,0.045012
2897.0733,0.045377
2898.0052,0.045522
2898.9370,0.046030
2899.8688,0.046756
2900.8007,0.047027
2901.7325,0.047498
2902.6643,0.047941
2903.5962,0.047829
2904.5280,0.047477
2905.4598,0.047189
2906.3917,0.047096
2907.3235,0.047361
2908.2553,0.047255
2909.1872,0.046416
2910.1190,0.046184
2911.0509,0.046482
2911.9827,0.045960
2912.9145,0.044799
2913.8464,0.044656
2914.7782,0.044751
2915.7100,0.044011
2916.6419,0.043622
2917.5737,0.043773
2918.5055,0.043621
2919.4374,0.043538
2920.3692,0.043530
2921.3010,0.042970
2922.2329,0.043145
2923.1647,0.044281
2924.0965,0.044174
2925.0284,0.044298
2925.9602,0.045186
2926.8920,0.045330
2927.8239,0.045759
2928.7557,0.046448
2929.6875,0.046880
2930.6194,0.047088
2931.5512,0.046894
2932.4830,0.046593
2933.4149,0.046635
2934.3467,0.047193
2935.2785,0.047886
2936.2104,0.048208
2937.1422,0.048322
2938.0741,0.047896
2939.0059,0.047304
2939.9377,0.047116
2940.8696,0.048055
2941.8014,0.048786
2942.7332,0.048087
2943.6651,0.048293
2944.5969,0.048811
2945.5287,0.048702
2946.4606,0.049310
2947.3924,0.050013
2948.3242,0.049761
2949.2561,0.049187
2950.1879,0.048886
2951.1197,0.048389
2952.0516,0.048799
2952.9834,0.050178
2953.9152,0.050996
2954.8471,0.050958
2955.7789,0.051214
2956.7107,0.051861
2957.6426,0.052457
2958.5744,0.052997
2959.5062,0.053214
2960.4381,0.053183
2961.3699,0.053406
2962.3017,0.053902
2963.2336,0.055048
2964.1654,0.057149
2965.0972,0.058928
2966.0291,0.060609
2966.9609,0.062332
2967.8928,0.064074
2968.8246,0.066789
2969.7564,0.069548
2970.6883,0.071833
2971.6201,0.074022
2972.5519,0.076330
2973.4838,0.079071
2974.4156,0.081812
2975.3474,0.084163
2976.2793,0.086172
2977.2111,0.087552
2978.1429,0.089370
2979.0748,0.091312
2980.0066,0.092303
2980.9384,0.092895
2981.8703,0.092669
2982.8021,0.091464
2983.7339,0.090754
2984.6658,0.089231
2985.5976,0.087240
2986.5294,0.085575
2987.4613,0.083302
2988.3931,0.080603
2989.3249,0.078269
2990.2568,0.075823
2991.1886,0.073713
2992.1204,0.072121
2993.0523,0.069964
2993.9841,0.067712
2994.9160,0.066037
2995.8478,0.064384
2996.7796,0.063136
2997.7115,0.062170
2998.6433,0.060811
2999.5751,0.060505
3000.5070,0.060552
3001.4388,0.058992
3002.3706,0.058245
3003.3025,0.058908
3004.2343,0.058801
3005.1661,0.058472
3006.0980,0.058177
3007.0298,0.057629
3007.9616,0.057897
3008.8935,0.058599
3009.8253,0.058815
3010.7571,0.058712
3011.6890,0.058532
3012.6208,0.058849
3013.5526,0.058931
3014.4845,0.058563
3015.4163,0.058969
3016.3481,0.060230
3017.2800,0.061212
3018.2118,0.061266
3019.1436,0.061529
3020.0755,0.061732
3021.0073,0.061470
3021.9392,0.061938
3022.8710,0.063144
3023.8028,0.063564
3024.7347,0.063490
3025.6665,0.064176
3026.5983,0.064896
3027.5302,0.065106
3028.4620,0.065268
3029.3938,0.066136
3030.3257,0.066951
3031.2575,0.066880
3032.1893,0.067425
3033.1212,0.068399
3034.0530,0.068399
3034.9848,0.068375
3035.9167,0.069751
3036.8485,0.071045
3037.7803,0.071561
3038.7122,0.071680
3039.6440,0.072293
3040.5758,0.073552
3041.5077,0.074206
3042.4395,0.074797
3043.3713,0.075602
3044.3032,0.075751
3045.2350,0.076200
3046.1668,0.076903
3047.0987,0.077195
3048.0305,0.077853
3048.9624,0.078353
3049.8942,0.078544
3050.8260,0.079394
3051.7579,0.080285
3052.6897,0.080721
3053.6215,0.080962
3054.5534,0.081875
3055.4852,0.082890
3056.4170,0.083631
3057.3489,0.084689
3058.2807,0.085767
3059.2125,0.086262
3060.1444,0.086666
3061.0762,0.087513
3062.0080,0.088361
3062.9399,0.089503
3063.8717,0.090583
3064.8035,0.091000
3065.7354,0.091610
3066.6672,0.092673
3067.5990,0.094002
3068.5309,0.094440
3069.4627,0.094291
3070.3945,0.095357
3071.3264,0.096716
3072.2582,0.097639
3073.1900,0.098816
3074.1219,0.099685
3075.0537,0.099719
3075.9856,0.100623
3076.9174,0.102326
3077.8492,0.103789
3078.7811,0.104329
3079.7129,0.104280
3080.6447,0.104820
3081.5766,0.105569
3082.5084,0.106562
3083.4402,0.107741
3084.3721,0.108934
3085.3039,0.109533
3086.2357,0.109690
3087.1676,0.110815
3088.0994,0.112063
3089.0312,0.112566
3089.9631,0.114104
3090.8949,0.116278
3091.8267,0.117317
3092.7586,0.117822
3093.6904,0.118272
3094.6222,0.118480
3095.5541,0.119301
3096.4859,0.120955
3097.4177,0.122509
3098.3496,0.123309
3099.2814,0.123995
3100.2132,0.125205
3101.1451,0.126347
3102.0769,0.127863
3103.0087,0.129471
3103.9406,0.130669
3104.8724,0.131380
3105.8043,0.131759
3106.7361,0.132603
3107.6679,0.134227
3108.5998,0.136085
3109.5316,0.137083
3110.4634,0.137517
3111.3953,0.138786
3112.3271,0.140000
3113.2589,0.140249
3114.1908,0.141597
3115.1226,0.143714
3116.0544,0.144401
3116.9863,0.144997
3117.9181,0.146531
3118.8499,0.148518
3119.7818,0.149052
3120.7136,0.150009
3121.6454,0.151895
3122.5773,0.152587
3123.5091,0.152844
3124.4409,0.153956
3125.3728,0.155592
3126.3046,0.157190
3127.2364,0.158613
3128.1683,0.159786
3129.1001,0.160754
3130.0319,0.161730
3130.9638,0.162743
3131.8956,0.164292
3132.8275,0.165771
3133.7593,0.166724
3134.6911,0.168173
3135.6230,0.169890
3136.5548,0.170503
3137.4866,0.171227
3138.4185,0.173038
3139.3503,0.175276
3140.2821,0.176900
3141.2140,0.178071
3142.1458,0.179137
3143.0776,0.179778
3144.0095,0.179912
3144.9413,0.181147
3145.8731,0.183792
3146.8050,0.185347
3147.7368,0.186135
3148.6686,0.187095
3149.6005,0.187846
3150.5323,0.188913
3151.4641,0.191039
3152.3960,0.194315
3153.3278,0.195535
3154.2596,0.194918
3155.1915,0.195722
3156.1233,0.197816
3157.0551,0.198600
3157.9870,0.199071
3158.9188,0.200719
3159.8507,0.202148
3160.7825,0.203336
3161.7143,0.205970
3162.6462,0.207838
3163.5780,0.208681
3164.5098,0.210190
3165.4417,0.211387
3166.3735,0.211637
3167.3053,0.212199
3168.2372,0.213949
3169.1690,0.215442
3170.1008,0.216612
3171.0327,0.218758
3171.9645,0.220690
3172.8963,0.222244
3173.8282,0.224199
3174.7600,0.226205
3175.6918,0.225859
3176.6237,0.225569
3177.5555,0.227748
3178.4873,0.229308
3179.4192,0.229347
3180.3510,0.230682
3181.2828,0.232660
3182.2147,0.234510
3183.1465,0.235237
3184.0783,0.236447
3185.0102,0.237056
3185.9420,0.237368
3186.8739,0.238914
3187.8057,0.241165
3188.7375,0.242478
3189.6694,0.242114
3190.6012,0.241808
3191.5330,0.244327
3192.4649,0.247464
3193.3967,0.249706
3194.3285,0.250146
3195.2604,0.249820
3196.1922,0.249220
3197.1240,0.250793
3198.0559,0.252757
3198.9877,0.253363
3199.9195,0.253971
3200.8514,0.256222
3201.7832,0.257332
3202.7150,0.257892
3203.6469,0.258942
3204.5787,0.259918
3205.5105,0.260242
3206.4424,0.261545
3207.3742,0.263037
3208.3060,0.264150
3209.2379,0.263954
3210.1697,0.264397
3211.1015,0.267362
3212.0334,0.269020
3212.9652,0.268383
3213.8971,0.269889
3214.8289,0.272160
3215.7607,0.271021
3216.6926,0.270726
3217.6244,0.274779
3218.5562,0.275755
3219.4881,0.275597
3220.4199,0.276825
3221.3517,0.277838
3222.2836,0.277678
3223.2154,0.277813
3224.1472,0.278401
3225.0791,0.279743
3226.0109,0.280362
3226.9427,0.281938
3227.8746,0.281845
3228.8064,0.280168
3229.7382,0.279490
3230.6701,0.281666
3231.6019,0.282889
3232.5337,0.283640
3233.4656,0.284351
3234.3974,0.286030
3235.3292,0.287688
3236.2611,0.288787
3237.1929,0.287461
3238.1247,0.286706
3239.0566,0.287434
3239.9884,0.288424
3240.9202,0.287929
3241.8521,0.288005
3242.7839,0.288976
3243.7158,0.289110
3244.6476,0.289304
3245.5794,0.289452
3246.5113,0.289503
3247.4431,0.290425
3248.3749,0.291759
3249.3068,0.292156
3250.2386,0.289498
3251.1704,0.289257
3252.1023,0.292002
3253.0341,0.292935
3253.9659,0.291869
3254.8978,0.292614
3255.8296,0.293194
3256.7614,0.294969
3257.6933,0.298323
3258.6251,0.299460
3259.5569,0.297828
3260.4888,0.295689
3261.4206,0.293379
3262.3524,0.294927
3263.2843,0.297253
3264.2161,0.296872
3265.1479,0.296303
3266.0798,0.297163
3267.0116,0.295200
3267.9434,0.293824
3268.8753,0.293464
3269.8071,0.293607
3270.7390,0.294144
3271.6708,0.295022
3272.6026,0.294937
3273.5345,0.295501
3274.4663,0.296774
3275.3981,0.295684
3276.3300,0.294142
3277.2618,0.296680
3278.1936,0.296422
3279.1255,0.294862
3280.0573,0.294517
3280.9891,0.295027
3281.9210,0.294972
3282.8528,0.295906
3283.7846,0.297332
3284.7165,0.298019
3285.6483,0.297964
3286.5801,0.297764
3287.5120,0.297868
3288.4438,0.297954
3289.3756,0.298051
3290.3075,0.297966
3291.2393,0.296299
3292.1711,0.296692
3293.1030,0.297667
3294.0348,0.298751
3294.9666,0.298969
3295.8985,0.296781
3296.8303,0.295574
3297.7622,0.298411
3298.6940,0.298521
3299.6258,0.296957
3300.5577,0.297491
3301.4895,0.297805
3302.4213,0.297073
3303.3532,0.297606
3304.2850,0.297268
3305.2168,0.296397
3306.1487,0.295699
3307.0805,0.295969
3308.0123,0.298289
3308.9442,0.299953
3309.8760,0.298663
3310.8078,0.298074
3311.7397,0.299836
3312.6715,0.300118
3313.6033,0.298091
3314.5352,0.298690
3315.4670,0.299046
3316.3988,0.297029
3317.3307,0.295575
3318.2625,0.298114
3319.1943,0.299600
3320.1262,0.298200
3321.0580,0.296513
3321.9898,0.298196
3322.9217,0.301189
3323.8535,0.303804
3324.7854,0.300599
3325.7172,0.298377
3326.6490,0.298873
3327.5809,0.299719
3328.5127,0.299645
3329.4445,0.299560
3330.3764,0.298882
3331.3082,0.299728
3332.2400,0.299596
3333.1719,0.299448
3334.1037,0.297991
3335.0355,0.297744
3335.9674,0.298025
3336.8992,0.297198
3337.8310,0.297049
3338.7629,0.300315
3339.6947,0.300961
3340.6265,0.299714
3341.5584,0.297992
3342.4902,0.298050
3343.4220,0.299556
3344.3539,0.301788
3345.2857,0.300406
3346.2175,0.299309
3347.1494,0.298637
3348.0812,0.297921
3349.0130,0.298374
3349.9449,0.301231
3350.8767,0.299371
3351.8086,0.298176
3352.7404,0.296791
3353.6722,0.295196
3354.6041,0.295083
3355.5359,0.296238
3356.4677,0.296327
3357.3996,0.297509
3358.3314,0.297217
3359.2632,0.296270
3360.1951,0.296676
3361.1269,0.298836
3362.0587,0.297558
3362.9906,0.295680
3363.9224,0.294838
3364.8542,0.294800
3365.7861,0.292951
3366.7179,0.294902
3367.6497,0.297759
3368.5816,0.296897
3369.5134,0.294250
3370.4452,0.294838
3371.3771,0.295044
3372.3089,0.295220
3373.2407,0.296058
3374.1726,0.295587
3375.1044,0.291541
3376.0362,0.290788
3376.9681,0.291794
3377.8999,0.291094
3378.8317,0.290654
3379.7636,0.291656
3380.6954,0.289330
3381.6273,0.289995
3382.5591,0.288113
3383.4909,0.285096
3384.4228,0.286176
3385.3546,0.288473
3386.2864,0.288246
3387.2183,0.289045
3388.1501,0.287218
3389.0819,0.286954
3390.0138,0.286931
3390.9456,0.285664
3391.8774,0.284471
3392.8093,0.284159
3393.7411,0.281456
3394.6729,0.281464
3395.6048,0.279899
3396.5366,0.278302
3397.4684,0.278378
3398.4003,0.278790
3399.3321,0.279959
3400.2639,0.282081
3401.1958,0.279909
3402.1276,0.276414
3403.0594,0.274737
3403.9913,0.273728
3404.9231,0.270441
3405.8549,0.271118
3406.7868,0.271396
3407.7186,0.271140
3408.6505,0.271154
3409.5823,0.271700
3410.5141,0.271204
3411.4460,0.269972
3412.3778,0.265100
3413.3096,0.262680
3414.2415,0.263970
3415.1733,0.263685
3416.1051,0.263349
3417.0370,0.262570
3417.9688,0.259461
3418.9006,0.260118
3419.8325,0.260701
3420.7643,0.259706
3421.6961,0.258857
3422.6280,0.259190
3423.5598,0.256507
3424.4916,0.255346
3425.4235,0.254583
3426.3553,0.254315
3427.2871,0.253524
3428.2190,0.250698
3429.1508,0.249236
3430.0826,0.251966
3431.0145,0.251335
3431.9463,0.250373
3432.8781,0.249267
3433.8100,0.248409
3434.7418,0.246961
3435.6737,0.245859
3436.6055,0.242490
3437.5373,0.240102
3438.4692,0.239908
3439.4010,0.240066
3440.3328,0.235433
3441.2647,0.234393
3442.1965,0.233729
3443.1283,0.232292
3444.0602,0.233504
3444.9920,0.232286
3445.9238,0.228808
3446.8557,0.228832
3447.7875,0.228147
3448.7193,0.228620
3449.6512,0.229718
3450.5830,0.229702
3451.5148,0.225415
3452.4467,0.224194
3453.3785,0.224254
3454.3103,0.222775
3455.2422,0.221471
3456.1740,0.219816
3457.1058,0.216532
3458.0377,0.218019
3458.9695,0.222521
3459.9013,0.220980
3460.8332,0.215217
3461.7650,0.214213
3462.6969,0.214940
3463.6287,0.214350
3464.5605,0.210898
3465.4924,0.208732
3466.4242,0.207162
3467.3560,0.209219
3468.2879,0.208123
3469.2197,0.204968
3470.1515,0.204600
3471.0834,0.203820
3472.0152,0.201444
3472.9470,0.201219
3473.8789,0.199998
3474.8107,0.198221
3475.7425,0.196624
3476.6744,0.196059
3477.6062,0.194117
3478.5380,0.193172
3479.4699,0.194155
3480.4017,0.195872
3481.3335,0.193308
3482.2654,0.187309
3483.1972,0.183883
3484.1290,0.186443
3485.0609,0.187126
3485.9927,0.186353
3486.9245,0.185520
3487.8564,0.183108
3488.7882,0.181381
3489.7201,0.184004
3490.6519,0.183955
3491.5837,0.181328
3492.5156,0.180394
3493.4474,0.181161
3494.3792,0.179487
3495.3111,0.178154
3496.2429,0.174804
3497.1747,0.174766
3498.1066,0.174943
3499.0384,0.174158
3499.9702,0.173005
3500.9021,0.169200
3501.8339,0.168367
3502.7657,0.169257
3503.6976,0.164864
3504.6294,0.164721
3505.5612,0.164067
3506.4931,0.162009
3507.4249,0.161120
3508.3567,0.161275
3509.2886,0.160176
3510.2204,0.159510
3511.1522,0.159589
3512.0841,0.160726
3513.0159,0.159856
3513.9477,0.158551
3514.8796,0.154353
3515.8114,0.153052
3516.7432,0.154976
3517.6751,0.155199
3518.6069,0.152158
3519.5388,0.149177
3520.4706,0.148101
3521.4024,0.147740
3522.3343,0.147896
3523.2661,0.147422
3524.1979,0.143606
3525.1298,0.144632
3526.0616,0.145060
3526.9934,0.142603
3527.9253,0.140678
3528.8571,0.139870
3529.7889,0.140078
3530.7208,0.139693
3531.6526,0.139404
3532.5844,0.139786
3533.5163,0.135506
3534.4481,0.133691
3535.3799,0.135014
3536.3118,0.134723
3537.2436,0.132191
3538.1754,0.130966
3539.1073,0.131102
3540.0391,0.130067
3540.9709,0.128826
3541.9028,0.127142
3542.8346,0.124318
3543.7664,0.124707
3544.6983,0.124178
3545.6301,0.124276
3546.5620,0.124463
3547.4938,0.121899
3548.4256,0.117951
3549.3575,0.117415
3550.2893,0.120277
3551.2211,0.119550
3552.1530,0.116473
3553.0848,0.114545
3554.0166,0.115745
3554.9485,0.118848
3555.8803,0.117620
3556.8121,0.114770
3557.7440,0.111885
3558.6758,0.110124
3559.6076,0.109188
3560.5395,0.107889
3561.4713,0.107349
3562.4031,0.106427
3563.3350,0.103035
3564.2668,0.102015
3565.1986,0.103141
3566.1305,0.104791
3567.0623,0.104994
3567.9941,0.105924
3568.9260,0.103512
3569.8578,0.105100
3570.7896,0.104897
3571.7215,0.100826
3572.6533,0.098870
3573.5852,0.097025
3574.5170,0.095777
3575.4488,0.095906
3576.3807,0.095813
3577.3125,0.094608
3578.2443,0.091714
3579.1762,0.091399
3580.1080,0.091929
3581.0398,0.091821
3581.9717,0.088628
3582.9035,0.085931
3583.8353,0.086273
3584.7672,0.086895
3585.6990,0.085808
3586.6308,0.084078
3587.5627,0.082318
3588.4945,0.082515
3589.4263,0.084647
3590.3582,0.085302
3591.2900,0.084643
3592.2218,0.082980
3593.1537,0.079803
3594.0855,0.080656
3595.0173,0.079544
3595.9492,0.077677
3596.8810,0.077969
3597.8128,0.077846
3598.7447,0.074398
3599.6765,0.072739
3600.6084,0.073171
3601.5402,0.072789
3602.4720,0.071340
3603.4039,0.069181
3604.3357,0.070496
3605.2675,0.070044
3606.1994,0.068140
3607.1312,0.069422
3608.0630,0.069114
3608.9949,0.069024
3609.9267,0.068749
3610.8585,0.068897
3611.7904,0.066772
3612.7222,0.066040
3613.6540,0.065475
3614.5859,0.062820
3615.5177,0.061002
3616.4495,0.061572
3617.3814,0.059868
3618.3132,0.059327
3619.2450,0.061422
3620.1769,0.060151
3621.1087,0.059570
3622.0405,0.060169
3622.9724,0.059932
3623.9042,0.058713
3624.8360,0.057868
3625.7679,0.056924
3626.6997,0.054931
3627.6316,0.053358
3628.5634,0.052630
3629.4952,0.053344
3630.4271,0.052645
3631.3589,0.051310
3632.2907,0.050039
3633.2226,0.051767
3634.1544,0.052036
3635.0862,0.050654
3636.0181,0.049192
3636.9499,0.047104
3637.8817,0.047122
3638.8136,0.046916
3639.7454,0.045094
3640.6772,0.044592
3641.6091,0.044771
3642.5409,0.044297
3643.4727,0.043522
3644.4046,0.042591
3645.3364,0.041126
3646.2682,0.040733
3647.2001,0.041454
3648.1319,0.040665
3649.0637,0.038374
3649.9956,0.036903
3650.9274,0.036882
3651.8592,0.037033
3652.7911,0.037420
3653.7229,0.037545
3654.6547,0.037451
3655.5866,0.036245
3656.5184,0.034585
3657.4503,0.033233
3658.3821,0.032472
3659.3139,0.032340
3660.2458,0.032373
3661.1776,0.031313
3662.1094,0.031005
3663.0413,0.031022
3663.9731,0.029661
3664.9049,0.028227
3665.8368,0.026690
3666.7686,0.025865
3667.7004,0.025079
3668.6323,0.024805
3669.5641,0.024642
3670.4959,0.024316
3671.4278,0.022055
3672.3596,0.020699
3673.2914,0.021203
3674.2233,0.021316
3675.1551,0.021982
3676.0869,0.020444
3677.0188,0.017857
3677.9506,0.016342
3678.8824,0.017235
3679.8143,0.018613
3680.7461,0.018002
3681.6779,0.017430
3682.6098,0.017329
3683.5416,0.016317
3684.4735,0.015466
3685.4053,0.015759
3686.3371,0.014902
3687.2690,0.012644
3688.2008,0.011337
3689.1326,0.011506
3690.0645,0.010693
3690.9963,0.009260
3691.9281,0.008875
3692.8600,0.010200
3693.7918,0.011004
3694.7236,0.010193
3695.6555,0.009960
3696.5873,0.010387
3697.5191,0.010443
3698.4510,0.010100
3699.3828,0.009661
3700.3146,0.009380
3701.2465,0.007875
3702.1783,0.007720
3703.1101,0.008799
3704.0420,0.008541
3704.9738,0.007849
3705.9056,0.007944
3706.8375,0.007080
3707.7693,0.004988
3708.7011,0.004596
3709.6330,0.004307
3710.5648,0.003996
3711.4967,0.003790
3712.4285,0.004043
3713.3603,0.005636
3714.2922,0.006838
3715.2240,0.007078
3716.1558,0.006402
3717.0877,0.005049
3718.0195,0.004231
3718.9513,0.004491
3719.8832,0.004812
3720.8150,0.004165
3721.7468,0.004125
3722.6787,0.004879
3723.6105,0.005063
3724.5423,0.003982
3725.4742,0.002048
3726.4060,0.002125
3727.3378,0.002954
3728.2697,0.003701
3729.2015,0.003991
3730.1333,0.003588
3731.0652,0.004045
3731.9970,0.003915
3732.9288,0.002116
3733.8607,0.001569
3734.7925,0.001881
3735.7243,0.002334
3736.6562,0.003518
3737.5880,0.002447
3738.5199,0.000400
3739.4517,0.000059
3740.3835,0.001327
3741.3154,0.001692
3742.2472,0.001507
3743.1790,0.001176
3744.1109,0.000892
3745.0427,0.002044
3745.9745,0.001549
3746.9064,0.000065
3747.8382,0.001279
3748.7700,0.002274
3749.7019,0.002327
3750.6337,0.002519
3751.5655,0.000707
3752.4974,-0.001024
3753.4292,0.002204
3754.3610,0.003446
3755.2929,0.001357
3756.2247,0.002247
3757.1565,0.003522
3758.0884,0.003174
3759.0202,0.002954
3759.9520,0.003443
3760.8839,0.003264
3761.8157,0.002488
3762.7475,0.001318
3763.6794,0.001384
3764.6112,0.002345
3765.5431,0.002992
3766.4749,0.001959
3767.4067,0.001351
3768.3386,0.002161
3769.2704,0.002344
3770.2022,0.001990
3771.1341,0.001912
3772.0659,0.001719
3772.9977,0.001994
3773.9296,0.003103
3774.8614,0.003864
3775.7932,0.003394
3776.7251,0.002150
3777.6569,0.001532
3778.5887,0.001274
3779.5206,0.001470
3780.4524,0.002115
3781.3842,0.002378
3782.3161,0.002608
3783.2479,0.002956
3784.1797,0.002481
3785.1116,0.001686
3786.0434,0.001811
3786.9752,0.002381
3787.9071,0.002463
3788.8389,0.002504
3789.7707,0.002211
3790.7026,0.002539
3791.6344,0.002869
3792.5662,0.002058
3793.4981,0.001508
3794.4299,0.001418
3795.3618,0.001548
3796.2936,0.002432
3797.2254,0.002763
3798.1573,0.002114
3799.0891,0.001159
3800.0209,0.000967
3800.9528,0.000685
3801.8846,0.000038
3802.8164,0.000383
3803.7483,0.000242
3804.6801,0.000291
3805.6119,0.001218
3806.5438,0.001810
3807.4756,0.001578
3808.4074,0.001491
3809.3393,0.001877
3810.2711,0.002178
3811.2029,0.001972
3812.1348,0.001178
3813.0666,0.001295
3813.9984,0.002010
3814.9303,0.001747
3815.8621,0.001162
3816.7939,0.000703
3817.7258,0.000259
3818.6576,0.000032
3819.5894,0.000606
3820.5213,0.000447
3821.4531,-0.000108
3822.3850,0.000230
3823.3168,0.000737
3824.2486,0.000804
3825.1805,0.001567
3826.1123,0.002422
3827.0441,0.001953
3827.9760,0.001113
3828.9078,0.001407
3829.8396,0.001128
3830.7715,0.000999
3831.7033,0.001716
3832.6351,0.001495
3833.5670,0.000596
3834.4988,0.000047
3835.4306,0.000861
3836.3625,0.001473
3837.2943,0.001103
3838.2261,0.000102
3839.1580,-0.000627
3840.0898,-0.000266
3841.0216,0.000505
3841.9535,0.001381
3842.8853,0.000879
3843.8171,0.000750
3844.7490,0.000909
3845.6808,0.000297
3846.6126,0.000963
3847.5445,0.001917
3848.4763,0.001381
3849.4082,0.000844
3850.3400,0.000915
3851.2718,0.000855
3852.2037,0.000213
3853.1355,0.000313
3854.0673,0.000619
3854.9992,0.000800
3855.9310,0.001402
3856.8628,0.000864
3857.7947,0.002138
3858.7265,0.002859
3859.6583,0.001713
3860.5902,0.000939
3861.5220,0.000910
3862.4538,0.000731
3863.3857,0.001325
3864.3175,0.002170
3865.2493,0.001638
3866.1812,0.001219
3867.1130,0.000945
3868.0448,0.000554
3868.9767,0.000919
3869.9085,0.001838
3870.8403,0.002765
3871.7722,0.001750
3872.7040,-0.000478
3873.6358,-0.000383
3874.5677,0.000135
3875.4995,0.000675
3876.4314,0.001555
3877.3632,0.001669
3878.2950,0.001781
3879.2269,0.001731
3880.1587,0.001516
3881.0905,0.001404
3882.0224,0.000087
3882.9542,-0.000323
3883.8860,0.001167
3884.8179,0.002127
3885.7497,0.000864
3886.6815,-0.000279
3887.6134,-0.000578
3888.5452,-0.000497
3889.4770,0.001678
3890.4089,0.002988
3891.3407,0.002433
3892.2725,0.001611
3893.2044,0.000377
3894.1362,0.000067
3895.0680,0.001105
3895.9999,0.001081
3896.9317,-0.000040
3897.8635,0.000240
3898.7954,0.001384
3899.7272,0.001457
3900.6590,0.001151
3901.5909,0.001428
3902.5227,0.001598
3903.4546,0.001283
3904.3864,0.000848
3905.3182,0.001529
3906.2501,0.002319
3907.1819,0.002201
3908.1137,0.001858
3909.0456,0.001499
3909.9774,0.001761
3910.9092,0.002421
3911.8411,0.002517
3912.7729,0.002118
3913.7047,0.001497
3914.6366,0.000722
3915.5684,0.000640
3916.5002,0.000737
3917.4321,0.000199
3918.3639,0.000064
3919.2957,0.000443
3920.2276,0.000842
3921.1594,0.001962
3922.0912,0.001768
3923.0231,-0.000106
3923.9549,-0.000145
3924.8867,0.000776
3925.8186,0.000678
3926.7504,0.000810
3927.6822,0.001530
3928.6141,0.002536
3929.5459,0.002837
3930.4777,0.001881
3931.4096,0.001373
3932.3414,0.001089
3933.2733,0.001158
3934.2051,0.002382
3935.1369,0.002860
3936.0688,0.002932
3937.0006,0.002360
3937.9324,0.001778
3938.8643,0.001823
3939.7961,0.001673
3940.7279,0.001442
3941.6598,0.000766
3942.5916,0.000645
3943.5234,0.001175
3944.4553,0.001606
3945.3871,0.001694
3946.3189,0.001220
3947.2508,0.001248
3948.1826,0.002032
3949.1144,0.002320
3950.0463,0.001838
3950.9781,0.001360
3951.9099,0.000800
3952.8418,0.001114
3953.7736,0.001647
3954.7054,0.000646
3955.6373,0.000547
3956.5691,0.001520
3957.5009,0.002164
3958.4328,0.002534
3959.3646,0.002223
3960.2965,0.001819
3961.2283,0.001154
3962.1601,0.000517
3963.0920,0.000772
3964.0238,0.001039
3964.9556,0.000952
3965.8875,0.001473
3966.8193,0.002242
3967.7511,0.002053
3968.6830,0.001652
3969.6148,0.001985
3970.5466,0.001743
3971.4785,0.001345
3972.4103,0.002136
3973.3421,0.002314
3974.2740,0.001560
3975.2058,0.000888
3976.1376,0.000697
3977.0695,0.001873
3978.0013,0.002648
3978.9331,0.001972
3979.8650,0.001327
3980.7968,0.001313
3981.7286,0.001793
3982.6605,0.002234
3983.5923,0.002409
3984.5241,0.002579
3985.4560,0.002712
3986.3878,0.002408
3987.3197,0.001875
3988.2515,0.001634
3989.1833,0.002049
3990.1152,0.002544
3991.0470,0.002303
3991.9788,0.001908
3992.9107,0.001834
3993.8425,0.001725
3994.7743,0.001782
3995.7062,0.001962
3996.6380,0.002282
3997.5698,0.001728
3998.5017,0.001051
3999.4335,0.001261
4000.3653,0.000899
