Wavenumber,Intensity
650.4205,0.364762
651.3523,0.364271
652.2841,0.378582
653.2160,0.381678
654.1478,0.368542
655.0796,0.359683
656.0115,0.365183
656.9433,0.370824
657.8751,0.369861
658.8070,0.358546
659.7388,0.350034
660.6706,0.362742
661.6025,0.368128
662.5343,0.358437
663.4661,0.351225
664.3980,0.346090
665.3298,0.346946
666.2616,0.353172
667.1935,0.347856
668.1253,0.345734
669.0571,0.362298
669.9890,0.361233
670.9208,0.356567
671.8526,0.350682
672.7845,0.349973
673.7163,0.355171
674.6481,0.350177
675.5800,0.342331
676.5118,0.340891
677.4437,0.339908
678.3755,0.334308
679.3073,0.332497
680.2392,0.334540
681.1710,0.332208
682.1028,0.334633
683.0347,0.337075
683.9665,0.333165
684.8983,0.334827
685.8302,0.331320
686.7620,0.324157
687.6938,0.325311
688.6257,0.323710
689.5575,0.320133
690.4893,0.323504
691.4212,0.325203
692.3530,0.321515
693.2848,0.317273
694.2167,0.315612
695.1485,0.316198
696.0803,0.319167
697.0122,0.318155
697.9440,0.316734
698.8758,0.318165
699.8077,0.315706
700.7395,0.307508
701.6713,0.302941
702.6032,0.308001
703.5350,0.311014
704.4669,0.309030
705.3987,0.307574
706.3305,0.305374
707.2624,0.304249
708.1942,0.305054
709.1260,0.304065
710.0579,0.299054
710.9897,0.295252
711.9215,0.294381
712.8534,0.292996
713.7852,0.293342
714.7170,0.294815
715.6489,0.292988
716.5807,0.289684
717.5125,0.287412
718.4444,0.287990
719.3762,0.286880
720.3080,0.284924
721.2399,0.283052
722.1717,0.283198
723.1035,0.284154
724.0354,0.281941
724.9672,0.278348
725.8990,0.277644
726.8309,0.278877
727.7627,0.278426
728.6945,0.276572
729.6264,0.273913
730.5582,0.271023
731.4901,0.271010
732.4219,0.270162
733.3537,0.266812
734.2856,0.265371
735.2174,0.264600
736.1492,0.264258
737.0811,0.264607
738.0129,0.264098
738.9447,0.262541
739.8766,0.259475
740.8084,0.257276
741.7402,0.256539
742.6721,0.255437
743.6039,0.254474
744.5357,0.254106
745.4676,0.253033
746.3994,0.252146
747.3312,0.250022
748.2631,0.247214
749.1949,0.245536
750.1267,0.245356
751.0586,0.245802
751.9904,0.245837
752.9222,0.242192
753.8541,0.237534
754.7859,0.236079
755.7177,0.235420
756.6496,0.235450
757.5814,0.236794
758.5132,0.235708
759.4451,0.234131
760.3769,0.231028
761.3088,0.228853
762.2406,0.228248
763.1724,0.226877
764.1043,0.226376
765.0361,0.228410
765.9679,0.226900
766.8998,0.223007
767.8316,0.220939
768.7634,0.221797
769.6953,0.221899
770.6271,0.219444
771.5589,0.217275
772.4908,0.217084
773.4226,0.216327
774.3544,0.215398
775.2863,0.214562
776.2181,0.211961
777.1499,0.209450
778.0818,0.207633
779.0136,0.207094
779.9454,0.206504
780.8773,0.204335
781.8091,0.202826
782.7409,0.201826
783.6728,0.201926
784.6046,0.201649
785.5364,0.199942
786.4683,0.198662
787.4001,0.197988
788.3320,0.196167
789.2638,0.194065
790.1956,0.191282
791.1275,0.189704
792.0593,0.190933
792.9911,0.191817
793.9230,0.189122
794.8548,0.186848
795.7866,0.186973
796.7185,0.186327
797.6503,0.185809
798.5821,0.185259
799.5140,0.182622
800.4458,0.180331
801.3776,0.179217
802.3095,0.178258
803.2413,0.177908
804.1731,0.177643
805.1050,0.176684
806.0368,0.175987
806.9686,0.175092
807.9005,0.174056
808.8323,0.172589
809.7641,0.170449
810.6960,0.168686
811.6278,0.168055
812.5596,0.166471
813.4915,0.163721
814.4233,0.162278
815.3552,0.162306
816.2870,0.161998
817.2188,0.160460
818.1507,0.158329
819.0825,0.157239
820.0143,0.155946
820.9462,0.155083
821.8780,0.154520
822.8098,0.152776
823.7417,0.151154
824.6735,0.149810
825.6053,0.147967
826.5372,0.146643
827.4690,0.146735
828.4008,0.146602
829.3327,0.145053
830.2645,0.144065
831.1963,0.143293
832.1282,0.141659
833.0600,0.141070
833.9918,0.141046
834.9237,0.139543
835.8555,0.138596
836.7873,0.137384
837.7192,0.135647
838.6510,0.134817
839.5828,0.133896
840.5147,0.132853
841.4465,0.133032
842.3784,0.131922
843.3102,0.130485
844.2420,0.129534
845.1739,0.128331
846.1057,0.128096
847.0375,0.128346
847.9694,0.127248
848.9012,0.126073
849.8330,0.125746
850.7649,0.125228
851.6967,0.124387
852.6285,0.123302
853.5604,0.121992
854.4922,0.120991
855.4240,0.120456
856.3559,0.120271
857.2877,0.119907
858.2195,0.119397
859.1514,0.119568
860.0832,0.119585
861.0150,0.118678
861.9469,0.118343
862.8787,0.119112
863.8105,0.119303
864.7424,0.119005
865.6742,0.119873
866.6060,0.121382
867.5379,0.122729
868.4697,0.124438
869.4016,0.126443
870.3334,0.129180
871.2652,0.133065
872.1971,0.137562
873.1289,0.142032
874.0607,0.146791
874.9926,0.152126
875.9244,0.157031
876.8562,0.160423
877.7881,0.161803
878.7199,0.161203
879.6517,0.157978
880.5836,0.152874
881.5154,0.146243
882.4472,0.139223
883.3791,0.131803
884.3109,0.124365
885.2427,0.117421
886.1746,0.111711
887.1064,0.107041
888.0382,0.102926
888.9701,0.099135
889.9019,0.096485
890.8337,0.094425
891.7656,0.092129
892.6974,0.090432
893.6292,0.089119
894.5611,0.087658
895.4929,0.086273
896.4247,0.084933
897.3566,0.083635
898.2884,0.082326
899.2203,0.081421
900.1521,0.080974
901.0839,0.080073
902.0158,0.079261
902.9476,0.078658
903.8794,0.077547
904.8113,0.076857
905.7431,0.076189
906.6749,0.075271
907.6068,0.074847
908.5386,0.074395
909.4704,0.073899
910.4023,0.073827
911.3341,0.073576
912.2659,0.072590
913.1978,0.071586
914.1296,0.071081
915.0614,0.070701
915.9933,0.070418
916.9251,0.069720
917.8569,0.069280
918.7888,0.068918
919.7206,0.068496
920.6524,0.068051
921.5843,0.067287
922.5161,0.066663
923.4479,0.066624
924.3798,0.066586
925.3116,0.066304
926.2435,0.065809
927.1753,0.065123
928.1071,0.064491
929.0390,0.063977
929.9708,0.063793
930.9026,0.063504
931.8345,0.063105
932.7663,0.062986
933.6981,0.062692
934.6300,0.062352
935.5618,0.062038
936.4936,0.061549
937.4255,0.061260
938.3573,0.060876
939.2891,0.060660
940.2210,0.060864
941.1528,0.060730
942.0846,0.060168
943.0165,0.059741
943.9483,0.059691
944.8801,0.059373
945.8120,0.058985
946.7438,0.058746
947.6756,0.058106
948.6075,0.057703
949.5393,0.057907
950.4711,0.058136
951.4030,0.058183
952.3348,0.057967
953.2667,0.057705
954.1985,0.057552
955.1303,0.057073
956.0622,0.056341
956.9940,0.056149
957.9258,0.056039
958.8577,0.055759
959.7895,0.055717
960.7213,0.055756
961.6532,0.055461
962.5850,0.055014
963.5168,0.055083
964.4487,0.055282
965.3805,0.055060
966.3123,0.055097
967.2442,0.055121
968.1760,0.054612
969.1078,0.054239
970.0397,0.054366
970.9715,0.054387
971.9033,0.054267
972.8352,0.054353
973.7670,0.054103
974.6988,0.053815
975.6307,0.053572
976.5625,0.053437
977.4943,0.053454
978.4262,0.053610
979.3580,0.053673
980.2899,0.053940
981.2217,0.053879
982.1535,0.053243
983.0854,0.053060
984.0172,0.053212
984.9490,0.053249
985.8809,0.053262
986.8127,0.053396
987.7445,0.053626
988.6764,0.053693
989.6082,0.053522
990.5400,0.053561
991.4719,0.053829
992.4037,0.054109
993.3355,0.054213
994.2674,0.053899
995.1992,0.053657
996.1310,0.053971
997.0629,0.054385
997.9947,0.054501
998.9265,0.054570
999.8584,0.054763
1000.7902,0.054947
1001.7220,0.055270
1002.6539,0.055592
1003.5857,0.055746
1004.5175,0.055990
1005.4494,0.056144
1006.3812,0.056531
1007.3131,0.057095
1008.2449,0.057568
1009.1767,0.058037
1010.1086,0.058553
1011.0404,0.059100
1011.9722,0.059798
1012.9041,0.060230
1013.8359,0.060885
1014.7677,0.062134
1015.6996,0.063186
1016.6314,0.063869
1017.5632,0.064566
1018.4951,0.065618
1019.4269,0.067250
1020.3587,0.068969
1021.2906,0.070645
1022.2224,0.072603
1023.1542,0.074566
1024.0861,0.076638
1025.0179,0.079275
1025.9497,0.082018
1026.8816,0.085069
1027.8134,0.088645
1028.7452,0.092719
1029.6771,0.097088
1030.6089,0.102048
1031.5407,0.107997
1032.4726,0.115023
1033.4044,0.123110
1034.3362,0.132323
1035.2681,0.142666
1036.1999,0.154109
1037.1318,0.167004
1038.0636,0.181017
1038.9954,0.195591
1039.9273,0.210629
1040.8591,0.224994
1041.7909,0.237131
1042.7228,0.246219
1043.6546,0.251649
1044.5864,0.252822
1045.5183,0.249233
1046.4501,0.241224
1047.3819,0.229722
1048.3138,0.215851
1049.2456,0.200512
1050.1774,0.184534
1051.1093,0.168762
1052.0411,0.153773
1052.9729,0.139749
1053.9048,0.126967
1054.8366,0.115660
1055.7684,0.106116
1056.7003,0.097939
1057.6321,0.091006
1058.5639,0.085398
1059.4958,0.080964
1060.4276,0.077524
1061.3594,0.074853
1062.2913,0.072970
1063.2231,0.071662
1064.1550,0.070646
1065.0868,0.070014
1066.0186,0.069762
1066.9505,0.069862
1067.8823,0.070161
1068.8141,0.070948
1069.7460,0.072179
1070.6778,0.073551
1071.6096,0.075157
1072.5415,0.076859
1073.4733,0.078635
1074.4051,0.080739
1075.3370,0.083388
1076.2688,0.086192
1077.2006,0.089078
1078.1325,0.091944
1079.0643,0.094830
1079.9961,0.098028
1080.9280,0.101032
1081.8598,0.103534
1082.7916,0.105838
1083.7235,0.107543
1084.6553,0.108376
1085.5871,0.108719
1086.5190,0.108161
1087.4508,0.106664
1088.3826,0.104400
1089.3145,0.101652
1090.2463,0.097993
1091.1782,0.093823
1092.1100,0.089611
1093.0418,0.085449
1093.9737,0.081150
1094.9055,0.076988
1095.8373,0.072919
1096.7692,0.069395
1097.7010,0.066403
1098.6328,0.063335
1099.5647,0.060629
1100.4965,0.058313
1101.4283,0.056370
1102.3602,0.054546
1103.2920,0.052884
1104.2238,0.051761
1105.1557,0.050748
1106.0875,0.049779
1107.0193,0.048936
1107.9512,0.048296
1108.8830,0.047609
1109.8148,0.047215
1110.7467,0.046699
1111.6785,0.046240
1112.6103,0.045897
1113.5422,0.045543
1114.4740,0.045293
1115.4058,0.045258
1116.3377,0.045234
1117.2695,0.045050
1118.2014,0.044680
1119.1332,0.044463
1120.0650,0.044368
1120.9969,0.044513
1121.9287,0.044636
1122.8605,0.044645
1123.7924,0.044587
1124.7242,0.044413
1125.6560,0.044215
1126.5879,0.044130
1127.5197,0.044006
1128.4515,0.043975
1129.3834,0.043968
1130.3152,0.043819
1131.2470,0.043645
1132.1789,0.043631
1133.1107,0.043563
1134.0425,0.043576
1134.9744,0.043412
1135.9062,0.043018
1136.8380,0.042806
1137.7699,0.042618
1138.7017,0.042560
1139.6335,0.042544
1140.5654,0.042523
1141.4972,0.042431
1142.4290,0.042175
1143.3609,0.041971
1144.2927,0.042100
1145.2246,0.042104
1146.1564,0.041971
1147.0882,0.041856
1148.0201,0.041894
1148.9519,0.041968
1149.8837,0.042064
1150.8156,0.041889
1151.7474,0.041966
1152.6792,0.042012
1153.6111,0.041821
1154.5429,0.041623
1155.4747,0.041833
1156.4066,0.042027
1157.3384,0.042093
1158.2702,0.041805
1159.2021,0.041444
1160.1339,0.041349
1161.0657,0.041388
1161.9976,0.041155
1162.9294,0.040881
1163.8612,0.040663
1164.7931,0.040174
1165.7249,0.039891
1166.6567,0.039917
1167.5886,0.039751
1168.5204,0.039677
1169.4522,0.039550
1170.3841,0.039342
1171.3159,0.039387
1172.2477,0.039451
1173.1796,0.039317
1174.1114,0.039209
1175.0433,0.039244
1175.9751,0.039189
1176.9069,0.039116
1177.8388,0.039168
1178.7706,0.039123
1179.7024,0.039045
1180.6343,0.039073
1181.5661,0.039227
1182.4979,0.039134
1183.4298,0.038938
1184.3616,0.039028
1185.2934,0.039228
1186.2253,0.039067
1187.1571,0.038989
1188.0889,0.039063
1189.0208,0.039100
1189.9526,0.039206
1190.8844,0.039257
1191.8163,0.039156
1192.7481,0.039199
1193.6799,0.039226
1194.6118,0.039259
1195.5436,0.039247
1196.4754,0.039208
1197.4073,0.039138
1198.3391,0.038943
1199.2709,0.038979
1200.2028,0.039175
1201.1346,0.039241
1202.0665,0.039278
1202.9983,0.039423
1203.9301,0.039370
1204.8620,0.039499
1205.7938,0.039619
1206.7256,0.039473
1207.6575,0.039449
1208.5893,0.039388
1209.5211,0.039466
1210.4530,0.039566
1211.3848,0.039588
1212.3166,0.039488
1213.2485,0.039594
1214.1803,0.039646
1215.1121,0.039776
1216.0440,0.039840
1216.9758,0.039835
1217.9076,0.039984
1218.8395,0.040192
1219.7713,0.040121
1220.7031,0.040211
1221.6350,0.040306
1222.5668,0.040307
1223.4986,0.040208
1224.4305,0.039988
1225.3623,0.040328
1226.2941,0.040696
1227.2260,0.040525
1228.1578,0.040273
1229.0897,0.040165
1230.0215,0.040398
1230.9533,0.040675
1231.8852,0.040833
1232.8170,0.040769
1233.7488,0.040811
1234.6807,0.041036
1235.6125,0.041181
1236.5443,0.041131
1237.4762,0.041167
1238.4080,0.041233
1239.3398,0.041527
1240.2717,0.041765
1241.2035,0.041937
1242.1353,0.042157
1243.0672,0.042046
1243.9990,0.041995
1244.9308,0.042271
1245.8627,0.042612
1246.7945,0.042670
1247.7263,0.042706
1248.6582,0.042949
1249.5900,0.043071
1250.5218,0.043163
1251.4537,0.043290
1252.3855,0.043475
1253.3173,0.043704
1254.2492,0.043932
1255.1810,0.044363
1256.1129,0.044779
1257.0447,0.045156
1257.9765,0.045472
1258.9084,0.045689
1259.8402,0.046018
1260.7720,0.046464
1261.7039,0.047009
1262.6357,0.047652
1263.5675,0.047941
1264.4994,0.048162
1265.4312,0.048984
1266.3630,0.049964
1267.2949,0.050186
1268.2267,0.050589
1269.1585,0.051224
1270.0904,0.051818
1271.0222,0.052349
1271.9540,0.052630
1272.8859,0.053027
1273.8177,0.053368
1274.7495,0.053399
1275.6814,0.053078
1276.6132,0.052623
1277.5450,0.052240
1278.4769,0.052006
1279.4087,0.051848
1280.3405,0.051434
1281.2724,0.050858
1282.2042,0.050259
1283.1361,0.049864
1284.0679,0.049654
1284.9997,0.049289
1285.9316,0.048928
1286.8634,0.048771
1287.7952,0.048932
1288.7271,0.049121
1289.6589,0.049065
1290.5907,0.049138
1291.5226,0.049158
1292.4544,0.048906
1293.3862,0.049050
1294.3181,0.049506
1295.2499,0.049838
1296.1817,0.049851
1297.1136,0.049760
1298.0454,0.049996
1298.9772,0.050303
1299.9091,0.050563
1300.8409,0.050721
1301.7727,0.050943
1302.7046,0.051326
1303.6364,0.051616
1304.5682,0.051722
1305.5001,0.051913
1306.4319,0.052415
1307.3637,0.052668
1308.2956,0.052896
1309.2274,0.053267
1310.1592,0.053312
1311.0911,0.053130
1312.0229,0.053007
1312.9548,0.053477
1313.8866,0.054239
1314.8184,0.054590
1315.7503,0.054564
1316.6821,0.054427
1317.6139,0.054622
1318.5458,0.054914
1319.4776,0.055078
1320.4094,0.055503
1321.3413,0.055736
1322.2731,0.055692
1323.2049,0.055861
1324.1368,0.055851
1325.0686,0.055721
1326.0004,0.055562
1326.9323,0.055637
1327.8641,0.055654
1328.7959,0.055504
1329.7278,0.055339
1330.6596,0.055136
1331.5914,0.055130
1332.5233,0.055239
1333.4551,0.054736
1334.3869,0.054086
1335.3188,0.053803
1336.2506,0.053545
1337.1824,0.053303
1338.1143,0.053014
1339.0461,0.052871
1339.9780,0.053101
1340.9098,0.053214
1341.8416,0.053183
1342.7735,0.052345
1343.7053,0.051331
1344.6371,0.050761
1345.5690,0.050586
1346.5008,0.050480
1347.4326,0.050040
1348.3645,0.049550
1349.2963,0.049357
1350.2281,0.049490
1351.1600,0.049489
1352.0918,0.049285
1353.0236,0.049051
1353.9555,0.048801
1354.8873,0.048759
1355.8191,0.048952
1356.7510,0.048983
1357.6828,0.048615
1358.6146,0.048603
1359.5465,0.048766
1360.4783,0.048528
1361.4101,0.048349
1362.3420,0.048618
1363.2738,0.049544
1364.2056,0.050756
1365.1375,0.050678
1366.0693,0.050242
1367.0012,0.050374
1367.9330,0.050694
1368.8648,0.051396
1369.7967,0.052605
1370.7285,0.053301
1371.6603,0.053827
1372.5922,0.054719
1373.5240,0.056150
1374.4558,0.058178
1375.3877,0.060348
1376.3195,0.061358
1377.2513,0.061772
1378.1832,0.062373
1379.1150,0.063111
1380.0468,0.063852
1380.9787,0.064350
1381.9105,0.064781
1382.8423,0.064999
1383.7742,0.064837
1384.7060,0.064894
1385.6378,0.064850
1386.5697,0.064805
1387.5015,0.065213
1388.4333,0.066006
1389.3652,0.065384
1390.2970,0.063769
1391.2288,0.062483
1392.1607,0.061899
1393.0925,0.061508
1394.0244,0.060965
1394.9562,0.061409
1395.8880,0.062518
1396.8199,0.061875
1397.7517,0.061313
1398.6835,0.061958
1399.6154,0.063089
1400.5472,0.063603
1401.4790,0.062848
1402.4109,0.062090
1403.3427,0.062056
1404.2745,0.062440
1405.2064,0.063201
1406.1382,0.064240
1407.0700,0.063981
1408.0019,0.063507
1408.9337,0.063663
1409.8655,0.063679
1410.7974,0.063676
1411.7292,0.063663
1412.6610,0.064172
1413.5929,0.064219
1414.5247,0.063324
1415.4565,0.062680
1416.3884,0.062619
1417.3202,0.062983
1418.2520,0.063612
1419.1839,0.063933
1420.1157,0.064888
1421.0476,0.065188
1421.9794,0.063677
1422.9112,0.062402
1423.8431,0.062061
1424.7749,0.062536
1425.7067,0.062071
1426.6386,0.060938
1427.5704,0.060231
1428.5022,0.059810
1429.4341,0.059382
1430.3659,0.059102
1431.2977,0.059169
1432.2296,0.058292
1433.1614,0.057174
1434.0932,0.056315
1435.0251,0.055520
1435.9569,0.055082
1436.8887,0.056019
1437.8206,0.057851
1438.7524,0.056952
1439.6842,0.055680
1440.6161,0.055199
1441.5479,0.054925
1442.4797,0.055195
1443.4116,0.055852
1444.3434,0.055893
1445.2752,0.055768
1446.2071,0.056279
1447.1389,0.057243
1448.0707,0.058678
1449.0026,0.060501
1449.9344,0.061088
1450.8663,0.060743
1451.7981,0.060438
1452.7299,0.060237
1453.6618,0.060178
1454.5936,0.059306
1455.5254,0.058258
1456.4573,0.057993
1457.3891,0.058325
1458.3209,0.059351
1459.2528,0.058468
1460.1846,0.055854
1461.1164,0.053346
1462.0483,0.051709
1462.9801,0.050332
1463.9119,0.049192
1464.8438,0.048406
1465.7756,0.048632
1466.7074,0.048065
1467.6393,0.046640
1468.5711,0.045733
1469.5029,0.044859
1470.4348,0.043887
1471.3666,0.042882
1472.2984,0.042434
1473.2303,0.044245
1474.1621,0.046556
1475.0939,0.045909
1476.0258,0.044481
1476.9576,0.044695
1477.8895,0.045792
1478.8213,0.045581
1479.7531,0.045088
1480.6850,0.044848
1481.6168,0.044933
1482.5486,0.045298
1483.4805,0.045345
1484.4123,0.045057
1485.3441,0.044525
1486.2760,0.043913
1487.2078,0.043309
1488.1396,0.043264
1489.0715,0.043561
1490.0033,0.043618
1490.9351,0.044044
1491.8670,0.043917
1492.7988,0.042521
1493.7306,0.041034
1494.6625,0.040198
1495.5943,0.039845
1496.5261,0.040092
1497.4580,0.041192
1498.3898,0.041211
1499.3216,0.040916
1500.2535,0.041187
1501.1853,0.040623
1502.1171,0.039728
1503.0490,0.038806
1503.9808,0.037793
1504.9127,0.036948
1505.8445,0.036759
1506.7763,0.037941
1507.7082,0.040330
1508.6400,0.041752
1509.5718,0.041222
1510.5037,0.040486
1511.4355,0.039859
1512.3673,0.039023
1513.2992,0.039000
1514.2310,0.038841
1515.1628,0.038336
1516.0947,0.038630
1517.0265,0.039205
1517.9583,0.039857
1518.8902,0.039889
1519.8220,0.038690
1520.7538,0.038607
1521.6857,0.040036
1522.6175,0.041180
1523.5493,0.040222
1524.4812,0.039648
1525.4130,0.039414
1526.3448,0.039733
1527.2767,0.040109
1528.2085,0.040076
1529.1403,0.040134
1530.0722,0.040129
1531.0040,0.039707
1531.9359,0.039426
1532.8677,0.039730
1533.7995,0.040447
1534.7314,0.041466
1535.6632,0.041152
1536.5950,0.039810
1537.5269,0.038912
1538.4587,0.039000
1539.3905,0.039703
1540.3224,0.040521
1541.2542,0.041501
1542.1860,0.041880
1543.1179,0.042069
1544.0497,0.042338
1544.9815,0.042079
1545.9134,0.042203
1546.8452,0.042951
1547.7770,0.042269
1548.7089,0.041729
1549.6407,0.041796
1550.5725,0.042354
1551.5044,0.043532
1552.4362,0.043271
1553.3680,0.042589
1554.2999,0.042191
1555.2317,0.042725
1556.1635,0.043354
1557.0954,0.042140
1558.0272,0.042021
1558.9591,0.045063
1559.8909,0.049098
1560.8227,0.049246
1561.7546,0.047945
1562.6864,0.046443
1563.6182,0.045715
1564.5501,0.045663
1565.4819,0.046232
1566.4137,0.046895
1567.3456,0.046813
1568.2774,0.046848
1569.2092,0.047508
1570.1411,0.049361
1571.0729,0.050921
1572.0047,0.049830
1572.9366,0.048564
1573.8684,0.048318
1574.8002,0.048762
1575.7321,0.049686
1576.6639,0.051848
1577.5957,0.055176
1578.5276,0.055256
1579.4594,0.054034
1580.3912,0.053703
1581.3231,0.054096
1582.2549,0.054740
1583.1867,0.055273
1584.1186,0.055882
1585.0504,0.056758
1585.9822,0.057766
1586.9141,0.058297
1587.8459,0.058768
1588.7778,0.059665
1589.7096,0.060450
1590.6414,0.060995
1591.5733,0.061737
1592.5051,0.062851
1593.4369,0.064129
1594.3688,0.065253
1595.3006,0.066128
1596.2324,0.067381
1597.1643,0.068908
1598.0961,0.070156
1599.0279,0.071098
1599.9598,0.071771
1600.8916,0.072881
1601.8234,0.074532
1602.7553,0.075939
1603.6871,0.077517
1604.6189,0.079299
1605.5508,0.080412
1606.4826,0.081545
1607.4144,0.083290
1608.3463,0.085563
1609.2781,0.087630
1610.2099,0.089256
1611.1418,0.091153
1612.0736,0.092829
1613.0054,0.093713
1613.9373,0.094798
1614.8691,0.096478
1615.8010,0.098645
1616.7328,0.102096
1617.6646,0.108712
1618.5965,0.112988
1619.5283,0.111330
1620.4601,0.110227
1621.3920,0.111373
1622.3238,0.113735
1623.2556,0.116514
1624.1875,0.120979
1625.1193,0.124823
1626.0511,0.125199
1626.9830,0.125233
1627.9148,0.127237
1628.8466,0.131553
1629.7785,0.133528
1630.7103,0.132415
1631.6421,0.131501
1632.5740,0.131747
1633.5058,0.132452
1634.4376,0.133403
1635.3695,0.135868
1636.3013,0.142520
1637.2331,0.147130
1638.1650,0.145544
1639.0968,0.143453
1640.0286,0.141316
1640.9605,0.139866
1641.8923,0.139009
1642.8242,0.138282
1643.7560,0.137269
1644.6878,0.136308
1645.6197,0.135309
1646.5515,0.135763
1647.4833,0.138879
1648.4152,0.139272
1649.3470,0.136184
1650.2788,0.132249
1651.2107,0.129530
1652.1425,0.128353
1653.0743,0.130049
1654.0062,0.137067
1654.9380,0.139531
1655.8698,0.133702
1656.8017,0.128079
1657.7335,0.124426
1658.6653,0.122666
1659.5972,0.121271
1660.5290,0.119838
1661.4608,0.118198
1662.3927,0.116247
1663.3245,0.115693
1664.2563,0.115248
1665.1882,0.112160
1666.1200,0.109108
1667.0518,0.107133
1667.9837,0.105694
1668.9155,0.103852
1669.8474,0.102355
1670.7792,0.101977
1671.7110,0.100262
1672.6429,0.098035
1673.5747,0.095799
1674.5065,0.093736
1675.4384,0.092647
1676.3702,0.092612
1677.3020,0.091149
1678.2339,0.088062
1679.1657,0.085160
1680.0975,0.082617
1681.0294,0.081255
1681.9612,0.080453
1682.8930,0.078083
1683.8249,0.076111
1684.7567,0.076815
1685.6885,0.077975
1686.6204,0.074946
1687.5522,0.071338
1688.4840,0.069290
1689.4159,0.067908
1690.3477,0.066544
1691.2795,0.065160
1692.2114,0.063636
1693.1432,0.062127
1694.0750,0.060196
1695.0069,0.058259
1695.9387,0.057768
1696.8706,0.057913
1697.8024,0.055553
1698.7342,0.052928
1699.6661,0.051839
1700.5979,0.051800
1701.5297,0.051839
1702.4616,0.049961
1703.3934,0.047878
1704.3252,0.046506
1705.2571,0.046138
1706.1889,0.045396
1707.1207,0.044160
1708.0526,0.043180
1708.9844,0.042019
1709.9162,0.041191
1710.8481,0.040293
1711.7799,0.039368
1712.7117,0.038647
1713.6436,0.037364
1714.5754,0.035992
1715.5072,0.035401
1716.4391,0.035464
1717.3709,0.035119
1718.3027,0.034434
1719.2346,0.034377
1720.1664,0.033384
1721.0982,0.031930
1722.0301,0.031364
1722.9619,0.031000
1723.8937,0.030392
1724.8256,0.029529
1725.7574,0.028948
1726.6893,0.028663
1727.6211,0.028074
1728.5529,0.027149
1729.4848,0.026893
1730.4166,0.026740
1731.3484,0.025955
1732.2803,0.025261
1733.2121,0.024382
1734.1439,0.023668
1735.0758,0.024085
1736.0076,0.024604
1736.9394,0.023944
1737.8713,0.023033
1738.8031,0.022773
1739.7349,0.022782
1740.6668,0.022281
1741.5986,0.022140
1742.5304,0.022218
1743.4623,0.022114
1744.3941,0.021854
1745.3259,0.021025
1746.2578,0.020421
1747.1896,0.020315
1748.1214,0.019899
1749.0533,0.019562
1749.9851,0.019900
1750.9169,0.020059
1751.8488,0.019579
1752.7806,0.019049
1753.7125,0.018406
1754.6443,0.017992
1755.5761,0.017979
1756.5080,0.017786
1757.4398,0.017717
1758.3716,0.018063
1759.3035,0.017739
1760.2353,0.017029
1761.1671,0.016743
1762.0990,0.016607
1763.0308,0.016791
1763.9626,0.016938
1764.8945,0.016703
1765.8263,0.016669
1766.7581,0.016420
1767.6900,0.016159
1768.6218,0.016234
1769.5536,0.015895
1770.4855,0.015098
1771.4173,0.014436
1772.3491,0.014331
1773.2810,0.014583
1774.2128,0.014473
1775.1446,0.014288
1776.0765,0.014060
1777.0083,0.013676
1777.9401,0.013663
1778.8720,0.014053
1779.8038,0.014207
1780.7357,0.014067
1781.6675,0.013535
1782.5993,0.013152
1783.5312,0.013504
1784.4630,0.013643
1785.3948,0.013352
1786.3267,0.013512
1787.2585,0.013588
1788.1903,0.013365
1789.1222,0.013244
1790.0540,0.012686
1790.9858,0.012397
1791.9177,0.012806
1792.8495,0.012869
1793.7813,0.012380
1794.7132,0.012663
1795.6450,0.012786
1796.5768,0.012058
1797.5087,0.011879
1798.4405,0.012232
1799.3723,0.011890
1800.3042,0.011584
1801.2360,0.011532
1802.1678,0.010969
1803.0997,0.011094
1804.0315,0.011738
1804.9633,0.011580
1805.8952,0.011289
1806.8270,0.011326
1807.7589,0.011066
1808.6907,0.010585
1809.6225,0.010760
1810.5544,0.011128
1811.4862,0.010495
1812.4180,0.010221
1813.3499,0.011099
1814.2817,0.011159
1815.2135,0.010912
1816.1454,0.011103
1817.0772,0.010927
1818.0090,0.010633
1818.9409,0.010905
1819.8727,0.010723
1820.8045,0.010186
1821.7364,0.010419
1822.6682,0.010358
1823.6000,0.010344
1824.5319,0.010547
1825.4637,0.010338
1826.3955,0.010348
1827.3274,0.010138
1828.2592,0.009773
1829.1910,0.009844
1830.1229,0.010002
1831.0547,0.010017
1831.9865,0.009542
1832.9184,0.009295
1833.8502,0.009666
1834.7821,0.009764
1835.7139,0.009697
1836.6457,0.009291
1837.5776,0.008872
1838.5094,0.008998
1839.4412,0.008866
1840.3731,0.008978
1841.3049,0.009381
1842.2367,0.009261
1843.1686,0.009298
1844.1004,0.009281
1845.0322,0.008992
1845.9641,0.008730
1846.8959,0.008673
1847.8277,0.009439
1848.7596,0.009680
1849.6914,0.008960
1850.6232,0.008574
1851.5551,0.008557
1852.4869,0.008671
1853.4187,0.009190
1854.3506,0.009372
1855.2824,0.008941
1856.2142,0.008862
1857.1461,0.009283
1858.0779,0.009186
1859.0097,0.008655
1859.9416,0.009178
1860.8734,0.009492
1861.8052,0.008403
1862.7371,0.007982
1863.6689,0.008949
1864.6008,0.009148
1865.5326,0.008213
1866.4644,0.007832
1867.3963,0.008255
1868.3281,0.008975
1869.2599,0.009749
1870.1918,0.009213
1871.1236,0.007644
1872.0554,0.008190
1872.9873,0.008723
1873.9191,0.007110
1874.8509,0.006389
1875.7828,0.007685
1876.7146,0.008089
1877.6464,0.007358
1878.5783,0.007424
1879.5101,0.007729
1880.4419,0.007769
1881.3738,0.008743
1882.3056,0.008959
1883.2374,0.008338
1884.1693,0.008694
1885.1011,0.009301
1886.0329,0.008568
1886.9648,0.007702
1887.8966,0.007773
1888.8284,0.007299
1889.7603,0.007069
1890.6921,0.008061
1891.6240,0.009154
1892.5558,0.008429
1893.4876,0.007721
1894.4195,0.008413
1895.3513,0.008736
1896.2831,0.008257
1897.2150,0.007757
1898.1468,0.008101
1899.0786,0.008360
1900.0105,0.008209
1900.9423,0.007951
1901.8741,0.007781
1902.8060,0.008101
1903.7378,0.007991
1904.6696,0.007812
1905.6015,0.007896
1906.5333,0.008479
1907.4651,0.008667
1908.3970,0.007785
1909.3288,0.007808
1910.2606,0.008735
1911.1925,0.008893
1912.1243,0.007757
1913.0561,0.006834
1913.9880,0.007336
1914.9198,0.007956
1915.8516,0.008817
1916.7835,0.010322
1917.7153,0.010040
1918.6472,0.009120
1919.5790,0.008716
1920.5108,0.009081
1921.4427,0.009117
1922.3745,0.008051
1923.3063,0.007859
1924.2382,0.008520
1925.1700,0.007925
1926.1018,0.006514
1927.0337,0.006628
1927.9655,0.007443
1928.8973,0.007844
1929.8292,0.007704
1930.7610,0.007410
1931.6928,0.007032
1932.6247,0.008343
1933.5565,0.009296
1934.4883,0.007377
1935.4202,0.005717
1936.3520,0.005826
1937.2838,0.005894
1938.2157,0.006355
1939.1475,0.008473
1940.0793,0.007881
1941.0112,0.005529
1941.9430,0.006300
1942.8748,0.008184
1943.8067,0.008419
1944.7385,0.006236
1945.6704,0.004780
1946.6022,0.004632
1947.5340,0.005644
1948.4659,0.006758
1949.3977,0.006630
1950.3295,0.006271
1951.2614,0.006426
1952.1932,0.006847
1953.1250,0.007128
1954.0569,0.006003
1954.9887,0.004679
1955.9205,0.004688
1956.8524,0.005289
1957.7842,0.005363
1958.7160,0.003958
1959.6479,0.006111
1960.5797,0.008143
1961.5115,0.004417
1962.4434,0.001700
1963.3752,0.003725
1964.3070,0.005101
1965.2389,0.005215
1966.1707,0.006725
1967.1025,0.006588
1968.0344,0.005523
1968.9662,0.007178
1969.8980,0.006303
1970.8299,0.003190
1971.7617,0.000759
1972.6936,-0.000859
1973.6254,-0.000125
1974.5572,0.001324
1975.4891,0.002823
1976.4209,0.004288
1977.3527,0.004009
1978.2846,0.003943
1979.2164,0.004382
1980.1482,0.005637
1981.0801,0.005090
1982.0119,0.002813
1982.9437,0.001389
1983.8756,0.004257
1984.8074,0.008413
1985.7392,0.008807
1986.6711,0.005085
1987.6029,0.002958
1988.5347,0.005334
1989.4666,0.006303
1990.3984,0.004445
1991.3302,0.005102
1992.2621,0.006422
1993.1939,0.006148
1994.1257,0.004484
1995.0576,0.005109
1995.9894,0.008610
1996.9212,0.007584
1997.8531,0.003430
1998.7849,0.003753
1999.7167,0.005201
2000.6486,0.004728
2001.5804,0.003903
2002.5123,0.004050
2003.4441,0.005208
2004.3759,0.007035
2005.3078,0.006725
2006.2396,0.004346
2007.1714,0.004896
2008.1033,0.005416
2009.0351,0.002642
2009.9669,0.004013
2010.8988,0.007526
2011.8306,0.008252
2012.7624,0.007247
2013.6943,0.008200
2014.6261,0.006023
2015.5579,0.002522
2016.4898,0.002156
2017.4216,0.000852
2018.3534,0.000211
2019.2853,-0.001381
2020.2171,0.000859
2021.1489,0.005654
2022.0808,0.005890
2023.0126,0.005498
2023.9444,0.005830
2024.8763,0.002908
2025.8081,0.002249
2026.7399,0.002301
2027.6718,0.002580
2028.6036,0.005398
2029.5355,0.006858
2030.4673,0.004169
2031.3991,0.004781
2032.3310,0.007700
2033.2628,0.010138
2034.1946,0.009770
2035.1265,0.005266
2036.0583,0.001988
2036.9901,0.004361
2037.9220,0.007088
2038.8538,0.005772
2039.7856,0.006201
2040.7175,0.006683
2041.6493,0.004122
2042.5811,0.002853
2043.5130,0.003496
2044.4448,0.005880
2045.3766,0.007722
2046.3085,0.006706
2047.2403,0.006012
2048.1721,0.007317
2049.1040,0.007798
2050.0358,0.008436
2050.9676,0.008556
2051.8995,0.008974
2052.8313,0.009918
2053.7631,0.012099
2054.6950,0.012329
2055.6268,0.010752
2056.5587,0.010656
2057.4905,0.011130
2058.4223,0.011717
2059.3542,0.011349
2060.2860,0.010722
2061.2178,0.011058
2062.1497,0.009978
2063.0815,0.009845
2064.0133,0.011233
2064.9452,0.010628
2065.8770,0.008193
2066.8088,0.007538
2067.7407,0.009469
2068.6725,0.011049
2069.6043,0.010949
2070.5362,0.011204
2071.4680,0.011720
2072.3998,0.012441
2073.3317,0.011649
2074.2635,0.011700
2075.1953,0.011368
2076.1272,0.011549
2077.0590,0.012059
2077.9908,0.011519
2078.9227,0.011252
2079.8545,0.010793
2080.7863,0.011554
2081.7182,0.012244
2082.6500,0.012239
2083.5819,0.013454
2084.5137,0.014279
2085.4455,0.014730
2086.3774,0.013180
2087.3092,0.011010
2088.2410,0.010975
2089.1729,0.012049
2090.1047,0.012882
2091.0365,0.012881
2091.9684,0.012314
2092.9002,0.011506
2093.8320,0.011822
2094.7639,0.014059
2095.6957,0.015567
2096.6275,0.014175
2097.5594,0.012325
2098.4912,0.010918
2099.4230,0.009526
2100.3549,0.010977
2101.2867,0.012540
2102.2185,0.012001
2103.1504,0.011791
2104.0822,0.013721
2105.0140,0.012910
2105.9459,0.011147
2106.8777,0.011947
2107.8095,0.013439
2108.7414,0.013897
2109.6732,0.013884
2110.6051,0.014344
2111.5369,0.013438
2112.4687,0.012646
2113.4006,0.011415
2114.3324,0.010841
2115.2642,0.011733
2116.1961,0.012332
2117.1279,0.012539
2118.0597,0.012642
2118.9916,0.014074
2119.9234,0.015254
2120.8552,0.015093
2121.7871,0.014455
2122.7189,0.012469
2123.6507,0.011887
2124.5826,0.013064
2125.5144,0.014803
2126.4462,0.014902
2127.3781,0.013142
2128.3099,0.011897
2129.2417,0.011322
2130.1736,0.011291
2131.1054,0.012014
2132.0372,0.012402
2132.9691,0.012669
2133.9009,0.013802
2134.8327,0.012894
2135.7646,0.010905
2136.6964,0.010226
2137.6282,0.010757
2138.5601,0.012156
2139.4919,0.011097
2140.4238,0.010199
2141.3556,0.009225
2142.2874,0.008602
2143.2193,0.009396
2144.1511,0.010956
2145.0829,0.010824
2146.0148,0.008770
2146.9466,0.009989
2147.8784,0.010427
2148.8103,0.009516
2149.7421,0.010805
2150.6739,0.012426
2151.6058,0.007674
2152.5376,0.005201
2153.4694,0.010439
2154.4013,0.011473
2155.3331,0.008587
2156.2649,0.004928
2157.1968,0.001411
2158.1286,0.002960
2159.0604,0.004791
2159.9923,0.004390
2160.9241,0.001482
2161.8559,0.002504
2162.7878,0.004961
2163.7196,0.005156
2164.6514,0.006164
2165.5833,0.004877
2166.5151,0.003898
2167.4470,0.005843
2168.3788,0.006436
2169.3106,0.006615
2170.2425,0.006397
2171.1743,0.007239
2172.1061,0.006459
2173.0380,0.005665
2173.9698,0.004794
2174.9016,0.005475
2175.8335,0.008894
2176.7653,0.009738
2177.6971,0.011078
2178.6290,0.009681
2179.5608,0.007184
2180.4926,0.004706
2181.4245,0.004037
2182.3563,0.003508
2183.2881,0.002497
2184.2200,0.004155
2185.1518,0.005260
2186.0836,0.006203
2187.0155,0.005980
2187.9473,0.005661
2188.8791,0.007435
2189.8110,0.008563
2190.7428,0.006036
2191.6746,0.005784
2192.6065,0.007862
2193.5383,0.010764
2194.4702,0.010885
2195.4020,0.009029
2196.3338,0.007331
2197.2657,0.006921
2198.1975,0.005833
2199.1293,0.006459
2200.0612,0.005582
2200.9930,0.005229
2201.9248,0.007127
2202.8567,0.007046
2203.7885,0.006513
2204.7203,0.008511
2205.6522,0.009229
2206.5840,0.009132
2207.5158,0.009147
2208.4477,0.008814
2209.3795,0.009213
2210.3113,0.010292
2211.2432,0.010136
2212.1750,0.009320
2213.1068,0.008639
2214.0387,0.009400
2214.9705,0.010368
2215.9023,0.010334
2216.8342,0.010075
2217.7660,0.008257
2218.6978,0.006425
2219.6297,0.006175
2220.5615,0.007703
2221.4934,0.008341
2222.4252,0.008181
2223.3570,0.009156
2224.2889,0.009193
2225.2207,0.007053
2226.1525,0.007461
2227.0844,0.008209
2228.0162,0.007931
2228.9480,0.008126
2229.8799,0.008093
2230.8117,0.007979
2231.7435,0.007160
2232.6754,0.008072
2233.6072,0.008459
2234.5390,0.008523
2235.4709,0.007696
2236.4027,0.007760
2237.3345,0.008269
2238.2664,0.009539
2239.1982,0.009623
2240.1300,0.009211
2241.0619,0.007780
2241.9937,0.007856
2242.9255,0.009253
2243.8574,0.008390
2244.7892,0.008018
2245.7210,0.007784
2246.6529,0.007320
2247.5847,0.007325
2248.5166,0.007205
2249.4484,0.007213
2250.3802,0.007286
2251.3121,0.008137
2252.2439,0.009626
2253.1757,0.010306
2254.1076,0.009219
2255.0394,0.008364
2255.9712,0.008414
2256.9031,0.009783
2257.8349,0.010559
2258.7667,0.010265
2259.6986,0.007832
2260.6304,0.007136
2261.5622,0.007668
2262.4941,0.008211
2263.4259,0.008397
2264.3577,0.008296
2265.2896,0.008376
2266.2214,0.009325
2267.1532,0.010018
2268.0851,0.010281
2269.0169,0.010043
2269.9487,0.008900
2270.8806,0.008853
2271.8124,0.008432
2272.7442,0.007899
2273.6761,0.008617
2274.6079,0.007965
2275.5397,0.007453
2276.4716,0.007281
2277.4034,0.007269
2278.3353,0.007864
2279.2671,0.008356
2280.1989,0.008588
2281.1308,0.008953
2282.0626,0.009054
2282.9944,0.008519
2283.9263,0.008336
2284.8581,0.008440
2285.7899,0.008693
2286.7218,0.008600
2287.6536,0.008363
2288.5854,0.008884
2289.5173,0.009624
2290.4491,0.009587
2291.3809,0.008735
2292.3128,0.008773
2293.2446,0.009163
2294.1764,0.009278
2295.1083,0.008861
2296.0401,0.008924
2296.9719,0.009189
2297.9038,0.008563
2298.8356,0.008569
2299.7674,0.009311
2300.6993,0.009704
2301.6311,0.009008
2302.5629,0.008452
2303.4948,0.008616
2304.4266,0.008450
2305.3585,0.008408
2306.2903,0.007980
2307.2221,0.006886
2308.1540,0.007721
2309.0858,0.008923
2310.0176,0.009084
2310.9495,0.008814
2311.8813,0.008684
2312.8131,0.008249
2313.7450,0.009699
2314.6768,0.010122
2315.6086,0.008935
2316.5405,0.007620
2317.4723,0.006907
2318.4041,0.007723
2319.3360,0.008720
2320.2678,0.008529
2321.1996,0.008557
2322.1315,0.009070
2323.0633,0.008820
2323.9951,0.007688
2324.9270,0.007458
2325.8588,0.008803
2326.7906,0.009230
2327.7225,0.008693
2328.6543,0.008256
2329.5861,0.007931
2330.5180,0.008219
2331.4498,0.008227
2332.3817,0.008752
2333.3135,0.008148
2334.2453,0.007222
2335.1772,0.006888
2336.1090,0.006813
2337.0408,0.007515
2337.9727,0.007564
2338.9045,0.007807
2339.8363,0.007792
2340.7682,0.007436
2341.7000,0.008413
2342.6318,0.008349
2343.5637,0.008390
2344.4955,0.008215
2345.4273,0.007979
2346.3592,0.007751
2347.2910,0.008023
2348.2228,0.008348
2349.1547,0.008018
2350.0865,0.007741
2351.0183,0.006968
2351.9502,0.006686
2352.8820,0.007100
2353.8138,0.007890
2354.7457,0.006948
2355.6775,0.006051
2356.6093,0.006799
2357.5412,0.007910
2358.4730,0.007084
2359.4049,0.006226
2360.3367,0.005745
2361.2685,0.006179
2362.2004,0.006984
2363.1322,0.008059
2364.0640,0.007375
2364.9959,0.006173
2365.9277,0.005820
2366.8595,0.006279
2367.7914,0.007524
2368.7232,0.006498
2369.6550,0.006261
2370.5869,0.007071
2371.5187,0.006708
2372.4505,0.005997
2373.3824,0.005309
2374.3142,0.005112
2375.2460,0.006028
2376.1779,0.006309
2377.1097,0.005970
2378.0415,0.006184
2378.9734,0.005873
2379.9052,0.006301
2380.8370,0.007733
2381.7689,0.007057
2382.7007,0.006300
2383.6325,0.007104
2384.5644,0.007113
2385.4962,0.006887
2386.4281,0.006632
2387.3599,0.006030
2388.2917,0.005846
2389.2236,0.006495
2390.1554,0.007152
2391.0872,0.007166
2392.0191,0.007852
2392.9509,0.007750
2393.8827,0.006915
2394.8146,0.006529
2395.7464,0.006902
2396.6782,0.007077
2397.6101,0.007089
2398.5419,0.007079
2399.4737,0.006792
2400.4056,0.006548
2401.3374,0.006602
2402.2692,0.006139
2403.2011,0.005906
2404.1329,0.005848
2405.0647,0.005445
2405.9966,0.006092
2406.9284,0.006865
2407.8602,0.006996
2408.7921,0.006875
2409.7239,0.006631
2410.6557,0.006241
2411.5876,0.005956
2412.5194,0.006268
2413.4512,0.006720
2414.3831,0.006404
2415.3149,0.006071
2416.2468,0.006222
2417.1786,0.006092
2418.1104,0.005854
2419.0423,0.006410
2419.9741,0.007131
2420.9059,0.007122
2421.8378,0.006645
2422.7696,0.006353
2423.7014,0.006167
2424.6333,0.006026
2425.5651,0.006180
2426.4969,0.006404
2427.4288,0.005604
2428.3606,0.004998
2429.2924,0.004650
2430.2243,0.004788
2431.1561,0.005288
2432.0879,0.005752
2433.0198,0.006465
2433.9516,0.005930
2434.8834,0.005201
2435.8153,0.005211
2436.7471,0.006048
2437.6789,0.005509
2438.6108,0.005080
2439.5426,0.005353
2440.4744,0.004749
2441.4063,0.004227
2442.3381,0.004380
2443.2700,0.005156
2444.2018,0.005531
2445.1336,0.005563
2446.0655,0.004948
2446.9973,0.004573
2447.9291,0.004870
2448.8610,0.005553
2449.7928,0.005791
2450.7246,0.005385
2451.6565,0.005496
2452.5883,0.004471
2453.5201,0.003940
2454.4520,0.004303
2455.3838,0.004759
2456.3156,0.005211
2457.2475,0.005736
2458.1793,0.004995
2459.1111,0.004335
2460.0430,0.004645
2460.9748,0.004923
2461.9066,0.004972
2462.8385,0.004884
2463.7703,0.004926
2464.7021,0.004976
2465.6340,0.005696
2466.5658,0.005748
2467.4976,0.004869
2468.4295,0.004138
2469.3613,0.004331
2470.2932,0.004546
2471.2250,0.004655
2472.1568,0.004999
2473.0887,0.005257
2474.0205,0.005004
2474.9523,0.004942
2475.8842,0.005648
2476.8160,0.005299
2477.7478,0.004712
2478.6797,0.005530
2479.6115,0.005542
2480.5433,0.004684
2481.4752,0.005393
2482.4070,0.005611
2483.3388,0.005531
2484.2707,0.005134
2485.2025,0.004877
2486.1343,0.004259
2487.0662,0.004872
2487.9980,0.005824
2488.9298,0.004913
2489.8617,0.005182
2490.7935,0.005332
2491.7253,0.005090
2492.6572,0.005418
2493.5890,0.005415
2494.5208,0.004927
2495.4527,0.005171
2496.3845,0.005543
2497.3164,0.004670
2498.2482,0.004254
2499.1800,0.005026
2500.1119,0.004701
2501.0437,0.004449
2501.9755,0.004827
2502.9074,0.005299
2503.8392,0.005624
2504.7710,0.004748
2505.7029,0.004328
2506.6347,0.004819
2507.5665,0.004990
2508.4984,0.005121
2509.4302,0.004963
2510.3620,0.004674
2511.2939,0.004477
2512.2257,0.004044
2513.1575,0.004521
2514.0894,0.004426
2515.0212,0.004534
2515.9530,0.005567
2516.8849,0.005714
2517.8167,0.005249
2518.7485,0.004745
2519.6804,0.005027
2520.6122,0.005401
2521.5440,0.004999
2522.4759,0.004995
2523.4077,0.005372
2524.3396,0.005852
2525.2714,0.006033
2526.2032,0.005626
2527.1351,0.005795
2528.0669,0.006185
2528.9987,0.005924
2529.9306,0.005532
2530.8624,0.005250
2531.7942,0.004842
2532.7261,0.004697
2533.6579,0.005211
2534.5897,0.005055
2535.5216,0.004725
2536.4534,0.004608
2537.3852,0.004159
2538.3171,0.004707
2539.2489,0.005023
2540.1807,0.005049
2541.1126,0.005793
2542.0444,0.005426
2542.9762,0.005006
2543.9081,0.005272
2544.8399,0.005008
2545.7717,0.004294
2546.7036,0.004538
2547.6354,0.005668
2548.5672,0.005764
2549.4991,0.004639
2550.4309,0.004278
2551.3627,0.004793
2552.2946,0.004297
2553.2264,0.003596
2554.1583,0.003517
2555.0901,0.003520
2556.0219,0.003925
2556.9538,0.004002
2557.8856,0.003258
2558.8174,0.003219
2559.7493,0.003814
2560.6811,0.004433
2561.6129,0.005103
2562.5448,0.004789
2563.4766,0.004241
2564.4084,0.004001
2565.3403,0.003606
2566.2721,0.004637
2567.2039,0.005167
2568.1358,0.005280
2569.0676,0.005442
2569.9994,0.004836
2570.9313,0.004676
2571.8631,0.005222
2572.7949,0.004828
2573.7268,0.004560
2574.6586,0.005197
2575.5904,0.005240
2576.5223,0.004631
2577.4541,0.004314
2578.3859,0.004139
2579.3178,0.004327
2580.2496,0.004967
2581.1815,0.004931
2582.1133,0.004252
2583.0451,0.003964
2583.9770,0.003594
2584.9088,0.003799
2585.8406,0.004604
2586.7725,0.004730
2587.7043,0.004541
2588.6361,0.004549
2589.5680,0.004598
2590.4998,0.005078
2591.4316,0.005148
2592.3635,0.003989
2593.2953,0.003438
2594.2271,0.004113
2595.1590,0.004493
2596.0908,0.004191
2597.0226,0.004308
2597.9545,0.004455
2598.8863,0.004155
2599.8181,0.003716
2600.7500,0.004362
2601.6818,0.005190
2602.6136,0.004897
2603.5455,0.005048
2604.4773,0.005003
2605.4091,0.004551
2606.3410,0.004166
2607.2728,0.003674
2608.2047,0.004317
2609.1365,0.004732
2610.0683,0.004217
2611.0002,0.004285
2611.9320,0.005039
2612.8638,0.005331
2613.7957,0.004654
2614.7275,0.004465
2615.6593,0.004940
2616.5912,0.005252
2617.5230,0.005390
2618.4548,0.005721
2619.3867,0.005769
2620.3185,0.005844
2621.2503,0.005871
2622.1822,0.005252
2623.1140,0.004777
2624.0458,0.004672
2624.9777,0.004449
2625.9095,0.004880
2626.8413,0.005714
2627.7732,0.006017
2628.7050,0.005628
2629.6368,0.005333
2630.5687,0.005306
2631.5005,0.005116
2632.4323,0.004979
2633.3642,0.005002
2634.2960,0.005117
2635.2279,0.004732
2636.1597,0.004712
2637.0915,0.005118
2638.0234,0.005946
2638.9552,0.006332
2639.8870,0.006265
2640.8189,0.006132
2641.7507,0.005799
2642.6825,0.005684
2643.6144,0.005957
2644.5462,0.006195
2645.4780,0.005995
2646.4099,0.006333
2647.3417,0.006183
2648.2735,0.005402
2649.2054,0.005646
2650.1372,0.006279
2651.0690,0.006748
2652.0009,0.006567
2652.9327,0.006060
2653.8645,0.006157
2654.7964,0.006261
2655.7282,0.006171
2656.6600,0.006117
2657.5919,0.006253
2658.5237,0.006335
2659.4555,0.006036
2660.3874,0.006272
2661.3192,0.006754
2662.2511,0.006522
2663.1829,0.006013
2664.1147,0.005930
2665.0466,0.006207
2665.9784,0.006395
2666.9102,0.006812
2667.8421,0.007169
2668.7739,0.006920
2669.7057,0.006945
2670.6376,0.007224
2671.5694,0.006946
2672.5012,0.006822
2673.4331,0.006543
2674.3649,0.006304
2675.2967,0.006670
2676.2286,0.006729
2677.1604,0.006464
2678.0922,0.006885
2679.0241,0.007456
2679.9559,0.007377
2680.8877,0.007450
2681.8196,0.007642
2682.7514,0.007649
2683.6832,0.007585
2684.6151,0.007299
2685.5469,0.006887
2686.4787,0.007153
2687.4106,0.007406
2688.3424,0.007327
2689.2742,0.007699
2690.2061,0.007961
2691.1379,0.007531
2692.0698,0.007455
2693.0016,0.007843
2693.9334,0.008010
2694.8653,0.007730
2695.7971,0.008048
2696.7289,0.008266
2697.6608,0.007840
2698.5926,0.007819
2699.5244,0.008311
2700.4563,0.008416
2701.3881,0.008454
2702.3199,0.008588
2703.2518,0.008423
2704.1836,0.008377
2705.1154,0.008172
2706.0473,0.008149
2706.9791,0.008328
2707.9109,0.008392
2708.8428,0.008648
2709.7746,0.008731
2710.7064,0.008551
2711.6383,0.008373
2712.5701,0.008712
2713.5019,0.008907
2714.4338,0.008647
2715.3656,0.008564
2716.2974,0.008654
2717.2293,0.008620
2718.1611,0.008749
2719.0930,0.008939
2720.0248,0.009120
2720.9566,0.009242
2721.8885,0.009206
2722.8203,0.009422
2723.7521,0.009533
2724.6840,0.009823
2725.6158,0.010350
2726.5476,0.010396
2727.4795,0.010230
2728.4113,0.009946
2729.3431,0.009670
2730.2750,0.010054
2731.2068,0.010105
2732.1386,0.009813
2733.0705,0.010454
2734.0023,0.010436
2734.9341,0.009844
2735.8660,0.010283
2736.7978,0.010679
2737.7296,0.010489
2738.6615,0.010757
2739.5933,0.010895
2740.5251,0.010465
2741.4570,0.010244
2742.3888,0.010677
2743.3206,0.010862
2744.2525,0.011247
2745.1843,0.011909
2746.1162,0.011902
2747.0480,0.011195
2747.9798,0.010756
2748.9117,0.010834
2749.8435,0.011264
2750.7753,0.012051
2751.7072,0.012412
2752.6390,0.011649
2753.5708,0.010683
2754.5027,0.010870
2755.4345,0.011531
2756.3663,0.011334
2757.2982,0.011412
2758.2300,0.011582
2759.1618,0.011386
2760.0937,0.011534
2761.0255,0.011781
2761.9573,0.011627
2762.8892,0.011612
2763.8210,0.011783
2764.7528,0.011582
2765.6847,0.011135
2766.6165,0.011167
2767.5483,0.011261
2768.4802,0.011344
2769.4120,0.011682
2770.3438,0.012166
2771.2757,0.012129
2772.2075,0.011947
2773.1394,0.012445
2774.0712,0.012862
2775.0030,0.012513
2775.9349,0.012079
2776.8667,0.012314
2777.7985,0.012635
2778.7304,0.012280
2779.6622,0.012239
2780.5940,0.012633
2781.5259,0.012447
2782.4577,0.012714
2783.3895,0.013254
2784.3214,0.013484
2785.2532,0.013371
2786.1850,0.013003
2787.1169,0.012868
2788.0487,0.013055
2788.9805,0.013290
2789.9124,0.013517
2790.8442,0.013485
2791.7760,0.013797
2792.7079,0.014290
2793.6397,0.014340
2794.5715,0.014570
2795.5034,0.014881
2796.4352,0.014451
2797.3670,0.013944
2798.2989,0.014093
2799.2307,0.014572
2800.1626,0.015394
2801.0944,0.016211
2802.0262,0.016223
2802.9581,0.015901
2803.8899,0.015493
2804.8217,0.015486
2805.7536,0.016133
2806.6854,0.016653
2807.6172,0.016918
2808.5491,0.016676
2809.4809,0.016275
2810.4127,0.016210
2811.3446,0.016522
2812.2764,0.017463
2813.2082,0.017612
2814.1401,0.017453
2815.0719,0.018155
2816.0037,0.018864
2816.9356,0.018928
2817.8674,0.018523
2818.7992,0.018323
2819.7311,0.018315
2820.6629,0.018229
2821.5947,0.018813
2822.5266,0.019221
2823.4584,0.019547
2824.3902,0.019964
2825.3221,0.020068
2826.2539,0.019839
2827.1857,0.019451
2828.1176,0.019730
2829.0494,0.020279
2829.9813,0.020848
2830.9131,0.021664
2831.8449,0.021817
2832.7768,0.021305
2833.7086,0.021383
2834.6404,0.021891
2835.5723,0.022036
2836.5041,0.022069
2837.4359,0.021968
2838.3678,0.022326
2839.2996,0.023072
2840.2314,0.023093
2841.1633,0.023310
2842.0951,0.023425
2843.0269,0.023076
2843.9588,0.023023
2844.8906,0.023664
2845.8224,0.023822
2846.7543,0.023775
2847.6861,0.024170
2848.6179,0.024015
2849.5498,0.024216
2850.4816,0.024892
2851.4134,0.024955
2852.3453,0.025134
2853.2771,0.025370
2854.2089,0.025753
2855.1408,0.025856
2856.0726,0.026037
2857.0045,0.027089
2857.9363,0.027787
2858.8681,0.027826
2859.8000,0.027903
2860.7318,0.028092
2861.6636,0.028166
2862.5955,0.028555
2863.5273,0.029390
2864.4591,0.030137
2865.3910,0.030399
2866.3228,0.030836
2867.2546,0.031345
2868.1865,0.031689
2869.1183,0.032549
2870.0501,0.033239
2870.9820,0.033267
2871.9138,0.033921
2872.8456,0.034858
2873.7775,0.035227
2874.7093,0.035901
2875.6411,0.036793
2876.5730,0.037362
2877.5048,0.038386
2878.4366,0.039298
2879.3685,0.039367
2880.3003,0.039583
2881.2321,0.039520
2882.1640,0.039492
2883.0958,0.040369
2884.0277,0.040969
2884.9595,0.041250
2885.8913,0.041900
2886.8232,0.042099
2887.7550,0.041793
2888.6868,0.042224
2889.6187,0.043248
2890.5505,0.043749
2891.4823,0.044282
2892.4142,0.045236
2893.3460,0.046246
2894.2778,0.046090
2895.2097,0.045988
2896.1415,0.046578
2897.0733,0.046858
2898.0052,0.047356
2898.9370,0.047500
2899.8688,0.047326
2900.8007,0.048098
2901.7325,0.048917
2902.6643,0.048993
2903.5962,0.048817
2904.5280,0.048645
2905.4598,0.048339
2906.3917,0.048408
2907.3235,0.048412
2908.2553,0.047899
2909.1872,0.047206
2910.1190,0.046843
2911.0509,0.046770
2911.9827,0.046623
2912.9145,0.046189
2913.8464,0.045517
2914.7782,0.045165
2915.7100,0.044980
2916.6419,0.044472
2917.5737,0.044732
2918.5055,0.044607
2919.4374,0.044279
2920.3692,0.044927
2921.3010,0.044857
2922.2329,0.045058
2923.1647,0.045886
2924.0965,0.045961
2925.0284,0.045869
2925.9602,0.045799
2926.8920,0.046221
2927.8239,0.047238
2928.7557,0.047564
2929.6875,0.047447
2930.6194,0.048081
2931.5512,0.048301
2932.4830,0.047664
2933.4149,0.047659
2934.3467,0.048146
2935.2785,0.048590
2936.2104,0.048583
2937.1422,0.048337
2938.0741,0.048275
2939.0059,0.048379
2939.9377,0.048911
2940.8696,0.049479
2941.8014,0.049358
2942.7332,0.048958
2943.6651,0.049161
2944.5969,0.049645
2945.5287,0.049310
2946.4606,0.048471
2947.3924,0.048792
2948.3242,0.049633
2949.2561,0.049343
2950.1879,0.048824
2951.1197,0.049108
2952.0516,0.049228
2952.9834,0.049218
2953.9152,0.049532
2954.8471,0.050131
2955.7789,0.050834
2956.7107,0.050484
2957.6426,0.050421
2958.5744,0.051341
2959.5062,0.052299
2960.4381,0.053549
2961.3699,0.054033
2962.3017,0.054322
2963.2336,0.055495
2964.1654,0.057166
2965.0972,0.059265
2966.0291,0.061290
2966.9609,0.063169
2967.8928,0.065877
2968.8246,0.068733
2969.7564,0.071123
2970.6883,0.073241
2971.6201,0.075150
2972.5519,0.077662
2973.4838,0.080580
2974.4156,0.083013
2975.3474,0.084965
2976.2793,0.087012
2977.2111,0.089323
2978.1429,0.091284
2979.0748,0.092791
2980.0066,0.093731
2980.9384,0.093668
2981.8703,0.093292
2982.8021,0.092449
2983.7339,0.090613
2984.6658,0.088757
2985.5976,0.086451
2986.5294,0.083452
2987.4613,0.081367
2988.3931,0.079739
2989.3249,0.076863
2990.2568,0.073828
2991.1886,0.071941
2992.1204,0.069996
2993.0523,0.067549
2993.9841,0.065532
2994.9160,0.063914
2995.8478,0.062889
2996.7796,0.061711
2997.7115,0.060182
2998.6433,0.059548
2999.5751,0.058722
3000.5070,0.057209
3001.4388,0.056645
3002.3706,0.056646
3003.3025,0.055956
3004.2343,0.055142
3005.1661,0.054795
3006.0980,0.054974
3007.0298,0.054961
3007.9616,0.054689
3008.8935,0.054851
3009.8253,0.055171
3010.7571,0.055432
3011.6890,0.055775
3012.6208,0.056091
3013.5526,0.056607
3014.4845,0.056678
3015.4163,0.056291
3016.3481,0.056750
3017.2800,0.057174
3018.2118,0.057035
3019.1436,0.057344
3020.0755,0.057961
3021.0073,0.057965
3021.9392,0.057741
3022.8710,0.058408
3023.8028,0.059577
3024.7347,0.059993
3025.6665,0.060073
3026.5983,0.060505
3027.5302,0.061277
3028.4620,0.062094
3029.3938,0.062808
3030.3257,0.062673
3031.2575,0.062162
3032.1893,0.063426
3033.1212,0.064640
3034.0530,0.064495
3034.9848,0.064566
3035.9167,0.065162
3036.8485,0.065539
3037.7803,0.065467
3038.7122,0.066034
3039.6440,0.066992
3040.5758,0.067582
3041.5077,0.068083
3042.4395,0.068399
3043.3713,0.068422
3044.3032,0.068858
3045.2350,0.070151
3046.1668,0.071343
3047.0987,0.072623
3048.0305,0.073142
3048.9624,0.073519
3049.8942,0.075110
3050.8260,0.076016
3051.7579,0.075587
3052.6897,0.075406
3053.6215,0.075884
3054.5534,0.076978
3055.4852,0.078191
3056.4170,0.078748
3057.3489,0.078871
3058.2807,0.078727
3059.2125,0.079217
3060.1444,0.080437
3061.0762,0.081680
3062.0080,0.082115
3062.9399,0.082632
3063.8717,0.083648
3064.8035,0.084178
3065.7354,0.084484
3066.6672,0.085116
3067.5990,0.086354
3068.5309,0.087529
3069.4627,0.088693
3070.3945,0.089308
3071.3264,0.089610
3072.2582,0.090351
3073.1900,0.091269
3074.1219,0.092095
3075.0537,0.093023
3075.9856,0.094168
3076.9174,0.094840
3077.8492,0.095671
3078.7811,0.097243
3079.7129,0.097718
3080.6447,0.097290
3081.5766,0.097837
3082.5084,0.099272
3083.4402,0.100553
3084.3721,0.101278
3085.3039,0.101897
3086.2357,0.103751
3087.1676,0.105465
3088.0994,0.105900
3089.0312,0.105887
3089.9631,0.106550
3090.8949,0.107653
3091.8267,0.109268
3092.7586,0.110238
3093.6904,0.110319
3094.6222,0.110957
3095.5541,0.111733
3096.4859,0.112835
3097.4177,0.113947
3098.3496,0.115271
3099.2814,0.116285
3100.2132,0.116529
3101.1451,0.117454
3102.0769,0.119005
3103.0087,0.120487
3103.9406,0.122166
3104.8724,0.123097
3105.8043,0.123626
3106.7361,0.124542
3107.6679,0.125218
3108.5998,0.126094
3109.5316,0.126688
3110.4634,0.128079
3111.3953,0.129612
3112.3271,0.130417
3113.2589,0.130947
3114.1908,0.132177
3115.1226,0.133135
3116.0544,0.133646
3116.9863,0.135143
3117.9181,0.136231
3118.8499,0.136548
3119.7818,0.137514
3120.7136,0.139439
3121.6454,0.141291
3122.5773,0.141960
3123.5091,0.142653
3124.4409,0.143340
3125.3728,0.143783
3126.3046,0.145825
3127.2364,0.148409
3128.1683,0.148840
3129.1001,0.149372
3130.0319,0.150540
3130.9638,0.151470
3131.8956,0.152560
3132.8275,0.154396
3133.7593,0.156642
3134.6911,0.158359
3135.6230,0.158600
3136.5548,0.159735
3137.4866,0.161688
3138.4185,0.163561
3139.3503,0.163421
3140.2821,0.163060
3141.2140,0.166041
3142.1458,0.168593
3143.0776,0.168855
3144.0095,0.169338
3144.9413,0.170156
3145.8731,0.171444
3146.8050,0.173207
3147.7368,0.174537
3148.6686,0.175793
3149.6005,0.177369
3150.5323,0.179115
3151.4641,0.180155
3152.3960,0.180031
3153.3278,0.181233
3154.2596,0.182765
3155.1915,0.183432
3156.1233,0.183599
3157.0551,0.184499
3157.9870,0.186305
3158.9188,0.188857
3159.8507,0.190707
3160.7825,0.191196
3161.7143,0.192840
3162.6462,0.194183
3163.5780,0.194268
3164.5098,0.196162
3165.4417,0.197720
3166.3735,0.198385
3167.3053,0.199382
3168.2372,0.201697
3169.1690,0.203439
3170.1008,0.203420
3171.0327,0.202542
3171.9645,0.203332
3172.8963,0.205240
3173.8282,0.208427
3174.7600,0.211882
3175.6918,0.213367
3176.6237,0.213966
3177.5555,0.214560
3178.4873,0.214335
3179.4192,0.215007
3180.3510,0.216960
3181.2828,0.219804
3182.2147,0.222049
3183.1465,0.224438
3184.0783,0.224468
3185.0102,0.222912
3185.9420,0.223338
3186.8739,0.225482
3187.8057,0.227118
3188.7375,0.228486
3189.6694,0.229212
3190.6012,0.229709
3191.5330,0.230091
3192.4649,0.231538
3193.3967,0.233946
3194.3285,0.235667
3195.2604,0.235704
3196.1922,0.236451
3197.1240,0.237701
3198.0559,0.239411
3198.9877,0.241876
3199.9195,0.243662
3200.8514,0.243789
3201.7832,0.242867
3202.7150,0.242259
3203.6469,0.245022
3204.5787,0.247255
3205.5105,0.248035
3206.4424,0.248485
3207.3742,0.249215
3208.3060,0.250249
3209.2379,0.252175
3210.1697,0.253645
3211.1015,0.254989
3212.0334,0.254809
3212.9652,0.255373
3213.8971,0.255514
3214.8289,0.255935
3215.7607,0.257415
3216.6926,0.259678
3217.6244,0.259724
3218.5562,0.259927
3219.4881,0.260080
3220.4199,0.260049
3221.3517,0.260910
3222.2836,0.263392
3223.2154,0.264898
3224.1472,0.264744
3225.0791,0.264469
3226.0109,0.265074
3226.9427,0.264358
3227.8746,0.265436
3228.8064,0.268583
3229.7382,0.271496
3230.6701,0.271498
3231.6019,0.270369
3232.5337,0.270232
3233.4656,0.272367
3234.3974,0.273520
3235.3292,0.273737
3236.2611,0.273164
3237.1929,0.273777
3238.1247,0.274761
3239.0566,0.273934
3239.9884,0.273912
3240.9202,0.275774
3241.8521,0.276021
3242.7839,0.274381
3243.7158,0.274798
3244.6476,0.278151
3245.5794,0.277877
3246.5113,0.277330
3247.4431,0.278975
3248.3749,0.278753
3249.3068,0.277390
3250.2386,0.277900
3251.1704,0.277835
3252.1023,0.278827
3253.0341,0.279587
3253.9659,0.281112
3254.8978,0.282750
3255.8296,0.282786
3256.7614,0.281407
3257.6933,0.280609
3258.6251,0.281215
3259.5569,0.282217
3260.4888,0.281668
3261.4206,0.282434
3262.3524,0.283473
3263.2843,0.285150
3264.2161,0.285799
3265.1479,0.286203
3266.0798,0.285712
3267.0116,0.284847
3267.9434,0.284575
3268.8753,0.284920
3269.8071,0.283833
3270.7390,0.281974
3271.6708,0.280931
3272.6026,0.282601
3273.5345,0.282803
3274.4663,0.283021
3275.3981,0.284757
3276.3300,0.285995
3277.2618,0.285560
3278.1936,0.285977
3279.1255,0.285126
3280.0573,0.284056
3280.9891,0.284234
3281.9210,0.285631
3282.8528,0.284831
3283.7846,0.284250
3284.7165,0.283603
3285.6483,0.284144
3286.5801,0.285078
3287.5120,0.286499
3288.4438,0.286178
3289.3756,0.285413
3290.3075,0.287032
3291.2393,0.288357
3292.1711,0.287257
3293.1030,0.286645
3294.0348,0.286937
3294.9666,0.287556
3295.8985,0.287691
3296.8303,0.288322
3297.7622,0.287384
3298.6940,0.285561
3299.6258,0.284558
3300.5577,0.286116
3301.4895,0.287090
3302.4213,0.285466
3303.3532,0.284034
3304.2850,0.286096
3305.2168,0.288514
3306.1487,0.289340
3307.0805,0.288514
3308.0123,0.289029
3308.9442,0.288824
3309.8760,0.288182
3310.8078,0.287897
3311.7397,0.288057
3312.6715,0.288426
3313.6033,0.291181
3314.5352,0.290175
3315.4670,0.287411
3316.3988,0.285308
3317.3307,0.285101
3318.2625,0.286573
3319.1943,0.288777
3320.1262,0.288266
3321.0580,0.289288
3321.9898,0.290035
3322.9217,0.292020
3323.8535,0.292723
3324.7854,0.291644
3325.7172,0.289679
3326.6490,0.290644
3327.5809,0.291296
3328.5127,0.289379
3329.4445,0.287652
3330.3764,0.289042
3331.3082,0.289350
3332.2400,0.290538
3333.1719,0.291242
3334.1037,0.291278
3335.0355,0.290730
3335.9674,0.291153
3336.8992,0.291071
3337.8310,0.290443
3338.7629,0.290268
3339.6947,0.290985
3340.6265,0.290719
3341.5584,0.289909
3342.4902,0.287957
3343.4220,0.290166
3344.3539,0.292163
3345.2857,0.291437
3346.2175,0.289551
3347.1494,0.290086
3348.0812,0.290563
3349.0130,0.290044
3349.9449,0.291237
3350.8767,0.292237
3351.8086,0.289796
3352.7404,0.289940
3353.6722,0.291961
3354.6041,0.293856
3355.5359,0.290629
3356.4677,0.289914
3357.3996,0.291500
3358.3314,0.290619
3359.2632,0.290044
3360.1951,0.290459
3361.1269,0.289813
3362.0587,0.290438
3362.9906,0.289798
3363.9224,0.288999
3364.8542,0.288075
3365.7861,0.285805
3366.7179,0.283842
3367.6497,0.287816
3368.5816,0.290438
3369.5134,0.290156
3370.4452,0.289332
3371.3771,0.289324
3372.3089,0.286676
3373.2407,0.287229
3374.1726,0.287889
3375.1044,0.285760
3376.0362,0.283901
3376.9681,0.284157
3377.8999,0.283072
3378.8317,0.282684
3379.7636,0.284398
3380.6954,0.285257
3381.6273,0.283746
3382.5591,0.286010
3383.4909,0.287104
3384.4228,0.284725
3385.3546,0.283119
3386.2864,0.284524
3387.2183,0.283300
3388.1501,0.280280
3389.0819,0.280311
3390.0138,0.282190
3390.9456,0.280801
3391.8774,0.279284
3392.8093,0.278964
3393.7411,0.279006
3394.6729,0.278297
3395.6048,0.276791
3396.5366,0.274574
3397.4684,0.275043
3398.4003,0.275156
3399.3321,0.274271
3400.2639,0.271694
3401.1958,0.270262
3402.1276,0.270429
3403.0594,0.270757
3403.9913,0.268365
3404.9231,0.268431
3405.8549,0.267364
3406.7868,0.267492
3407.7186,0.266269
3408.6505,0.264457
3409.5823,0.264587
3410.5141,0.265173
3411.4460,0.263917
3412.3778,0.263831
3413.3096,0.261221
3414.2415,0.260859
3415.1733,0.261699
3416.1051,0.259472
3417.0370,0.254342
3417.9688,0.254459
3418.9006,0.255242
3419.8325,0.254786
3420.7643,0.255859
3421.6961,0.256775
3422.6280,0.256516
3423.5598,0.255450
3424.4916,0.251835
3425.4235,0.252760
3426.3553,0.253948
3427.2871,0.252483
3428.2190,0.252716
3429.1508,0.251883
3430.0826,0.245808
3431.0145,0.245531
3431.9463,0.247412
3432.8781,0.247409
3433.8100,0.245470
3434.7418,0.243100
3435.6737,0.238788
3436.6055,0.236680
3437.5373,0.235151
3438.4692,0.235697
3439.4010,0.235386
3440.3328,0.232729
3441.2647,0.229758
3442.1965,0.231593
3443.1283,0.234723
3444.0602,0.234284
3444.9920,0.231918
3445.9238,0.229485
3446.8557,0.225956
3447.7875,0.225297
3448.7193,0.226742
3449.6512,0.229444
3450.5830,0.225618
3451.5148,0.222001
3452.4467,0.222945
3453.3785,0.222438
3454.3103,0.221224
3455.2422,0.221461
3456.1740,0.220395
3457.1058,0.218108
3458.0377,0.215062
3458.9695,0.215004
3459.9013,0.214758
3460.8332,0.214361
3461.7650,0.214634
3462.6969,0.213130
3463.6287,0.211071
3464.5605,0.212177
3465.4924,0.212892
3466.4242,0.212336
3467.3560,0.208676
3468.2879,0.204724
3469.2197,0.203127
3470.1515,0.203214
3471.0834,0.202979
3472.0152,0.201131
3472.9470,0.197041
3473.8789,0.195086
3474.8107,0.192349
3475.7425,0.193292
3476.6744,0.197170
3477.6062,0.197798
3478.5380,0.190681
3479.4699,0.188781
3480.4017,0.192687
3481.3335,0.190979
3482.2654,0.185608
3483.1972,0.188263
3484.1290,0.191378
3485.0609,0.188260
3485.9927,0.184718
3486.9245,0.185268
3487.8564,0.186986
3488.7882,0.182689
3489.7201,0.181311
3490.6519,0.182511
3491.5837,0.178225
3492.5156,0.176797
3493.4474,0.177514
3494.3792,0.177486
3495.3111,0.176027
3496.2429,0.174239
3497.1747,0.171807
3498.1066,0.170931
3499.0384,0.170533
3499.9702,0.171716
3500.9021,0.171032
3501.8339,0.168566
3502.7657,0.165025
3503.6976,0.165100
3504.6294,0.167981
3505.5612,0.167116
3506.4931,0.164900
3507.4249,0.165094
3508.3567,0.164444
3509.2886,0.161650
3510.2204,0.157486
3511.1522,0.158295
3512.0841,0.157829
3513.0159,0.157552
3513.9477,0.156377
3514.8796,0.155185
3515.8114,0.153779
3516.7432,0.152361
3517.6751,0.154969
3518.6069,0.153571
3519.5388,0.147750
3520.4706,0.146391
3521.4024,0.146123
3522.3343,0.144986
3523.2661,0.145051
3524.1979,0.145924
3525.1298,0.147491
3526.0616,0.146435
3526.9934,0.141981
3527.9253,0.140057
3528.8571,0.140849
3529.7889,0.140422
3530.7208,0.139535
3531.6526,0.137752
3532.5844,0.135449
3533.5163,0.135308
3534.4481,0.136447
3535.3799,0.134866
3536.3118,0.132378
3537.2436,0.132362
3538.1754,0.131314
3539.1073,0.129707
3540.0391,0.129780
3540.9709,0.131284
3541.9028,0.127221
3542.8346,0.125115
3543.7664,0.124685
3544.6983,0.125783
3545.6301,0.125140
3546.5620,0.122477
3547.4938,0.119005
3548.4256,0.119004
3549.3575,0.121079
3550.2893,0.119861
3551.2211,0.118255
3552.1530,0.116027
3553.0848,0.115728
3554.0166,0.115390
3554.9485,0.112674
3555.8803,0.112595
3556.8121,0.113780
3557.7440,0.113673
3558.6758,0.109861
3559.6076,0.109199
3560.5395,0.109071
3561.4713,0.107632
3562.4031,0.105256
3563.3350,0.104118
3564.2668,0.103906
3565.1986,0.102446
3566.1305,0.103299
3567.0623,0.103372
3567.9941,0.104610
3568.9260,0.105644
3569.8578,0.103370
3570.7896,0.100176
3571.7215,0.095748
3572.6533,0.095413
3573.5852,0.096831
3574.5170,0.097032
3575.4488,0.094272
3576.3807,0.093769
3577.3125,0.094421
3578.2443,0.094936
3579.1762,0.093233
3580.1080,0.090674
3581.0398,0.088553
3581.9717,0.086548
3582.9035,0.088248
3583.8353,0.089362
3584.7672,0.086698
3585.6990,0.083925
3586.6308,0.083701
3587.5627,0.084441
3588.4945,0.084198
3589.4263,0.085516
3590.3582,0.087533
3591.2900,0.086056
3592.2218,0.082764
3593.1537,0.080066
3594.0855,0.078445
3595.0173,0.076500
3595.9492,0.075131
3596.8810,0.075575
3597.8128,0.075847
3598.7447,0.074516
3599.6765,0.073803
3600.6084,0.073926
3601.5402,0.073122
3602.4720,0.072992
3603.4039,0.073746
3604.3357,0.072743
3605.2675,0.070323
3606.1994,0.068470
3607.1312,0.068136
3608.0630,0.069197
3608.9949,0.069218
3609.9267,0.068593
3610.8585,0.066388
3611.7904,0.064353
3612.7222,0.062699
3613.6540,0.062130
3614.5859,0.061656
3615.5177,0.062097
3616.4495,0.061520
3617.3814,0.061986
3618.3132,0.060553
3619.2450,0.059370
3620.1769,0.058375
3621.1087,0.058499
3622.0405,0.057924
3622.9724,0.058672
3623.9042,0.059798
3624.8360,0.058367
3625.7679,0.054702
3626.6997,0.053952
3627.6316,0.055956
3628.5634,0.054389
3629.4952,0.052128
3630.4271,0.052043
3631.3589,0.050544
3632.2907,0.049228
3633.2226,0.049526
3634.1544,0.049071
3635.0862,0.049486
3636.0181,0.050016
3636.9499,0.048034
3637.8817,0.046738
3638.8136,0.046333
3639.7454,0.044977
3640.6772,0.044652
3641.6091,0.045214
3642.5409,0.045279
3643.4727,0.045360
3644.4046,0.044235
3645.3364,0.043479
3646.2682,0.042853
3647.2001,0.040561
3648.1319,0.039588
3649.0637,0.040796
3649.9956,0.040944
3650.9274,0.036764
3651.8592,0.034565
3652.7911,0.034847
3653.7229,0.035083
3654.6547,0.034473
3655.5866,0.033071
3656.5184,0.033915
3657.4503,0.034087
3658.3821,0.033379
3659.3139,0.032303
3660.2458,0.031596
3661.1776,0.030819
3662.1094,0.030042
3663.0413,0.029502
3663.9731,0.028585
3664.9049,0.027354
3665.8368,0.027189
3666.7686,0.027963
3667.7004,0.027538
3668.6323,0.026155
3669.5641,0.025281
3670.4959,0.023041
3671.4278,0.021355
3672.3596,0.021196
3673.2914,0.019907
3674.2233,0.019378
3675.1551,0.020641
3676.0869,0.020293
3677.0188,0.018335
3677.9506,0.020220
3678.8824,0.020021
3679.8143,0.016336
3680.7461,0.014742
3681.6779,0.015057
3682.6098,0.016249
3683.5416,0.014806
3684.4735,0.013470
3685.4053,0.014183
3686.3371,0.013487
3687.2690,0.012296
3688.2008,0.013647
3689.1326,0.014120
3690.0645,0.011498
3690.9963,0.009890
3691.9281,0.008491
3692.8600,0.008749
3693.7918,0.010319
3694.7236,0.011330
3695.6555,0.010645
3696.5873,0.008879
3697.5191,0.007689
3698.4510,0.008880
3699.3828,0.009611
3700.3146,0.007573
3701.2465,0.007031
3702.1783,0.006610
3703.1101,0.006086
3704.0420,0.006698
3704.9738,0.006684
3705.9056,0.006648
3706.8375,0.006086
3707.7693,0.005244
3708.7011,0.005712
3709.6330,0.005642
3710.5648,0.004979
3711.4967,0.004805
3712.4285,0.004686
3713.3603,0.004239
3714.2922,0.003725
3715.2240,0.004520
3716.1558,0.006079
3717.0877,0.004392
3718.0195,0.003197
3718.9513,0.003106
3719.8832,0.003780
3720.8150,0.004018
3721.7468,0.003445
3722.6787,0.003407
3723.6105,0.001422
3724.5423,0.001844
3725.4742,0.003668
3726.4060,0.004353
3727.3378,0.004740
3728.2697,0.003588
3729.2015,0.003376
3730.1333,0.002080
3731.0652,0.000331
3731.9970,-0.000236
3732.9288,0.000103
3733.8607,0.002445
3734.7925,0.003801
3735.7243,0.000661
3736.6562,0.000149
3737.5880,0.001543
3738.5199,0.001352
3739.4517,0.001594
3740.3835,0.001099
3741.3154,-0.000046
3742.2472,0.000420
3743.1790,0.001470
3744.1109,0.001998
3745.0427,0.001985
3745.9745,0.001884
3746.9064,0.002359
3747.8382,0.002457
3748.7700,0.000843
3749.7019,-0.000288
3750.6337,-0.000637
3751.5655,-0.001692
3752.4974,-0.001228
3753.4292,0.000259
3754.3610,-0.000439
3755.2929,-0.001172
3756.2247,0.001076
3757.1565,0.002547
3758.0884,0.002002
3759.0202,0.002298
3759.9520,0.001420
3760.8839,0.001077
3761.8157,0.001598
3762.7475,0.001427
3763.6794,0.002331
3764.6112,0.002325
3765.5431,0.001381
3766.4749,0.001550
3767.4067,0.003017
3768.3386,0.003033
3769.2704,0.001949
3770.2022,0.001544
3771.1341,0.001391
3772.0659,0.000725
3772.9977,0.001622
3773.9296,0.003844
3774.8614,0.003291
3775.7932,0.002005
3776.7251,0.000885
3777.6569,0.000693
3778.5887,0.001689
3779.5206,0.001361
3780.4524,0.001377
3781.3842,0.001121
3782.3161,0.000544
3783.2479,0.000655
3784.1797,0.000645
3785.1116,0.000870
3786.0434,0.002058
3786.9752,0.002937
3787.9071,0.002274
3788.8389,0.001699
3789.7707,0.001072
3790.7026,0.000647
3791.6344,0.001199
3792.5662,0.001377
3793.4981,0.001201
3794.4299,0.001503
3795.3618,0.001322
3796.2936,0.001167
3797.2254,0.000546
3798.1573,-0.000202
3799.0891,-0.000251
3800.0209,-0.000200
3800.9528,0.000297
3801.8846,0.000386
3802.8164,-0.000385
3803.7483,-0.001444
3804.6801,-0.001875
3805.6119,-0.001003
3806.5438,0.000047
3807.4756,0.000273
3808.4074,0.000364
3809.3393,0.001330
3810.2711,0.001554
3811.2029,0.002114
3812.1348,0.001879
3813.0666,0.001067
3813.9984,0.001169
3814.9303,0.000956
3815.8621,-0.000312
3816.7939,-0.000822
3817.7258,0.001024
3818.6576,0.001652
3819.5894,0.000232
3820.5213,-0.000390
3821.4531,-0.000567
3822.3850,-0.000832
3823.3168,-0.000436
3824.2486,-0.001775
3825.1805,-0.001732
3826.1123,0.000426
3827.0441,0.001055
3827.9760,0.000787
3828.9078,0.000705
3829.8396,0.000648
3830.7715,0.001008
3831.7033,0.001421
3832.6351,0.001158
3833.5670,-0.000683
3834.4988,-0.000954
3835.4306,0.000262
3836.3625,0.000357
3837.2943,-0.000269
3838.2261,-0.000880
3839.1580,-0.001526
3840.0898,-0.000080
3841.0216,0.001320
3841.9535,-0.000556
3842.8853,-0.000701
3843.8171,0.000235
3844.7490,0.000720
3845.6808,0.000224
3846.6126,0.000336
3847.5445,0.001446
3848.4763,0.001772
3849.4082,0.000541
3850.3400,-0.000027
3851.2718,0.000343
3852.2037,0.000084
3853.1355,0.000331
3854.0673,-0.000754
3854.9992,-0.001971
3855.9310,-0.001568
3856.8628,0.000259
3857.7947,0.000718
3858.7265,-0.000573
3859.6583,0.000012
3860.5902,0.001885
3861.5220,0.001876
3862.4538,0.000499
3863.3857,-0.000223
3864.3175,-0.000330
3865.2493,-0.000414
3866.1812,0.000605
3867.1130,0.001081
3868.0448,0.000942
3868.9767,0.000701
3869.9085,0.000382
3870.8403,0.000566
3871.7722,0.000976
3872.7040,0.001451
3873.6358,0.001420
3874.5677,0.000067
3875.4995,-0.000947
3876.4314,-0.000249
3877.3632,0.001022
3878.2950,0.000903
3879.2269,0.000525
3880.1587,-0.000648
3881.0905,-0.001211
3882.0224,-0.000957
3882.9542,-0.000879
3883.8860,0.000102
3884.8179,0.002005
3885.7497,0.001552
3886.6815,-0.000456
3887.6134,-0.000425
3888.5452,0.000147
3889.4770,-0.000175
3890.4089,0.000275
3891.3407,0.000405
3892.2725,0.000182
3893.2044,-0.000039
3894.1362,0.000689
3895.0680,0.002718
3895.9999,0.002904
3896.9317,0.001291
3897.8635,-0.000090
3898.7954,-0.000641
3899.7272,-0.000471
3900.6590,0.001521
3901.5909,0.001547
3902.5227,-0.000404
3903.4546,0.000279
3904.3864,0.001354
3905.3182,0.000205
3906.2501,-0.000053
3907.1819,0.000892
3908.1137,0.000895
3909.0456,0.000336
3909.9774,0.000370
3910.9092,0.000061
3911.8411,-0.000149
3912.7729,0.000978
3913.7047,0.001873
3914.6366,0.001977
3915.5684,0.001488
3916.5002,0.001593
3917.4321,0.001154
3918.3639,0.000504
3919.2957,0.000332
3920.2276,0.000092
3921.1594,0.000139
3922.0912,0.000276
3923.0231,0.000688
3923.9549,0.000912
3924.8867,0.000682
3925.8186,0.000948
3926.7504,0.001195
3927.6822,0.001482
3928.6141,0.002198
3929.5459,0.001337
3930.4777,0.000192
3931.4096,-0.000449
3932.3414,-0.000088
3933.2733,0.000775
3934.2051,0.000128
3935.1369,-0.000368
3936.0688,0.001630
3937.0006,0.001812
3937.9324,0.001132
3938.8643,0.000916
3939.7961,0.000811
3940.7279,0.001276
3941.6598,0.000650
3942.5916,0.000890
3943.5234,0.002442
3944.4553,0.002111
3945.3871,0.000654
3946.3189,-0.000003
3947.2508,0.000162
3948.1826,0.000729
3949.1144,0.001641
3950.0463,0.001166
3950.9781,-0.000112
3951.9099,0.000101
3952.8418,0.000986
3953.7736,0.001436
3954.7054,0.001574
3955.6373,0.001600
3956.5691,0.001493
3957.5009,0.001365
3958.4328,0.000928
3959.3646,0.000294
3960.2965,0.000662
3961.2283,0.001367
3962.1601,0.001874
3963.0920,0.001846
3964.0238,0.001358
3964.9556,0.000227
3965.8875,0.000384
3966.8193,0.001601
3967.7511,0.001473
3968.6830,0.001443
3969.6148,0.001227
3970.5466,0.001158
3971.4785,0.002131
3972.4103,0.002264
3973.3421,0.000638
3974.2740,-0.000434
3975.2058,-0.000265
3976.1376,0.000182
3977.0695,0.001729
3978.0013,0.001763
3978.9331,0.000795
3979.8650,0.001210
3980.7968,0.000961
3981.7286,0.000789
3982.6605,0.000916
3983.5923,0.000565
3984.5241,0.000072
3985.4560,0.000455
3986.3878,0.001153
3987.3197,0.001181
3988.2515,0.001805
3989.1833,0.002072
3990.1152,0.001605
3991.0470,0.001575
3991.9788,0.001838
3992.9107,0.002065
3993.8425,0.002772
3994.7743,0.002076
3995.7062,0.001534
3996.6380,0.001155
3997.5698,0.000806
3998.5017,0.001543
3999.4335,0.001423
4000.3653,0.000330
