Wavenumber,Intensity
650.4205,0.367248
651.3523,0.372059
652.2841,0.382727
653.2160,0.382783
654.1478,0.384637
655.0796,0.393975
656.0115,0.380540
656.9433,0.368932
657.8751,0.378675
658.8070,0.375703
659.7388,0.366227
660.6706,0.367563
661.6025,0.362687
662.5343,0.355719
663.4661,0.366488
664.3980,0.380274
665.3298,0.367500
666.2616,0.355376
667.1935,0.368193
668.1253,0.397822
669.0571,0.398268
669.9890,0.383182
670.9208,0.371730
671.8526,0.361816
672.7845,0.358162
673.7163,0.355325
674.6481,0.352034
675.5800,0.354405
676.5118,0.357641
677.4437,0.357324
678.3755,0.354271
679.3073,0.352999
680.2392,0.347990
681.1710,0.339861
682.1028,0.336878
683.0347,0.338692
683.9665,0.338512
684.8983,0.340889
685.8302,0.345918
686.7620,0.343313
687.6938,0.335896
688.6257,0.335012
689.5575,0.334997
690.4893,0.329822
691.4212,0.329308
692.3530,0.333594
693.2848,0.331105
694.2167,0.328189
695.1485,0.325445
696.0803,0.325253
697.0122,0.324905
697.9440,0.324914
698.8758,0.323210
699.8077,0.318802
700.7395,0.318055
701.6713,0.316811
702.6032,0.312773
703.5350,0.313772
704.4669,0.314949
705.3987,0.311283
706.3305,0.309451
707.2624,0.310634
708.1942,0.310276
709.1260,0.309969
710.0579,0.308704
710.9897,0.307489
711.9215,0.307830
712.8534,0.307388
713.7852,0.304068
714.7170,0.300245
715.6489,0.295544
716.5807,0.293159
717.5125,0.296441
718.4444,0.297256
719.3762,0.295336
720.3080,0.294797
721.2399,0.292434
722.1717,0.292213
723.1035,0.290171
724.0354,0.284601
724.9672,0.283017
725.8990,0.284503
726.8309,0.284405
727.7627,0.282562
728.6945,0.281389
729.6264,0.279948
730.5582,0.276785
731.4901,0.276401
732.4219,0.276914
733.3537,0.277921
734.2856,0.278521
735.2174,0.274662
736.1492,0.271759
737.0811,0.273081
738.0129,0.271971
738.9447,0.268637
739.8766,0.264967
740.8084,0.261869
741.7402,0.260725
742.6721,0.261577
743.6039,0.260295
744.5357,0.258625
745.4676,0.256567
746.3994,0.255026
747.3312,0.253534
748.2631,0.253397
749.1949,0.254826
750.1267,0.253438
751.0586,0.249711
751.9904,0.249018
752.9222,0.249478
753.8541,0.248104
754.7859,0.245675
755.7177,0.244674
756.6496,0.243258
757.5814,0.241636
758.5132,0.240222
759.4451,0.238606
760.3769,0.236024
761.3088,0.234590
762.2406,0.235039
763.1724,0.235062
764.1043,0.233399
765.0361,0.232807
765.9679,0.231702
766.8998,0.229687
767.8316,0.227668
768.7634,0.227175
769.6953,0.226196
770.6271,0.225331
771.5589,0.225289
772.4908,0.223076
773.4226,0.219543
774.3544,0.218133
775.2863,0.217365
776.2181,0.215039
777.1499,0.212717
778.0818,0.212811
779.0136,0.213889
779.9454,0.213699
780.8773,0.211568
781.8091,0.208351
782.7409,0.206943
783.6728,0.207478
784.6046,0.206919
785.5364,0.203884
786.4683,0.201418
787.4001,0.201414
788.3320,0.200292
789.2638,0.199103
790.1956,0.198666
791.1275,0.198330
792.0593,0.196682
792.9911,0.193483
793.9230,0.191158
794.8548,0.190510
795.7866,0.190804
796.7185,0.190813
797.6503,0.189914
798.5821,0.188807
799.5140,0.187786
800.4458,0.185801
801.3776,0.183911
802.3095,0.183862
803.2413,0.183448
804.1731,0.182960
805.1050,0.180920
806.0368,0.178553
806.9686,0.178377
807.9005,0.178923
808.8323,0.177566
809.7641,0.174664
810.6960,0.172563
811.6278,0.171300
812.5596,0.170553
813.4915,0.169130
814.4233,0.166615
815.3552,0.165465
816.2870,0.165189
817.2188,0.164213
818.1507,0.162147
819.0825,0.160507
820.0143,0.159328
820.9462,0.158447
821.8780,0.157641
822.8098,0.156838
823.7417,0.155784
824.6735,0.154170
825.6053,0.152192
826.5372,0.151325
827.4690,0.150430
828.4008,0.150113
829.3327,0.149943
830.2645,0.148846
831.1963,0.146970
832.1282,0.145763
833.0600,0.145283
833.9918,0.144631
834.9237,0.142988
835.8555,0.142106
836.7873,0.141615
837.7192,0.140518
838.6510,0.138844
839.5828,0.137571
840.5147,0.136316
841.4465,0.134903
842.3784,0.135014
843.3102,0.135465
844.2420,0.134500
845.1739,0.133496
846.1057,0.131771
847.0375,0.130182
847.9694,0.129702
848.9012,0.129446
849.8330,0.128748
850.7649,0.128050
851.6967,0.127056
852.6285,0.126594
853.5604,0.126147
854.4922,0.124752
855.4240,0.123885
856.3559,0.123833
857.2877,0.123119
858.2195,0.122237
859.1514,0.121593
860.0832,0.121104
861.0150,0.121040
861.9469,0.121697
862.8787,0.121683
863.8105,0.121285
864.7424,0.120931
865.6742,0.121170
866.6060,0.121587
867.5379,0.122446
868.4697,0.124244
869.4016,0.126837
870.3334,0.129405
871.2652,0.131816
872.1971,0.134549
873.1289,0.138470
874.0607,0.142787
874.9926,0.147091
875.9244,0.150599
876.8562,0.153478
877.7881,0.154767
878.7199,0.153997
879.6517,0.150932
880.5836,0.146199
881.5154,0.140483
882.4472,0.134225
883.3791,0.127693
884.3109,0.121799
885.2427,0.116567
886.1746,0.112018
887.1064,0.107868
888.0382,0.103793
888.9701,0.100403
889.9019,0.097191
890.8337,0.095040
891.7656,0.093592
892.6974,0.091723
893.6292,0.089900
894.5611,0.088925
895.4929,0.087680
896.4247,0.086339
897.3566,0.085055
898.2884,0.084318
899.2203,0.084321
900.1521,0.083851
901.0839,0.082849
902.0158,0.081927
902.9476,0.081075
903.8794,0.080039
904.8113,0.079138
905.7431,0.078546
906.6749,0.078087
907.6068,0.077608
908.5386,0.077074
909.4704,0.076332
910.4023,0.075621
911.3341,0.075478
912.2659,0.074881
913.1978,0.073832
914.1296,0.073323
915.0614,0.073196
915.9933,0.072751
916.9251,0.072455
917.8569,0.072139
918.7888,0.071281
919.7206,0.070496
920.6524,0.070118
921.5843,0.069801
922.5161,0.069290
923.4479,0.068936
924.3798,0.068560
925.3116,0.068040
926.2435,0.067675
927.1753,0.067303
928.1071,0.066601
929.0390,0.066157
929.9708,0.065970
930.9026,0.065918
931.8345,0.065764
932.7663,0.065337
933.6981,0.065056
934.6300,0.064641
935.5618,0.064335
936.4936,0.063769
937.4255,0.063020
938.3573,0.062881
939.2891,0.062949
940.2210,0.062756
941.1528,0.062142
942.0846,0.061731
943.0165,0.061601
943.9483,0.061661
944.8801,0.061268
945.8120,0.060928
946.7438,0.060659
947.6756,0.060473
948.6075,0.059801
949.5393,0.059229
950.4711,0.059259
951.4030,0.059009
952.3348,0.058748
953.2667,0.058720
954.1985,0.058230
955.1303,0.057917
956.0622,0.057891
956.9940,0.057754
957.9258,0.057481
958.8577,0.057276
959.7895,0.057220
960.7213,0.056953
961.6532,0.057020
962.5850,0.057104
963.5168,0.056898
964.4487,0.056756
965.3805,0.056368
966.3123,0.056200
967.2442,0.056205
968.1760,0.055880
969.1078,0.055620
970.0397,0.055420
970.9715,0.055303
971.9033,0.055190
972.8352,0.055156
973.7670,0.054897
974.6988,0.054960
975.6307,0.054940
976.5625,0.054533
977.4943,0.054676
978.4262,0.054826
979.3580,0.054680
980.2899,0.054402
981.2217,0.054191
982.1535,0.054272
983.0854,0.054392
984.0172,0.054498
984.9490,0.054559
985.8809,0.054392
986.8127,0.054070
987.7445,0.053829
988.6764,0.054243
989.6082,0.054610
990.5400,0.054315
991.4719,0.054016
992.4037,0.054132
993.3355,0.054332
994.2674,0.054471
995.1992,0.054487
996.1310,0.054520
997.0629,0.054582
997.9947,0.054768
998.9265,0.054958
999.8584,0.055090
1000.7902,0.055037
1001.7220,0.055117
1002.6539,0.055569
1003.5857,0.055926
1004.5175,0.056035
1005.4494,0.056104
1006.3812,0.056228
1007.3131,0.056577
1008.2449,0.057051
1009.1767,0.057478
1010.1086,0.058012
1011.0404,0.058618
1011.9722,0.059076
1012.9041,0.059519
1013.8359,0.059898
1014.7677,0.060459
1015.6996,0.061481
1016.6314,0.062401
1017.5632,0.063095
1018.4951,0.064282
1019.4269,0.065456
1020.3587,0.066468
1021.2906,0.067903
1022.2224,0.069554
1023.1542,0.071296
1024.0861,0.072904
1025.0179,0.074760
1025.9497,0.077331
1026.8816,0.080242
1027.8134,0.083023
1028.7452,0.086134
1029.6771,0.089945
1030.6089,0.094315
1031.5407,0.099112
1032.4726,0.104723
1033.4044,0.111464
1034.3362,0.119102
1035.2681,0.127871
1036.1999,0.137949
1037.1318,0.149278
1038.0636,0.161339
1038.9954,0.173747
1039.9273,0.186818
1040.8591,0.199718
1041.7909,0.210839
1042.7228,0.219496
1043.6546,0.224948
1044.5864,0.226389
1045.5183,0.223165
1046.4501,0.215823
1047.3819,0.205828
1048.3138,0.193710
1049.2456,0.179848
1050.1774,0.165467
1051.1093,0.151258
1052.0411,0.137809
1052.9729,0.125685
1053.9048,0.114742
1054.8366,0.105070
1055.7684,0.096911
1056.7003,0.090006
1057.6321,0.084133
1058.5639,0.079270
1059.4958,0.075537
1060.4276,0.072840
1061.3594,0.070618
1062.2913,0.068883
1063.2231,0.067618
1064.1550,0.066805
1065.0868,0.066322
1066.0186,0.066197
1066.9505,0.066569
1067.8823,0.067090
1068.8141,0.067660
1069.7460,0.068519
1070.6778,0.069609
1071.6096,0.070813
1072.5415,0.072103
1073.4733,0.073924
1074.4051,0.076198
1075.3370,0.078472
1076.2688,0.080547
1077.2006,0.082565
1078.1325,0.085141
1079.0643,0.087962
1079.9961,0.090451
1080.9280,0.092971
1081.8598,0.095288
1082.7916,0.097097
1083.7235,0.098307
1084.6553,0.099099
1085.5871,0.099410
1086.5190,0.098761
1087.4508,0.097502
1088.3826,0.095670
1089.3145,0.093001
1090.2463,0.089885
1091.1782,0.086631
1092.1100,0.083134
1093.0418,0.079136
1093.9737,0.075238
1094.9055,0.071887
1095.8373,0.068729
1096.7692,0.065687
1097.7010,0.062757
1098.6328,0.060104
1099.5647,0.057922
1100.4965,0.056234
1101.4283,0.054691
1102.3602,0.053492
1103.2920,0.052255
1104.2238,0.050928
1105.1557,0.050073
1106.0875,0.049258
1107.0193,0.048494
1107.9512,0.048078
1108.8830,0.047663
1109.8148,0.047078
1110.7467,0.046643
1111.6785,0.046092
1112.6103,0.045800
1113.5422,0.045683
1114.4740,0.045504
1115.4058,0.045475
1116.3377,0.045408
1117.2695,0.045301
1118.2014,0.045179
1119.1332,0.045119
1120.0650,0.045008
1120.9969,0.044754
1121.9287,0.044857
1122.8605,0.045098
1123.7924,0.045038
1124.7242,0.044923
1125.6560,0.044794
1126.5879,0.044837
1127.5197,0.044778
1128.4515,0.044518
1129.3834,0.044408
1130.3152,0.044409
1131.2470,0.044123
1132.1789,0.044019
1133.1107,0.044113
1134.0425,0.044128
1134.9744,0.043982
1135.9062,0.043740
1136.8380,0.043545
1137.7699,0.043543
1138.7017,0.043502
1139.6335,0.043351
1140.5654,0.043331
1141.4972,0.043332
1142.4290,0.043201
1143.3609,0.042984
1144.2927,0.042730
1145.2246,0.042586
1146.1564,0.042627
1147.0882,0.042839
1148.0201,0.042901
1148.9519,0.042870
1149.8837,0.042991
1150.8156,0.043104
1151.7474,0.042945
1152.6792,0.042696
1153.6111,0.042471
1154.5429,0.042523
1155.4747,0.042687
1156.4066,0.042586
1157.3384,0.042683
1158.2702,0.042885
1159.2021,0.042506
1160.1339,0.042103
1161.0657,0.041886
1161.9976,0.041765
1162.9294,0.041645
1163.8612,0.041395
1164.7931,0.041201
1165.7249,0.041068
1166.6567,0.041034
1167.5886,0.040841
1168.5204,0.040688
1169.4522,0.040850
1170.3841,0.041090
1171.3159,0.040847
1172.2477,0.040617
1173.1796,0.040484
1174.1114,0.040266
1175.0433,0.040285
1175.9751,0.040515
1176.9069,0.040534
1177.8388,0.040629
1178.7706,0.040478
1179.7024,0.040308
1180.6343,0.040439
1181.5661,0.040630
1182.4979,0.040622
1183.4298,0.040395
1184.3616,0.040255
1185.2934,0.040124
1186.2253,0.039873
1187.1571,0.040057
1188.0889,0.040483
1189.0208,0.040506
1189.9526,0.040330
1190.8844,0.040333
1191.8163,0.040632
1192.7481,0.040715
1193.6799,0.040676
1194.6118,0.040595
1195.5436,0.040524
1196.4754,0.040531
1197.4073,0.040529
1198.3391,0.040490
1199.2709,0.040676
1200.2028,0.040706
1201.1346,0.040573
1202.0665,0.040520
1202.9983,0.040718
1203.9301,0.040766
1204.8620,0.040650
1205.7938,0.040655
1206.7256,0.040761
1207.6575,0.040629
1208.5893,0.040761
1209.5211,0.040916
1210.4530,0.040695
1211.3848,0.040790
1212.3166,0.041069
1213.2485,0.041087
1214.1803,0.041166
1215.1121,0.040885
1216.0440,0.040755
1216.9758,0.040857
1217.9076,0.041045
1218.8395,0.041128
1219.7713,0.041225
1220.7031,0.041326
1221.6350,0.041432
1222.5668,0.041293
1223.4986,0.041352
1224.4305,0.041344
1225.3623,0.041356
1226.2941,0.041492
1227.2260,0.041657
1228.1578,0.041585
1229.0897,0.041513
1230.0215,0.041717
1230.9533,0.041800
1231.8852,0.041803
1232.8170,0.041830
1233.7488,0.041877
1234.6807,0.041949
1235.6125,0.041965
1236.5443,0.042120
1237.4762,0.042347
1238.4080,0.042414
1239.3398,0.042227
1240.2717,0.042384
1241.2035,0.042745
1242.1353,0.042973
1243.0672,0.042993
1243.9990,0.042939
1244.9308,0.042918
1245.8627,0.042997
1246.7945,0.043230
1247.7263,0.043484
1248.6582,0.043690
1249.5900,0.043708
1250.5218,0.043821
1251.4537,0.044176
1252.3855,0.044355
1253.3173,0.044589
1254.2492,0.044808
1255.1810,0.044901
1256.1129,0.045178
1257.0447,0.045674
1257.9765,0.045719
1258.9084,0.045833
1259.8402,0.046218
1260.7720,0.046890
1261.7039,0.047465
1262.6357,0.047629
1263.5675,0.048239
1264.4994,0.048851
1265.4312,0.049164
1266.3630,0.049378
1267.2949,0.049831
1268.2267,0.050460
1269.1585,0.050883
1270.0904,0.051066
1271.0222,0.051386
1271.9540,0.052277
1272.8859,0.052742
1273.8177,0.052553
1274.7495,0.052217
1275.6814,0.052220
1276.6132,0.052289
1277.5450,0.052202
1278.4769,0.051827
1279.4087,0.051208
1280.3405,0.050689
1281.2724,0.050594
1282.2042,0.050417
1283.1361,0.049867
1284.0679,0.049553
1284.9997,0.049321
1285.9316,0.049240
1286.8634,0.048935
1287.7952,0.048632
1288.7271,0.048911
1289.6589,0.049097
1290.5907,0.049128
1291.5226,0.049082
1292.4544,0.049131
1293.3862,0.049142
1294.3181,0.049208
1295.2499,0.049439
1296.1817,0.049490
1297.1136,0.049627
1298.0454,0.049955
1298.9772,0.050267
1299.9091,0.050618
1300.8409,0.050777
1301.7727,0.050894
1302.7046,0.051138
1303.6364,0.051174
1304.5682,0.051065
1305.5001,0.051285
1306.4319,0.051622
1307.3637,0.051980
1308.2956,0.052120
1309.2274,0.052313
1310.1592,0.052588
1311.0911,0.052477
1312.0229,0.052661
1312.9548,0.053302
1313.8866,0.053818
1314.8184,0.053666
1315.7503,0.053483
1316.6821,0.053677
1317.6139,0.054061
1318.5458,0.054270
1319.4776,0.054508
1320.4094,0.055030
1321.3413,0.055034
1322.2731,0.054765
1323.2049,0.054479
1324.1368,0.054471
1325.0686,0.054493
1326.0004,0.054385
1326.9323,0.054420
1327.8641,0.054511
1328.7959,0.054302
1329.7278,0.054482
1330.6596,0.054640
1331.5914,0.054246
1332.5233,0.053999
1333.4551,0.053688
1334.3869,0.053248
1335.3188,0.052768
1336.2506,0.052364
1337.1824,0.052150
1338.1143,0.052155
1339.0461,0.051919
1339.9780,0.052429
1340.9098,0.053167
1341.8416,0.052782
1342.7735,0.051646
1343.7053,0.050942
1344.6371,0.050548
1345.5690,0.050057
1346.5008,0.049828
1347.4326,0.049783
1348.3645,0.049664
1349.2963,0.049563
1350.2281,0.049400
1351.1600,0.049206
1352.0918,0.048985
1353.0236,0.048634
1353.9555,0.048608
1354.8873,0.048709
1355.8191,0.048827
1356.7510,0.048863
1357.6828,0.048713
1358.6146,0.048580
1359.5465,0.048407
1360.4783,0.048136
1361.4101,0.048260
1362.3420,0.048737
1363.2738,0.049335
1364.2056,0.050087
1365.1375,0.049977
1366.0693,0.049586
1367.0012,0.049914
1367.9330,0.050318
1368.8648,0.050681
1369.7967,0.051463
1370.7285,0.052084
1371.6603,0.052567
1372.5922,0.053427
1373.5240,0.054618
1374.4558,0.056565
1375.3877,0.058724
1376.3195,0.059477
1377.2513,0.059613
1378.1832,0.060086
1379.1150,0.060643
1380.0468,0.061106
1380.9787,0.061514
1381.9105,0.061944
1382.8423,0.062661
1383.7742,0.063185
1384.7060,0.062907
1385.6378,0.062441
1386.5697,0.062272
1387.5015,0.062678
1388.4333,0.063612
1389.3652,0.063271
1390.2970,0.062088
1391.2288,0.060987
1392.1607,0.060159
1393.0925,0.059605
1394.0244,0.059139
1394.9562,0.059478
1395.8880,0.060821
1396.8199,0.060960
1397.7517,0.060076
1398.6835,0.059855
1399.6154,0.060929
1400.5472,0.061897
1401.4790,0.061052
1402.4109,0.060194
1403.3427,0.060083
1404.2745,0.060352
1405.2064,0.060744
1406.1382,0.061520
1407.0700,0.061994
1408.0019,0.061896
1408.9337,0.061902
1409.8655,0.061768
1410.7974,0.061679
1411.7292,0.061672
1412.6610,0.061870
1413.5929,0.062316
1414.5247,0.062189
1415.4565,0.061356
1416.3884,0.060854
1417.3202,0.060925
1418.2520,0.061403
1419.1839,0.062302
1420.1157,0.063658
1421.0476,0.063824
1421.9794,0.062152
1422.9112,0.060772
1423.8431,0.060251
1424.7749,0.060996
1425.7067,0.060949
1426.6386,0.059668
1427.5704,0.058818
1428.5022,0.058507
1429.4341,0.058134
1430.3659,0.057926
1431.2977,0.058173
1432.2296,0.057134
1433.1614,0.055582
1434.0932,0.054819
1435.0251,0.054281
1435.9569,0.053860
1436.8887,0.054548
1437.8206,0.057225
1438.7524,0.057340
1439.6842,0.055540
1440.6161,0.054631
1441.5479,0.054433
1442.4797,0.054437
1443.4116,0.054147
1444.3434,0.054019
1445.2752,0.054620
1446.2071,0.055515
1447.1389,0.056349
1448.0707,0.057394
1449.0026,0.059043
1449.9344,0.059683
1450.8663,0.059513
1451.7981,0.059444
1452.7299,0.059124
1453.6618,0.058676
1454.5936,0.057801
1455.5254,0.057512
1456.4573,0.058180
1457.3891,0.059231
1458.3209,0.059922
1459.2528,0.058507
1460.1846,0.055832
1461.1164,0.053154
1462.0483,0.051404
1462.9801,0.050213
1463.9119,0.049218
1464.8438,0.048649
1465.7756,0.048944
1466.7074,0.048729
1467.6393,0.047298
1468.5711,0.045852
1469.5029,0.045113
1470.4348,0.044657
1471.3666,0.044176
1472.2984,0.044688
1473.2303,0.046325
1474.1621,0.046764
1475.0939,0.046172
1476.0258,0.045153
1476.9576,0.045422
1477.8895,0.046637
1478.8213,0.046294
1479.7531,0.045744
1480.6850,0.045772
1481.6168,0.046130
1482.5486,0.046524
1483.4805,0.046251
1484.4123,0.045656
1485.3441,0.045185
1486.2760,0.044742
1487.2078,0.044495
1488.1396,0.044919
1489.0715,0.044751
1490.0033,0.044094
1490.9351,0.044859
1491.8670,0.045598
1492.7988,0.044444
1493.7306,0.043030
1494.6625,0.042009
1495.5943,0.041071
1496.5261,0.041230
1497.4580,0.042573
1498.3898,0.042580
1499.3216,0.042157
1500.2535,0.042282
1501.1853,0.041404
1502.1171,0.040976
1503.0490,0.041100
1503.9808,0.040347
1504.9127,0.039129
1505.8445,0.038769
1506.7763,0.041011
1507.7082,0.045342
1508.6400,0.045524
1509.5718,0.043691
1510.5037,0.042684
1511.4355,0.042390
1512.3673,0.041766
1513.2992,0.041578
1514.2310,0.041342
1515.1628,0.040730
1516.0947,0.040893
1517.0265,0.041151
1517.9583,0.041013
1518.8902,0.040727
1519.8220,0.040312
1520.7538,0.040545
1521.6857,0.041849
1522.6175,0.043614
1523.5493,0.043214
1524.4812,0.041959
1525.4130,0.041100
1526.3448,0.042197
1527.2767,0.042876
1528.2085,0.042477
1529.1403,0.042814
1530.0722,0.042841
1531.0040,0.042084
1531.9359,0.041489
1532.8677,0.041629
1533.7995,0.042223
1534.7314,0.043151
1535.6632,0.043541
1536.5950,0.042879
1537.5269,0.042070
1538.4587,0.041019
1539.3905,0.040963
1540.3224,0.044079
1541.2542,0.046979
1542.1860,0.045754
1543.1179,0.046046
1544.0497,0.046547
1544.9815,0.045710
1545.9134,0.045703
1546.8452,0.045707
1547.7770,0.045288
1548.7089,0.044807
1549.6407,0.044653
1550.5725,0.045278
1551.5044,0.045698
1552.4362,0.045364
1553.3680,0.044891
1554.2999,0.044218
1555.2317,0.044805
1556.1635,0.045436
1557.0954,0.044469
1558.0272,0.044542
1558.9591,0.048536
1559.8909,0.055197
1560.8227,0.054312
1561.7546,0.052267
1562.6864,0.050609
1563.6182,0.049365
1564.5501,0.048754
1565.4819,0.049090
1566.4137,0.050060
1567.3456,0.050434
1568.2774,0.050420
1569.2092,0.050628
1570.1411,0.052203
1571.0729,0.054673
1572.0047,0.054291
1572.9366,0.052847
1573.8684,0.052368
1574.8002,0.052841
1575.7321,0.053552
1576.6639,0.055877
1577.5957,0.059459
1578.5276,0.059368
1579.4594,0.058112
1580.3912,0.057909
1581.3231,0.058131
1582.2549,0.058908
1583.1867,0.059606
1584.1186,0.060214
1585.0504,0.061196
1585.9822,0.062259
1586.9141,0.062822
1587.8459,0.063050
1588.7778,0.063850
1589.7096,0.065071
1590.6414,0.066203
1591.5733,0.067327
1592.5051,0.068351
1593.4369,0.069243
1594.3688,0.070231
1595.3006,0.071641
1596.2324,0.073008
1597.1643,0.074151
1598.0961,0.075493
1599.0279,0.076739
1599.9598,0.077756
1600.8916,0.079125
1601.8234,0.080832
1602.7553,0.082241
1603.6871,0.083383
1604.6189,0.085189
1605.5508,0.087022
1606.4826,0.088195
1607.4144,0.089527
1608.3463,0.092240
1609.2781,0.094606
1610.2099,0.096541
1611.1418,0.098722
1612.0736,0.099950
1613.0054,0.100969
1613.9373,0.102475
1614.8691,0.104007
1615.8010,0.105841
1616.7328,0.109189
1617.6646,0.115853
1618.5965,0.120137
1619.5283,0.119037
1620.4601,0.118404
1621.3920,0.119340
1622.3238,0.121820
1623.2556,0.124627
1624.1875,0.128563
1625.1193,0.132857
1626.0511,0.133456
1626.9830,0.133758
1627.9148,0.135660
1628.8466,0.138984
1629.7785,0.140938
1630.7103,0.140345
1631.6421,0.139238
1632.5740,0.138832
1633.5058,0.139133
1634.4376,0.139956
1635.3695,0.141869
1636.3013,0.149852
1637.2331,0.157104
1638.1650,0.154641
1639.0968,0.151537
1640.0286,0.149174
1640.9605,0.147599
1641.8923,0.146155
1642.8242,0.144646
1643.7560,0.144034
1644.6878,0.143150
1645.6197,0.141930
1646.5515,0.142936
1647.4833,0.146636
1648.4152,0.147007
1649.3470,0.142871
1650.2788,0.138331
1651.2107,0.135317
1652.1425,0.133884
1653.0743,0.135980
1654.0062,0.143003
1654.9380,0.144508
1655.8698,0.138924
1656.8017,0.133619
1657.7335,0.129877
1658.6653,0.127752
1659.5972,0.125994
1660.5290,0.124253
1661.4608,0.122641
1662.3927,0.121203
1663.3245,0.120638
1664.2563,0.120495
1665.1882,0.117717
1666.1200,0.114551
1667.0518,0.112233
1667.9837,0.109917
1668.9155,0.108605
1669.8474,0.108698
1670.7792,0.107117
1671.7110,0.104304
1672.6429,0.102703
1673.5747,0.101008
1674.5065,0.098395
1675.4384,0.096336
1676.3702,0.095856
1677.3020,0.094873
1678.2339,0.092226
1679.1657,0.089566
1680.0975,0.086926
1681.0294,0.084822
1681.9612,0.083171
1682.8930,0.081312
1683.8249,0.080075
1684.7567,0.080920
1685.6885,0.081010
1686.6204,0.077763
1687.5522,0.074900
1688.4840,0.073038
1689.4159,0.071539
1690.3477,0.069880
1691.2795,0.068313
1692.2114,0.066611
1693.1432,0.064958
1694.0750,0.063342
1695.0069,0.061142
1695.9387,0.058926
1696.8706,0.058161
1697.8024,0.058442
1698.7342,0.057063
1699.6661,0.055313
1700.5979,0.054109
1701.5297,0.053942
1702.4616,0.052983
1703.3934,0.051257
1704.3252,0.049651
1705.2571,0.048065
1706.1889,0.047161
1707.1207,0.046829
1708.0526,0.046044
1708.9844,0.044802
1709.9162,0.043476
1710.8481,0.042323
1711.7799,0.041321
1712.7117,0.040574
1713.6436,0.039636
1714.5754,0.038477
1715.5072,0.037880
1716.4391,0.037292
1717.3709,0.035783
1718.3027,0.035334
1719.2346,0.035742
1720.1664,0.035029
1721.0982,0.033949
1722.0301,0.033097
1722.9619,0.032368
1723.8937,0.031888
1724.8256,0.031558
1725.7574,0.031031
1726.6893,0.030524
1727.6211,0.030144
1728.5529,0.029432
1729.4848,0.028395
1730.4166,0.027596
1731.3484,0.027501
1732.2803,0.027350
1733.2121,0.026507
1734.1439,0.025757
1735.0758,0.025945
1736.0076,0.026433
1736.9394,0.025738
1737.8713,0.025042
1738.8031,0.024661
1739.7349,0.023784
1740.6668,0.023320
1741.5986,0.023329
1742.5304,0.022505
1743.4623,0.022159
1744.3941,0.022558
1745.3259,0.022321
1746.2578,0.021430
1747.1896,0.020928
1748.1214,0.021049
1749.0533,0.021461
1749.9851,0.021108
1750.9169,0.020380
1751.8488,0.020280
1752.7806,0.020092
1753.7125,0.019772
1754.6443,0.019582
1755.5761,0.019425
1756.5080,0.019076
1757.4398,0.018812
1758.3716,0.018649
1759.3035,0.018335
1760.2353,0.018204
1761.1671,0.017961
1762.0990,0.017737
1763.0308,0.018124
1763.9626,0.018050
1764.8945,0.017541
1765.8263,0.017112
1766.7581,0.016597
1767.6900,0.016467
1768.6218,0.016657
1769.5536,0.016777
1770.4855,0.016371
1771.4173,0.015307
1772.3491,0.014627
1773.2810,0.015251
1774.2128,0.015930
1775.1446,0.015758
1776.0765,0.015311
1777.0083,0.014979
1777.9401,0.015027
1778.8720,0.015216
1779.8038,0.015279
1780.7357,0.014955
1781.6675,0.014230
1782.5993,0.013972
1783.5312,0.013931
1784.4630,0.013884
1785.3948,0.014376
1786.3267,0.015026
1787.2585,0.014736
1788.1903,0.013873
1789.1222,0.013868
1790.0540,0.014291
1790.9858,0.014000
1791.9177,0.013241
1792.8495,0.013000
1793.7813,0.013447
1794.7132,0.013443
1795.6450,0.013063
1796.5768,0.012668
1797.5087,0.012508
1798.4405,0.012397
1799.3723,0.012145
1800.3042,0.011947
1801.2360,0.012426
1802.1678,0.013014
1803.0997,0.012659
1804.0315,0.012026
1804.9633,0.012095
1805.8952,0.012683
1806.8270,0.012631
1807.7589,0.012136
1808.6907,0.011922
1809.6225,0.011641
1810.5544,0.011488
1811.4862,0.011886
1812.4180,0.011598
1813.3499,0.011108
1814.2817,0.011144
1815.2135,0.011229
1816.1454,0.011364
1817.0772,0.011527
1818.0090,0.011729
1818.9409,0.011292
1819.8727,0.010697
1820.8045,0.010709
1821.7364,0.010887
1822.6682,0.011216
1823.6000,0.011642
1824.5319,0.011341
1825.4637,0.010206
1826.3955,0.009817
1827.3274,0.010363
1828.2592,0.010394
1829.1910,0.010070
1830.1229,0.010390
1831.0547,0.010895
1831.9865,0.010664
1832.9184,0.010983
1833.8502,0.011251
1834.7821,0.010717
1835.7139,0.010518
1836.6457,0.010713
1837.5776,0.010085
1838.5094,0.009731
1839.4412,0.010140
1840.3731,0.010074
1841.3049,0.010006
1842.2367,0.010241
1843.1686,0.010209
1844.1004,0.010252
1845.0322,0.010632
1845.9641,0.010242
1846.8959,0.009228
1847.8277,0.009407
1848.7596,0.009581
1849.6914,0.009101
1850.6232,0.009115
1851.5551,0.009682
1852.4869,0.010238
1853.4187,0.010402
1854.3506,0.010133
1855.2824,0.009519
1856.2142,0.009342
1857.1461,0.009251
1858.0779,0.009298
1859.0097,0.009964
1859.9416,0.009754
1860.8734,0.009035
1861.8052,0.009045
1862.7371,0.009447
1863.6689,0.009611
1864.6008,0.009335
1865.5326,0.009424
1866.4644,0.010381
1867.3963,0.010714
1868.3281,0.009723
1869.2599,0.008489
1870.1918,0.008721
1871.1236,0.009003
1872.0554,0.008375
1872.9873,0.008267
1873.9191,0.008399
1874.8509,0.008652
1875.7828,0.008469
1876.7146,0.008529
1877.6464,0.009216
1878.5783,0.009643
1879.5101,0.009862
1880.4419,0.009389
1881.3738,0.008166
1882.3056,0.008002
1883.2374,0.009198
1884.1693,0.009489
1885.1011,0.009243
1886.0329,0.009247
1886.9648,0.008356
1887.8966,0.007856
1888.8284,0.009067
1889.7603,0.010162
1890.6921,0.010064
1891.6240,0.009649
1892.5558,0.008655
1893.4876,0.007975
1894.4195,0.008253
1895.3513,0.009161
1896.2831,0.009918
1897.2150,0.010490
1898.1468,0.009606
1899.0786,0.008037
1900.0105,0.008156
1900.9423,0.008860
1901.8741,0.008435
1902.8060,0.008407
1903.7378,0.009445
1904.6696,0.010393
1905.6015,0.011186
1906.5333,0.010481
1907.4651,0.009271
1908.3970,0.008729
1909.3288,0.008555
1910.2606,0.008445
1911.1925,0.009425
1912.1243,0.010047
1913.0561,0.008915
1913.9880,0.008705
1914.9198,0.008756
1915.8516,0.008697
1916.7835,0.009758
1917.7153,0.010561
1918.6472,0.010280
1919.5790,0.009145
1920.5108,0.008412
1921.4427,0.008489
1922.3745,0.008717
1923.3063,0.010047
1924.2382,0.011252
1925.1700,0.009862
1926.1018,0.008542
1927.0337,0.009153
1927.9655,0.010338
1928.8973,0.010628
1929.8292,0.009621
1930.7610,0.008462
1931.6928,0.006994
1932.6247,0.007327
1933.5565,0.008588
1934.4883,0.007439
1935.4202,0.006764
1936.3520,0.007633
1937.2838,0.008093
1938.2157,0.008786
1939.1475,0.008857
1940.0793,0.009092
1941.0112,0.008441
1941.9430,0.007385
1942.8748,0.007883
1943.8067,0.007261
1944.7385,0.007722
1945.6704,0.008322
1946.6022,0.006148
1947.5340,0.005489
1948.4659,0.007477
1949.3977,0.005781
1950.3295,0.004926
1951.2614,0.007589
1952.1932,0.009222
1953.1250,0.009179
1954.0569,0.006329
1954.9887,0.004377
1955.9205,0.006604
1956.8524,0.007477
1957.7842,0.006044
1958.7160,0.004812
1959.6479,0.006294
1960.5797,0.008141
1961.5115,0.006835
1962.4434,0.006000
1963.3752,0.005245
1964.3070,0.005215
1965.2389,0.007060
1966.1707,0.006868
1967.1025,0.006051
1968.0344,0.007172
1968.9662,0.006880
1969.8980,0.005666
1970.8299,0.003815
1971.7617,0.003011
1972.6936,0.004035
1973.6254,0.006140
1974.5572,0.007481
1975.4891,0.006872
1976.4209,0.003147
1977.3527,0.000129
1978.2846,0.001066
1979.2164,0.000153
1980.1482,-0.001378
1981.0801,0.000632
1982.0119,0.003897
1982.9437,0.005012
1983.8756,0.004785
1984.8074,0.004893
1985.7392,0.004466
1986.6711,0.005313
1987.6029,0.005695
1988.5347,0.006506
1989.4666,0.008332
1990.3984,0.006680
1991.3302,0.005030
1992.2621,0.006489
1993.1939,0.008036
1994.1257,0.008051
1995.0576,0.008505
1995.9894,0.007836
1996.9212,0.006808
1997.8531,0.007118
1998.7849,0.007296
1999.7167,0.006227
2000.6486,0.006581
2001.5804,0.007432
2002.5123,0.006738
2003.4441,0.007108
2004.3759,0.007194
2005.3078,0.004331
2006.2396,0.004476
2007.1714,0.002752
2008.1033,0.000969
2009.0351,0.004172
2009.9669,0.006669
2010.8988,0.006188
2011.8306,0.005276
2012.7624,0.005810
2013.6943,0.005327
2014.6261,0.006915
2015.5579,0.007239
2016.4898,0.007367
2017.4216,0.007499
2018.3534,0.005567
2019.2853,0.003575
2020.2171,0.004808
2021.1489,0.007175
2022.0808,0.005896
2023.0126,0.005820
2023.9444,0.005622
2024.8763,0.006409
2025.8081,0.008904
2026.7399,0.007282
2027.6718,0.003263
2028.6036,0.000182
2029.5355,0.001340
2030.4673,0.006679
2031.3991,0.007501
2032.3310,0.004856
2033.2628,0.004810
2034.1946,0.005098
2035.1265,0.005001
2036.0583,0.006845
2036.9901,0.007492
2037.9220,0.005662
2038.8538,0.004214
2039.7856,0.006205
2040.7175,0.010633
2041.6493,0.010411
2042.5811,0.009075
2043.5130,0.007820
2044.4448,0.005308
2045.3766,0.005922
2046.3085,0.009254
2047.2403,0.009291
2048.1721,0.006490
2049.1040,0.007654
2050.0358,0.008712
2050.9676,0.008553
2051.8995,0.008964
2052.8313,0.008983
2053.7631,0.008732
2054.6950,0.010557
2055.6268,0.012634
2056.5587,0.014343
2057.4905,0.013172
2058.4223,0.010625
2059.3542,0.010357
2060.2860,0.011500
2061.2178,0.012419
2062.1497,0.009758
2063.0815,0.008053
2064.0133,0.010687
2064.9452,0.013234
2065.8770,0.011674
2066.8088,0.009296
2067.7407,0.010625
2068.6725,0.011723
2069.6043,0.010843
2070.5362,0.011384
2071.4680,0.011169
2072.3998,0.010149
2073.3317,0.011589
2074.2635,0.013376
2075.1953,0.013293
2076.1272,0.013874
2077.0590,0.013626
2077.9908,0.013102
2078.9227,0.012999
2079.8545,0.013872
2080.7863,0.015363
2081.7182,0.015761
2082.6500,0.014834
2083.5819,0.013383
2084.5137,0.013595
2085.4455,0.014769
2086.3774,0.014486
2087.3092,0.012874
2088.2410,0.012794
2089.1729,0.013520
2090.1047,0.013001
2091.0365,0.013535
2091.9684,0.015410
2092.9002,0.015308
2093.8320,0.013170
2094.7639,0.012273
2095.6957,0.012402
2096.6275,0.012535
2097.5594,0.014067
2098.4912,0.014754
2099.4230,0.012852
2100.3549,0.011249
2101.2867,0.011612
2102.2185,0.012658
2103.1504,0.012716
2104.0822,0.012829
2105.0140,0.014327
2105.9459,0.014499
2106.8777,0.013819
2107.8095,0.013949
2108.7414,0.014203
2109.6732,0.014478
2110.6051,0.012786
2111.5369,0.011689
2112.4687,0.013884
2113.4006,0.014881
2114.3324,0.014454
2115.2642,0.013993
2116.1961,0.014213
2117.1279,0.015597
2118.0597,0.016060
2118.9916,0.015722
2119.9234,0.015620
2120.8552,0.014767
2121.7871,0.013763
2122.7189,0.013401
2123.6507,0.013072
2124.5826,0.011980
2125.5144,0.012046
2126.4462,0.012631
2127.3781,0.012760
2128.3099,0.013470
2129.2417,0.014463
2130.1736,0.013961
2131.1054,0.012874
2132.0372,0.013499
2132.9691,0.013354
2133.9009,0.013939
2134.8327,0.013742
2135.7646,0.013152
2136.6964,0.013955
2137.6282,0.012744
2138.5601,0.011554
2139.4919,0.011231
2140.4238,0.010415
2141.3556,0.009815
2142.2874,0.010919
2143.2193,0.012166
2144.1511,0.010324
2145.0829,0.009581
2146.0148,0.011863
2146.9466,0.013350
2147.8784,0.009736
2148.8103,0.007411
2149.7421,0.010925
2150.6739,0.011990
2151.6058,0.009875
2152.5376,0.009125
2153.4694,0.008961
2154.4013,0.008512
2155.3331,0.008637
2156.2649,0.008767
2157.1968,0.007783
2158.1286,0.005429
2159.0604,0.004568
2159.9923,0.003589
2160.9241,0.003832
2161.8559,0.006139
2162.7878,0.007151
2163.7196,0.006868
2164.6514,0.007232
2165.5833,0.005091
2166.5151,0.006403
2167.4470,0.010526
2168.3788,0.010154
2169.3106,0.007494
2170.2425,0.005546
2171.1743,0.002049
2172.1061,0.003002
2173.0380,0.009218
2173.9698,0.010569
2174.9016,0.006747
2175.8335,0.005491
2176.7653,0.006345
2177.6971,0.008751
2178.6290,0.009837
2179.5608,0.008476
2180.4926,0.009958
2181.4245,0.010519
2182.3563,0.008908
2183.2881,0.008149
2184.2200,0.006684
2185.1518,0.005799
2186.0836,0.007977
2187.0155,0.007663
2187.9473,0.004597
2188.8791,0.005335
2189.8110,0.009176
2190.7428,0.008421
2191.6746,0.005416
2192.6065,0.004889
2193.5383,0.007594
2194.4702,0.008488
2195.4020,0.006338
2196.3338,0.005725
2197.2657,0.008451
2198.1975,0.009432
2199.1293,0.009979
2200.0612,0.010111
2200.9930,0.010169
2201.9248,0.011507
2202.8567,0.011265
2203.7885,0.010428
2204.7203,0.011314
2205.6522,0.011321
2206.5840,0.009845
2207.5158,0.008302
2208.4477,0.008709
2209.3795,0.010206
2210.3113,0.011447
2211.2432,0.008461
2212.1750,0.006058
2213.1068,0.006936
2214.0387,0.006660
2214.9705,0.008552
2215.9023,0.009375
2216.8342,0.008110
2217.7660,0.008448
2218.6978,0.008579
2219.6297,0.008338
2220.5615,0.010079
2221.4934,0.011295
2222.4252,0.011734
2223.3570,0.011142
2224.2889,0.009874
2225.2207,0.009698
2226.1525,0.008769
2227.0844,0.008129
2228.0162,0.009709
2228.9480,0.010947
2229.8799,0.011498
2230.8117,0.011353
2231.7435,0.008698
2232.6754,0.008393
2233.6072,0.011911
2234.5390,0.011951
2235.4709,0.010681
2236.4027,0.009929
2237.3345,0.008877
2238.2664,0.009173
2239.1982,0.010532
2240.1300,0.009897
2241.0619,0.007575
2241.9937,0.008572
2242.9255,0.008908
2243.8574,0.009245
2244.7892,0.010440
2245.7210,0.009401
2246.6529,0.009176
2247.5847,0.009438
2248.5166,0.008994
2249.4484,0.007670
2250.3802,0.008589
2251.3121,0.009109
2252.2439,0.009604
2253.1757,0.010800
2254.1076,0.011074
2255.0394,0.009766
2255.9712,0.009251
2256.9031,0.008972
2257.8349,0.008410
2258.7667,0.009333
2259.6986,0.009772
2260.6304,0.010141
2261.5622,0.010926
2262.4941,0.009786
2263.4259,0.009092
2264.3577,0.009548
2265.2896,0.009962
2266.2214,0.009204
2267.1532,0.009329
2268.0851,0.009075
2269.0169,0.007332
2269.9487,0.007306
2270.8806,0.008718
2271.8124,0.008232
2272.7442,0.008024
2273.6761,0.009007
2274.6079,0.009584
2275.5397,0.009750
2276.4716,0.009234
2277.4034,0.008518
2278.3353,0.008746
2279.2671,0.009310
2280.1989,0.010398
2281.1308,0.010838
2282.0626,0.010754
2282.9944,0.010198
2283.9263,0.010397
2284.8581,0.010672
2285.7899,0.009455
2286.7218,0.009521
2287.6536,0.009620
2288.5854,0.008796
2289.5173,0.008142
2290.4491,0.008854
2291.3809,0.010532
2292.3128,0.011505
2293.2446,0.010547
2294.1764,0.008911
2295.1083,0.009494
2296.0401,0.010419
2296.9719,0.010102
2297.9038,0.009924
2298.8356,0.009905
2299.7674,0.009396
2300.6993,0.008933
2301.6311,0.008874
2302.5629,0.009075
2303.4948,0.008841
2304.4266,0.009953
2305.3585,0.010608
2306.2903,0.010135
2307.2221,0.009842
2308.1540,0.009738
2309.0858,0.009312
2310.0176,0.009223
2310.9495,0.009106
2311.8813,0.008755
2312.8131,0.009285
2313.7450,0.009290
2314.6768,0.008598
2315.6086,0.008606
2316.5405,0.008705
2317.4723,0.009200
2318.4041,0.008840
2319.3360,0.008202
2320.2678,0.007881
2321.1996,0.008658
2322.1315,0.009698
2323.0633,0.010062
2323.9951,0.009064
2324.9270,0.008142
2325.8588,0.008429
2326.7906,0.009753
2327.7225,0.009635
2328.6543,0.008990
2329.5861,0.009075
2330.5180,0.008847
2331.4498,0.008962
2332.3817,0.009732
2333.3135,0.009358
2334.2453,0.009137
2335.1772,0.008854
2336.1090,0.007882
2337.0408,0.007930
2337.9727,0.008584
2338.9045,0.009077
2339.8363,0.009352
2340.7682,0.009524
2341.7000,0.008928
2342.6318,0.007976
2343.5637,0.007890
2344.4955,0.008130
2345.4273,0.008202
2346.3592,0.008649
2347.2910,0.009193
2348.2228,0.008524
2349.1547,0.007569
2350.0865,0.007614
2351.0183,0.008131
2351.9502,0.008431
2352.8820,0.009141
2353.8138,0.009256
2354.7457,0.008140
2355.6775,0.007189
2356.6093,0.008328
2357.5412,0.008710
2358.4730,0.007360
2359.4049,0.006765
2360.3367,0.006334
2361.2685,0.007248
2362.2004,0.008337
2363.1322,0.007612
2364.0640,0.007718
2364.9959,0.006495
2365.9277,0.004980
2366.8595,0.005477
2367.7914,0.005641
2368.7232,0.007001
2369.6550,0.007847
2370.5869,0.007988
2371.5187,0.007741
2372.4505,0.006622
2373.3824,0.006960
2374.3142,0.007261
2375.2460,0.007664
2376.1779,0.007530
2377.1097,0.007562
2378.0415,0.007635
2378.9734,0.007229
2379.9052,0.006665
2380.8370,0.007591
2381.7689,0.008505
2382.7007,0.008330
2383.6325,0.007434
2384.5644,0.007151
2385.4962,0.007022
2386.4281,0.006636
2387.3599,0.006511
2388.2917,0.006219
2389.2236,0.006381
2390.1554,0.006652
2391.0872,0.007641
2392.0191,0.008336
2392.9509,0.007862
2393.8827,0.007412
2394.8146,0.007009
2395.7464,0.007193
2396.6782,0.007077
2397.6101,0.006586
2398.5419,0.006466
2399.4737,0.006407
2400.4056,0.006045
2401.3374,0.006676
2402.2692,0.007096
2403.2011,0.007059
2404.1329,0.007536
2405.0647,0.007309
2405.9966,0.006678
2406.9284,0.007541
2407.8602,0.007430
2408.7921,0.007010
2409.7239,0.007403
2410.6557,0.007115
2411.5876,0.006972
2412.5194,0.006300
2413.4512,0.005336
2414.3831,0.005219
2415.3149,0.006068
2416.2468,0.006265
2417.1786,0.006474
2418.1104,0.006459
2419.0423,0.005751
2419.9741,0.005976
2420.9059,0.006535
2421.8378,0.006503
2422.7696,0.006282
2423.7014,0.006272
2424.6333,0.006617
2425.5651,0.006268
2426.4969,0.005903
2427.4288,0.006035
2428.3606,0.006369
2429.2924,0.006199
2430.2243,0.005892
2431.1561,0.005867
2432.0879,0.005760
2433.0198,0.006292
2433.9516,0.006244
2434.8834,0.005737
2435.8153,0.005534
2436.7471,0.005701
2437.6789,0.005801
2438.6108,0.005959
2439.5426,0.005692
2440.4744,0.005198
2441.4063,0.004731
2442.3381,0.004788
2443.2700,0.005166
2444.2018,0.005114
2445.1336,0.004923
2446.0655,0.005420
2446.9973,0.006114
2447.9291,0.006262
2448.8610,0.005377
2449.7928,0.005008
2450.7246,0.005824
2451.6565,0.005346
2452.5883,0.005137
2453.5201,0.006487
2454.4520,0.006454
2455.3838,0.005676
2456.3156,0.004728
2457.2475,0.004014
2458.1793,0.004778
2459.1111,0.005711
2460.0430,0.005495
2460.9748,0.005107
2461.9066,0.004699
2462.8385,0.004364
2463.7703,0.003871
2464.7021,0.004687
2465.6340,0.005361
2466.5658,0.005408
2467.4976,0.004889
2468.4295,0.005098
2469.3613,0.005044
2470.2932,0.004249
2471.2250,0.004155
2472.1568,0.004878
2473.0887,0.005445
2474.0205,0.005808
2474.9523,0.006152
2475.8842,0.005401
2476.8160,0.004516
2477.7478,0.004403
2478.6797,0.005487
2479.6115,0.005804
2480.5433,0.005130
2481.4752,0.004977
2482.4070,0.005655
2483.3388,0.005876
2484.2707,0.005487
2485.2025,0.005610
2486.1343,0.006005
2487.0662,0.005601
2487.9980,0.005881
2488.9298,0.006237
2489.8617,0.006109
2490.7935,0.005382
2491.7253,0.005174
2492.6572,0.004572
2493.5890,0.004679
2494.5208,0.005599
2495.4527,0.006093
2496.3845,0.006471
2497.3164,0.006282
2498.2482,0.005935
2499.1800,0.005203
2500.1119,0.004969
2501.0437,0.005407
2501.9755,0.006113
2502.9074,0.005850
2503.8392,0.005581
2504.7710,0.005229
2505.7029,0.004778
2506.6347,0.004477
2507.5665,0.004474
2508.4984,0.004312
2509.4302,0.004146
2510.3620,0.005591
2511.2939,0.006047
2512.2257,0.004467
2513.1575,0.004557
2514.0894,0.005010
2515.0212,0.004728
2515.9530,0.004827
2516.8849,0.005070
2517.8167,0.005216
2518.7485,0.005301
2519.6804,0.005142
2520.6122,0.004734
2521.5440,0.004022
2522.4759,0.004889
2523.4077,0.006236
2524.3396,0.005571
2525.2714,0.005293
2526.2032,0.005407
2527.1351,0.004815
2528.0669,0.005159
2528.9987,0.005291
2529.9306,0.004913
2530.8624,0.005816
2531.7942,0.005493
2532.7261,0.003951
2533.6579,0.002972
2534.5897,0.003797
2535.5216,0.004420
2536.4534,0.004593
2537.3852,0.004789
2538.3171,0.004399
2539.2489,0.004588
2540.1807,0.004994
2541.1126,0.005087
2542.0444,0.004816
2542.9762,0.004618
2543.9081,0.005172
2544.8399,0.005256
2545.7717,0.004765
2546.7036,0.004870
2547.6354,0.005012
2548.5672,0.004100
2549.4991,0.004081
2550.4309,0.005529
2551.3627,0.005671
2552.2946,0.005207
2553.2264,0.005243
2554.1583,0.005486
2555.0901,0.005149
2556.0219,0.004365
2556.9538,0.004307
2557.8856,0.004530
2558.8174,0.004724
2559.7493,0.004388
2560.6811,0.003695
2561.6129,0.003888
2562.5448,0.004770
2563.4766,0.004633
2564.4084,0.004894
2565.3403,0.004917
2566.2721,0.004069
2567.2039,0.003847
2568.1358,0.003992
2569.0676,0.004105
2569.9994,0.004306
2570.9313,0.004172
2571.8631,0.004159
2572.7949,0.004468
2573.7268,0.004439
2574.6586,0.004556
2575.5904,0.004683
2576.5223,0.004254
2577.4541,0.003773
2578.3859,0.004430
2579.3178,0.005365
2580.2496,0.004943
2581.1815,0.005340
2582.1133,0.006124
2583.0451,0.005235
2583.9770,0.004866
2584.9088,0.004627
2585.8406,0.003011
2586.7725,0.002552
2587.7043,0.003851
2588.6361,0.004480
2589.5680,0.004796
2590.4998,0.004431
2591.4316,0.004302
2592.3635,0.003560
2593.2953,0.003107
2594.2271,0.003629
2595.1590,0.004317
2596.0908,0.004886
2597.0226,0.003878
2597.9545,0.003546
2598.8863,0.005041
2599.8181,0.005749
2600.7500,0.005250
2601.6818,0.005136
2602.6136,0.004388
2603.5455,0.004446
2604.4773,0.005191
2605.4091,0.005096
2606.3410,0.004509
2607.2728,0.004443
2608.2047,0.004294
2609.1365,0.004402
2610.0683,0.004915
2611.0002,0.005055
2611.9320,0.005545
2612.8638,0.005231
2613.7957,0.004482
2614.7275,0.004867
2615.6593,0.005658
2616.5912,0.005603
2617.5230,0.004968
2618.4548,0.005410
2619.3867,0.005817
2620.3185,0.004581
2621.2503,0.003643
2622.1822,0.004300
2623.1140,0.005358
2624.0458,0.005921
2624.9777,0.005807
2625.9095,0.005339
2626.8413,0.005311
2627.7732,0.005245
2628.7050,0.005639
2629.6368,0.005822
2630.5687,0.005202
2631.5005,0.005068
2632.4323,0.005169
2633.3642,0.005395
2634.2960,0.005879
2635.2279,0.006345
2636.1597,0.005722
2637.0915,0.005353
2638.0234,0.005179
2638.9552,0.005411
2639.8870,0.005639
2640.8189,0.005453
2641.7507,0.005512
2642.6825,0.005935
2643.6144,0.005847
2644.5462,0.005925
2645.4780,0.005827
2646.4099,0.005695
2647.3417,0.005442
2648.2735,0.005523
2649.2054,0.005479
2650.1372,0.005757
2651.0690,0.006254
2652.0009,0.006162
2652.9327,0.006042
2653.8645,0.005968
2654.7964,0.005763
2655.7282,0.005803
2656.6600,0.006365
2657.5919,0.006888
2658.5237,0.006929
2659.4555,0.006716
2660.3874,0.006561
2661.3192,0.006416
2662.2511,0.006461
2663.1829,0.006743
2664.1147,0.006807
2665.0466,0.006442
2665.9784,0.005984
2666.9102,0.006219
2667.8421,0.006573
2668.7739,0.006730
2669.7057,0.007096
2670.6376,0.006837
2671.5694,0.006531
2672.5012,0.006470
2673.4331,0.006105
2674.3649,0.005801
2675.2967,0.005969
2676.2286,0.006880
2677.1604,0.007286
2678.0922,0.006776
2679.0241,0.006487
2679.9559,0.006416
2680.8877,0.006731
2681.8196,0.007270
2682.7514,0.007284
2683.6832,0.007232
2684.6151,0.007162
2685.5469,0.007060
2686.4787,0.007042
2687.4106,0.007301
2688.3424,0.007143
2689.2742,0.007430
2690.2061,0.007598
2691.1379,0.007337
2692.0698,0.007395
2693.0016,0.007891
2693.9334,0.008038
2694.8653,0.008046
2695.7971,0.008068
2696.7289,0.007743
2697.6608,0.007664
2698.5926,0.007672
2699.5244,0.007667
2700.4563,0.007580
2701.3881,0.008078
2702.3199,0.008831
2703.2518,0.008659
2704.1836,0.008254
2705.1154,0.007978
2706.0473,0.007611
2706.9791,0.008014
2707.9109,0.009012
2708.8428,0.009486
2709.7746,0.009224
2710.7064,0.008425
2711.6383,0.008211
2712.5701,0.008701
2713.5019,0.009230
2714.4338,0.009335
2715.3656,0.008915
2716.2974,0.008146
2717.2293,0.008061
2718.1611,0.008565
2719.0930,0.008635
2720.0248,0.008512
2720.9566,0.008597
2721.8885,0.008937
2722.8203,0.009400
2723.7521,0.009723
2724.6840,0.009942
2725.6158,0.010073
2726.5476,0.009696
2727.4795,0.009311
2728.4113,0.009317
2729.3431,0.009384
2730.2750,0.009621
2731.2068,0.009784
2732.1386,0.010108
2733.0705,0.009894
2734.0023,0.009913
2734.9341,0.010594
2735.8660,0.010473
2736.7978,0.010004
2737.7296,0.010116
2738.6615,0.010394
2739.5933,0.010466
2740.5251,0.009998
2741.4570,0.009818
2742.3888,0.010004
2743.3206,0.010004
2744.2525,0.009960
2745.1843,0.010054
2746.1162,0.010503
2747.0480,0.010607
2747.9798,0.010688
2748.9117,0.010897
2749.8435,0.010627
2750.7753,0.010544
2751.7072,0.010585
2752.6390,0.010582
2753.5708,0.010923
2754.5027,0.011376
2755.4345,0.011744
2756.3663,0.011499
2757.2982,0.011275
2758.2300,0.011110
2759.1618,0.010987
2760.0937,0.011142
2761.0255,0.010802
2761.9573,0.011009
2762.8892,0.011548
2763.8210,0.011314
2764.7528,0.010947
2765.6847,0.011191
2766.6165,0.012007
2767.5483,0.012095
2768.4802,0.011507
2769.4120,0.011459
2770.3438,0.011525
2771.2757,0.011200
2772.2075,0.011280
2773.1394,0.011841
2774.0712,0.011961
2775.0030,0.011711
2775.9349,0.011477
2776.8667,0.011415
2777.7985,0.011703
2778.7304,0.012044
2779.6622,0.012336
2780.5940,0.012295
2781.5259,0.011997
2782.4577,0.012151
2783.3895,0.012467
2784.3214,0.012731
2785.2532,0.012641
2786.1850,0.012484
2787.1169,0.012389
2788.0487,0.012544
2788.9805,0.013108
2789.9124,0.013586
2790.8442,0.013451
2791.7760,0.013381
2792.7079,0.013508
2793.6397,0.013788
2794.5715,0.013997
2795.5034,0.013883
2796.4352,0.013881
2797.3670,0.014189
2798.2989,0.014654
2799.2307,0.014787
2800.1626,0.015050
2801.0944,0.015400
2802.0262,0.015015
2802.9581,0.014636
2803.8899,0.015112
2804.8217,0.015619
2805.7536,0.015311
2806.6854,0.015254
2807.6172,0.015579
2808.5491,0.015736
2809.4809,0.015758
2810.4127,0.015944
2811.3446,0.016217
2812.2764,0.016484
2813.2082,0.016878
2814.1401,0.016802
2815.0719,0.016206
2816.0037,0.016545
2816.9356,0.017877
2817.8674,0.018249
2818.7992,0.017515
2819.7311,0.017693
2820.6629,0.018099
2821.5947,0.017765
2822.5266,0.017677
2823.4584,0.018234
2824.3902,0.018557
2825.3221,0.018947
2826.2539,0.019261
2827.1857,0.019132
2828.1176,0.019073
2829.0494,0.019088
2829.9813,0.019421
2830.9131,0.019557
2831.8449,0.019451
2832.7768,0.019821
2833.7086,0.020739
2834.6404,0.020866
2835.5723,0.020703
2836.5041,0.020333
2837.4359,0.020223
2838.3678,0.020510
2839.2996,0.020798
2840.2314,0.020831
2841.1633,0.021000
2842.0951,0.021497
2843.0269,0.021768
2843.9588,0.022209
2844.8906,0.022894
2845.8224,0.022796
2846.7543,0.022270
2847.6861,0.022227
2848.6179,0.022714
2849.5498,0.023465
2850.4816,0.024025
2851.4134,0.023979
2852.3453,0.024001
2853.2771,0.024473
2854.2089,0.024892
2855.1408,0.024910
2856.0726,0.024906
2857.0045,0.025270
2857.9363,0.025373
2858.8681,0.025251
2859.8000,0.025382
2860.7318,0.025766
2861.6636,0.026340
2862.5955,0.026843
2863.5273,0.027001
2864.4591,0.027457
2865.3910,0.028507
2866.3228,0.028896
2867.2546,0.029254
2868.1865,0.029631
2869.1183,0.029966
2870.0501,0.030431
2870.9820,0.030845
2871.9138,0.031382
2872.8456,0.032222
2873.7775,0.033156
2874.7093,0.033652
2875.6411,0.033939
2876.5730,0.034784
2877.5048,0.035304
2878.4366,0.035343
2879.3685,0.035551
2880.3003,0.035779
2881.2321,0.036010
2882.1640,0.036809
2883.0958,0.037609
2884.0277,0.038178
2884.9595,0.038845
2885.8913,0.038844
2886.8232,0.038370
2887.7550,0.038755
2888.6868,0.039849
2889.6187,0.040704
2890.5505,0.040849
2891.4823,0.041063
2892.4142,0.041696
2893.3460,0.042309
2894.2778,0.042476
2895.2097,0.042817
2896.1415,0.043140
2897.0733,0.043383
2898.0052,0.044209
2898.9370,0.044966
2899.8688,0.044948
2900.8007,0.044741
2901.7325,0.045100
2902.6643,0.045675
2903.5962,0.045714
2904.5280,0.045523
2905.4598,0.045720
2906.3917,0.045987
2907.3235,0.045770
2908.2553,0.045062
2909.1872,0.044914
2910.1190,0.045215
2911.0509,0.044795
2911.9827,0.044051
2912.9145,0.043567
2913.8464,0.043171
2914.7782,0.042918
2915.7100,0.043305
2916.6419,0.043327
2917.5737,0.042681
2918.5055,0.042891
2919.4374,0.043268
2920.3692,0.042349
2921.3010,0.041794
2922.2329,0.042563
2923.1647,0.043305
2924.0965,0.043328
2925.0284,0.043632
2925.9602,0.044097
2926.8920,0.043602
2927.8239,0.043391
2928.7557,0.044098
2929.6875,0.044937
2930.6194,0.045991
2931.5512,0.046110
2932.4830,0.045864
2933.4149,0.046205
2934.3467,0.046456
2935.2785,0.046361
2936.2104,0.046247
2937.1422,0.046510
2938.0741,0.047266
2939.0059,0.047484
2939.9377,0.047198
2940.8696,0.047381
2941.8014,0.047781
2942.7332,0.047804
2943.6651,0.047354
2944.5969,0.047340
2945.5287,0.047704
2946.4606,0.047987
2947.3924,0.047997
2948.3242,0.048227
2949.2561,0.048090
2950.1879,0.047353
2951.1197,0.047778
2952.0516,0.048485
2952.9834,0.048346
2953.9152,0.048526
2954.8471,0.048939
2955.7789,0.049115
2956.7107,0.050213
2957.6426,0.051383
2958.5744,0.051385
2959.5062,0.051582
2960.4381,0.052127
2961.3699,0.052302
2962.3017,0.053421
2963.2336,0.054884
2964.1654,0.055730
2965.0972,0.057309
2966.0291,0.058875
2966.9609,0.059723
2967.8928,0.061246
2968.8246,0.063940
2969.7564,0.066649
2970.6883,0.068879
2971.6201,0.070986
2972.5519,0.072982
2973.4838,0.075449
2974.4156,0.077642
2975.3474,0.079662
2976.2793,0.081731
2977.2111,0.083578
2978.1429,0.085672
2979.0748,0.087449
2980.0066,0.088298
2980.9384,0.088134
2981.8703,0.087920
2982.8021,0.088218
2983.7339,0.087937
2984.6658,0.086482
2985.5976,0.083988
2986.5294,0.081848
2987.4613,0.080713
2988.3931,0.079131
2989.3249,0.077287
2990.2568,0.075002
2991.1886,0.072132
2992.1204,0.070398
2993.0523,0.068535
2993.9841,0.065943
2994.9160,0.064192
2995.8478,0.063256
2996.7796,0.062633
2997.7115,0.061496
2998.6433,0.059714
2999.5751,0.059082
3000.5070,0.059684
3001.4388,0.059597
3002.3706,0.058488
3003.3025,0.057481
3004.2343,0.057869
3005.1661,0.058653
3006.0980,0.057920
3007.0298,0.056985
3007.9616,0.057162
3008.8935,0.057763
3009.8253,0.058333
3010.7571,0.058398
3011.6890,0.058304
3012.6208,0.058794
3013.5526,0.059479
3014.4845,0.059767
3015.4163,0.059465
3016.3481,0.059058
3017.2800,0.059497
3018.2118,0.060661
3019.1436,0.060850
3020.0755,0.061259
3021.0073,0.062299
3021.9392,0.062291
3022.8710,0.062103
3023.8028,0.062394
3024.7347,0.063368
3025.6665,0.063629
3026.5983,0.063565
3027.5302,0.064396
3028.4620,0.064964
3029.3938,0.065383
3030.3257,0.065796
3031.2575,0.066281
3032.1893,0.067045
3033.1212,0.067252
3034.0530,0.067655
3034.9848,0.068511
3035.9167,0.068585
3036.8485,0.069034
3037.7803,0.069786
3038.7122,0.070215
3039.6440,0.070975
3040.5758,0.072273
3041.5077,0.074203
3042.4395,0.075002
3043.3713,0.075263
3044.3032,0.075737
3045.2350,0.075036
3046.1668,0.074780
3047.0987,0.076557
3048.0305,0.078305
3048.9624,0.079071
3049.8942,0.079460
3050.8260,0.080026
3051.7579,0.079952
3052.6897,0.080179
3053.6215,0.081835
3054.5534,0.082594
3055.4852,0.082501
3056.4170,0.082928
3057.3489,0.083558
3058.2807,0.084834
3059.2125,0.086528
3060.1444,0.087146
3061.0762,0.087228
3062.0080,0.088360
3062.9399,0.089308
3063.8717,0.089818
3064.8035,0.090824
3065.7354,0.091886
3066.6672,0.092387
3067.5990,0.092185
3068.5309,0.092805
3069.4627,0.094481
3070.3945,0.095484
3071.3264,0.096386
3072.2582,0.097548
3073.1900,0.098347
3074.1219,0.098372
3075.0537,0.098409
3075.9856,0.099683
3076.9174,0.101147
3077.8492,0.101989
3078.7811,0.102650
3079.7129,0.103684
3080.6447,0.104488
3081.5766,0.104629
3082.5084,0.105491
3083.4402,0.107618
3084.3721,0.109967
3085.3039,0.111082
3086.2357,0.111563
3087.1676,0.111619
3088.0994,0.111551
3089.0312,0.112150
3089.9631,0.112789
3090.8949,0.113320
3091.8267,0.114566
3092.7586,0.116391
3093.6904,0.117651
3094.6222,0.118755
3095.5541,0.120090
3096.4859,0.120627
3097.4177,0.121057
3098.3496,0.122295
3099.2814,0.124244
3100.2132,0.125627
3101.1451,0.126050
3102.0769,0.126979
3103.0087,0.128581
3103.9406,0.129604
3104.8724,0.130230
3105.8043,0.131146
3106.7361,0.132246
3107.6679,0.132971
3108.5998,0.133101
3109.5316,0.133844
3110.4634,0.135804
3111.3953,0.138139
3112.3271,0.140216
3113.2589,0.141392
3114.1908,0.141962
3115.1226,0.142613
3116.0544,0.143562
3116.9863,0.144394
3117.9181,0.145722
3118.8499,0.147072
3119.7818,0.148263
3120.7136,0.148996
3121.6454,0.149237
3122.5773,0.150465
3123.5091,0.152924
3124.4409,0.154390
3125.3728,0.154597
3126.3046,0.155568
3127.2364,0.157477
3128.1683,0.158919
3129.1001,0.160157
3130.0319,0.160824
3130.9638,0.162010
3131.8956,0.163942
3132.8275,0.164682
3133.7593,0.165207
3134.6911,0.166536
3135.6230,0.168349
3136.5548,0.171329
3137.4866,0.172586
3138.4185,0.172348
3139.3503,0.172878
3140.2821,0.174358
3141.2140,0.176739
3142.1458,0.178081
3143.0776,0.177967
3144.0095,0.178589
3144.9413,0.180412
3145.8731,0.182936
3146.8050,0.184403
3147.7368,0.186176
3148.6686,0.187044
3149.6005,0.185951
3150.5323,0.186826
3151.4641,0.189988
3152.3960,0.192433
3153.3278,0.193961
3154.2596,0.195215
3155.1915,0.195862
3156.1233,0.195139
3157.0551,0.195744
3157.9870,0.198112
3158.9188,0.200294
3159.8507,0.201362
3160.7825,0.203228
3161.7143,0.204299
3162.6462,0.205423
3163.5780,0.207746
3164.5098,0.208542
3165.4417,0.208881
3166.3735,0.210420
3167.3053,0.211942
3168.2372,0.214230
3169.1690,0.216622
3170.1008,0.216753
3171.0327,0.215778
3171.9645,0.217736
3172.8963,0.220651
3173.8282,0.222347
3174.7600,0.223385
3175.6918,0.225171
3176.6237,0.226761
3177.5555,0.226617
3178.4873,0.227170
3179.4192,0.229340
3180.3510,0.230695
3181.2828,0.231799
3182.2147,0.233057
3183.1465,0.234441
3184.0783,0.236259
3185.0102,0.238846
3185.9420,0.239797
3186.8739,0.239415
3187.8057,0.238499
3188.7375,0.239343
3189.6694,0.241512
3190.6012,0.243835
3191.5330,0.244154
3192.4649,0.244549
3193.3967,0.247203
3194.3285,0.250834
3195.2604,0.251890
3196.1922,0.251952
3197.1240,0.252143
3198.0559,0.252894
3198.9877,0.252773
3199.9195,0.255389
3200.8514,0.257074
3201.7832,0.255682
3202.7150,0.256127
3203.6469,0.259046
3204.5787,0.260462
3205.5105,0.261630
3206.4424,0.262537
3207.3742,0.264801
3208.3060,0.265162
3209.2379,0.265800
3210.1697,0.268447
3211.1015,0.268296
3212.0334,0.266211
3212.9652,0.267734
3213.8971,0.270987
3214.8289,0.273011
3215.7607,0.271839
3216.6926,0.271684
3217.6244,0.271911
3218.5562,0.272254
3219.4881,0.274914
3220.4199,0.276981
3221.3517,0.277816
3222.2836,0.278882
3223.2154,0.277556
3224.1472,0.278394
3225.0791,0.279401
3226.0109,0.277882
3226.9427,0.279120
3227.8746,0.282967
3228.8064,0.282977
3229.7382,0.282988
3230.6701,0.283427
3231.6019,0.283083
3232.5337,0.283589
3233.4656,0.284270
3234.3974,0.285211
3235.3292,0.286913
3236.2611,0.286144
3237.1929,0.286569
3238.1247,0.287954
3239.0566,0.287654
3239.9884,0.286693
3240.9202,0.287975
3241.8521,0.290006
3242.7839,0.289977
3243.7158,0.288512
3244.6476,0.289623
3245.5794,0.289434
3246.5113,0.289251
3247.4431,0.291122
3248.3749,0.293988
3249.3068,0.294264
3250.2386,0.293844
3251.1704,0.292351
3252.1023,0.292736
3253.0341,0.295117
3253.9659,0.296497
3254.8978,0.294889
3255.8296,0.294007
3256.7614,0.294270
3257.6933,0.295854
3258.6251,0.295774
3259.5569,0.294461
3260.4888,0.294218
3261.4206,0.295543
3262.3524,0.295499
3263.2843,0.294619
3264.2161,0.293141
3265.1479,0.294141
3266.0798,0.296389
3267.0116,0.297321
3267.9434,0.296488
3268.8753,0.296525
3269.8071,0.296219
3270.7390,0.297501
3271.6708,0.299136
3272.6026,0.299203
3273.5345,0.297907
3274.4663,0.298045
3275.3981,0.299451
3276.3300,0.300528
3277.2618,0.297517
3278.1936,0.296265
3279.1255,0.297260
3280.0573,0.298706
3280.9891,0.298782
3281.9210,0.298284
3282.8528,0.297840
3283.7846,0.297924
3284.7165,0.296613
3285.6483,0.296964
3286.5801,0.299558
3287.5120,0.300605
3288.4438,0.298878
3289.3756,0.298088
3290.3075,0.297915
3291.2393,0.298041
3292.1711,0.297874
3293.1030,0.297875
3294.0348,0.298489
3294.9666,0.299931
3295.8985,0.299916
3296.8303,0.300761
3297.7622,0.299912
3298.6940,0.298905
3299.6258,0.298509
3300.5577,0.300643
3301.4895,0.299952
3302.4213,0.297853
3303.3532,0.299355
3304.2850,0.302439
3305.2168,0.300031
3306.1487,0.299619
3307.0805,0.302185
3308.0123,0.303057
3308.9442,0.299904
3309.8760,0.300442
3310.8078,0.301943
3311.7397,0.299935
3312.6715,0.297039
3313.6033,0.298958
3314.5352,0.300505
3315.4670,0.301154
3316.3988,0.301113
3317.3307,0.300276
3318.2625,0.299782
3319.1943,0.300486
3320.1262,0.299758
3321.0580,0.300258
3321.9898,0.301066
3322.9217,0.300868
3323.8535,0.302001
3324.7854,0.303071
3325.7172,0.300270
3326.6490,0.299446
3327.5809,0.299489
3328.5127,0.299921
3329.4445,0.300087
3330.3764,0.301445
3331.3082,0.302394
3332.2400,0.302898
3333.1719,0.302708
3334.1037,0.302895
3335.0355,0.302168
3335.9674,0.302240
3336.8992,0.301835
3337.8310,0.301715
3338.7629,0.303970
3339.6947,0.305280
3340.6265,0.304552
3341.5584,0.304074
3342.4902,0.301262
3343.4220,0.300789
3344.3539,0.303753
3345.2857,0.304700
3346.2175,0.302986
3347.1494,0.302696
3348.0812,0.300425
3349.0130,0.301291
3349.9449,0.304492
3350.8767,0.305068
3351.8086,0.301094
3352.7404,0.300800
3353.6722,0.302977
3354.6041,0.304554
3355.5359,0.302335
3356.4677,0.302182
3357.3996,0.302499
3358.3314,0.301863
3359.2632,0.302003
3360.1951,0.301892
3361.1269,0.299894
3362.0587,0.300022
3362.9906,0.301150
3363.9224,0.303327
3364.8542,0.300558
3365.7861,0.299943
3366.7179,0.302778
3367.6497,0.303506
3368.5816,0.299194
3369.5134,0.297994
3370.4452,0.299098
3371.3771,0.299853
3372.3089,0.297192
3373.2407,0.295481
3374.1726,0.294268
3375.1044,0.294495
3376.0362,0.295944
3376.9681,0.296310
3377.8999,0.295047
3378.8317,0.295323
3379.7636,0.294805
3380.6954,0.293982
3381.6273,0.293429
3382.5591,0.294868
3383.4909,0.294532
3384.4228,0.295892
3385.3546,0.295392
3386.2864,0.294344
3387.2183,0.292201
3388.1501,0.289766
3389.0819,0.288881
3390.0138,0.289890
3390.9456,0.291748
3391.8774,0.293473
3392.8093,0.289228
3393.7411,0.286877
3394.6729,0.287923
3395.6048,0.288563
3396.5366,0.287470
3397.4684,0.286615
3398.4003,0.283664
3399.3321,0.282879
3400.2639,0.280786
3401.1958,0.281767
3402.1276,0.282538
3403.0594,0.280658
3403.9913,0.279548
3404.9231,0.278010
3405.8549,0.276881
3406.7868,0.276548
3407.7186,0.276550
3408.6505,0.277691
3409.5823,0.276173
3410.5141,0.274807
3411.4460,0.274957
3412.3778,0.276875
3413.3096,0.274500
3414.2415,0.271954
3415.1733,0.266681
3416.1051,0.264974
3417.0370,0.267182
3417.9688,0.268329
3418.9006,0.267338
3419.8325,0.267042
3420.7643,0.266045
3421.6961,0.264128
3422.6280,0.262591
3423.5598,0.263193
3424.4916,0.262831
3425.4235,0.262691
3426.3553,0.261145
3427.2871,0.261212
3428.2190,0.259186
3429.1508,0.258409
3430.0826,0.257150
3431.0145,0.254969
3431.9463,0.252139
3432.8781,0.252013
3433.8100,0.249007
3434.7418,0.246200
3435.6737,0.245718
3436.6055,0.248540
3437.5373,0.246256
3438.4692,0.242743
3439.4010,0.242022
3440.3328,0.241022
3441.2647,0.237475
3442.1965,0.236645
3443.1283,0.238418
3444.0602,0.238865
3444.9920,0.238574
3445.9238,0.240185
3446.8557,0.236831
3447.7875,0.234758
3448.7193,0.234099
3449.6512,0.235459
3450.5830,0.233822
3451.5148,0.231065
3452.4467,0.229935
3453.3785,0.229338
3454.3103,0.227689
3455.2422,0.229869
3456.1740,0.229304
3457.1058,0.227116
3458.0377,0.222506
3458.9695,0.220734
3459.9013,0.219671
3460.8332,0.220726
3461.7650,0.223196
3462.6969,0.222663
3463.6287,0.217970
3464.5605,0.215190
3465.4924,0.214333
3466.4242,0.214258
3467.3560,0.211876
3468.2879,0.213928
3469.2197,0.212247
3470.1515,0.210326
3471.0834,0.207566
3472.0152,0.205204
3472.9470,0.202338
3473.8789,0.204334
3474.8107,0.204344
3475.7425,0.202580
3476.6744,0.198962
3477.6062,0.198689
3478.5380,0.197748
3479.4699,0.199395
3480.4017,0.200214
3481.3335,0.200579
3482.2654,0.199136
3483.1972,0.199831
3484.1290,0.198066
3485.0609,0.192642
3485.9927,0.191673
3486.9245,0.191916
3487.8564,0.189494
3488.7882,0.190184
3489.7201,0.190105
3490.6519,0.187819
3491.5837,0.185023
3492.5156,0.184630
3493.4474,0.185197
3494.3792,0.183685
3495.3111,0.181848
3496.2429,0.180786
3497.1747,0.176462
3498.1066,0.177049
3499.0384,0.178408
3499.9702,0.177633
3500.9021,0.175672
3501.8339,0.173786
3502.7657,0.171693
3503.6976,0.173224
3504.6294,0.171712
3505.5612,0.169734
3506.4931,0.169216
3507.4249,0.168874
3508.3567,0.167540
3509.2886,0.165032
3510.2204,0.161950
3511.1522,0.161160
3512.0841,0.161775
3513.0159,0.161869
3513.9477,0.161197
3514.8796,0.160994
3515.8114,0.160257
3516.7432,0.159987
3517.6751,0.158217
3518.6069,0.155342
3519.5388,0.154428
3520.4706,0.156740
3521.4024,0.157544
3522.3343,0.155561
3523.2661,0.152904
3524.1979,0.152565
3525.1298,0.152379
3526.0616,0.151348
3526.9934,0.148998
3527.9253,0.147437
3528.8571,0.147914
3529.7889,0.148620
3530.7208,0.148752
3531.6526,0.149285
3532.5844,0.147003
3533.5163,0.142865
3534.4481,0.139253
3535.3799,0.138776
3536.3118,0.138667
3537.2436,0.139640
3538.1754,0.139190
3539.1073,0.136852
3540.0391,0.134904
3540.9709,0.131756
3541.9028,0.127903
3542.8346,0.127973
3543.7664,0.126274
3544.6983,0.125245
3545.6301,0.125133
3546.5620,0.125786
3547.4938,0.125643
3548.4256,0.122804
3549.3575,0.122934
3550.2893,0.122284
3551.2211,0.121570
3552.1530,0.123234
3553.0848,0.123753
3554.0166,0.121333
3554.9485,0.117870
3555.8803,0.118832
3556.8121,0.118532
3557.7440,0.115894
3558.6758,0.114600
3559.6076,0.114388
3560.5395,0.114296
3561.4713,0.111136
3562.4031,0.108994
3563.3350,0.109300
3564.2668,0.109264
3565.1986,0.109739
3566.1305,0.109206
3567.0623,0.109017
3567.9941,0.108775
3568.9260,0.108406
3569.8578,0.102385
3570.7896,0.100106
3571.7215,0.101308
3572.6533,0.100409
3573.5852,0.101434
3574.5170,0.101438
3575.4488,0.098868
3576.3807,0.098598
3577.3125,0.096751
3578.2443,0.095727
3579.1762,0.095524
3580.1080,0.095868
3581.0398,0.094238
3581.9717,0.092542
3582.9035,0.093142
3583.8353,0.092688
3584.7672,0.093363
3585.6990,0.092125
3586.6308,0.087219
3587.5627,0.086254
3588.4945,0.085596
3589.4263,0.084301
3590.3582,0.083552
3591.2900,0.084944
3592.2218,0.085123
3593.1537,0.085391
3594.0855,0.085854
3595.0173,0.084462
3595.9492,0.081154
3596.8810,0.077344
3597.8128,0.077009
3598.7447,0.078246
3599.6765,0.078411
3600.6084,0.078258
3601.5402,0.076508
3602.4720,0.076187
3603.4039,0.076026
3604.3357,0.076827
3605.2675,0.074235
3606.1994,0.071255
3607.1312,0.072385
3608.0630,0.072900
3608.9949,0.072635
3609.9267,0.071770
3610.8585,0.068264
3611.7904,0.066957
3612.7222,0.067974
3613.6540,0.068658
3614.5859,0.068269
3615.5177,0.068277
3616.4495,0.065002
3617.3814,0.064477
3618.3132,0.065145
3619.2450,0.063604
3620.1769,0.061765
3621.1087,0.063174
3622.0405,0.063850
3622.9724,0.063665
3623.9042,0.061070
3624.8360,0.058935
3625.7679,0.057875
3626.6997,0.057895
3627.6316,0.057471
3628.5634,0.055357
3629.4952,0.055012
3630.4271,0.054202
3631.3589,0.053241
3632.2907,0.055163
3633.2226,0.055330
3634.1544,0.053448
3635.0862,0.053073
3636.0181,0.051462
3636.9499,0.050886
3637.8817,0.051594
3638.8136,0.049184
3639.7454,0.048261
3640.6772,0.048748
3641.6091,0.048188
3642.5409,0.046143
3643.4727,0.045669
3644.4046,0.046043
3645.3364,0.045090
3646.2682,0.043895
3647.2001,0.043358
3648.1319,0.041767
3649.0637,0.041621
3649.9956,0.041275
3650.9274,0.040393
3651.8592,0.039042
3652.7911,0.037618
3653.7229,0.037491
3654.6547,0.037634
3655.5866,0.036952
3656.5184,0.035316
3657.4503,0.033605
3658.3821,0.033018
3659.3139,0.034002
3660.2458,0.033986
3661.1776,0.033114
3662.1094,0.033018
3663.0413,0.032563
3663.9731,0.031818
3664.9049,0.030470
3665.8368,0.029866
3666.7686,0.029269
3667.7004,0.027434
3668.6323,0.026450
3669.5641,0.026549
3670.4959,0.023414
3671.4278,0.019668
3672.3596,0.020823
3673.2914,0.022932
3674.2233,0.022901
3675.1551,0.023211
3676.0869,0.021379
3677.0188,0.020119
3677.9506,0.020410
3678.8824,0.019960
3679.8143,0.018744
3680.7461,0.017930
3681.6779,0.017341
3682.6098,0.017127
3683.5416,0.016788
3684.4735,0.016645
3685.4053,0.017625
3686.3371,0.017546
3687.2690,0.014457
3688.2008,0.011288
3689.1326,0.011195
3690.0645,0.011208
3690.9963,0.011570
3691.9281,0.011922
3692.8600,0.010578
3693.7918,0.010238
3694.7236,0.011150
3695.6555,0.010810
3696.5873,0.009922
3697.5191,0.010092
3698.4510,0.010235
3699.3828,0.009948
3700.3146,0.010388
3701.2465,0.009534
3702.1783,0.007452
3703.1101,0.006945
3704.0420,0.007427
3704.9738,0.007558
3705.9056,0.007063
3706.8375,0.005748
3707.7693,0.005121
3708.7011,0.005427
3709.6330,0.006149
3710.5648,0.005680
3711.4967,0.004222
3712.4285,0.004040
3713.3603,0.005170
3714.2922,0.004824
3715.2240,0.003694
3716.1558,0.003596
3717.0877,0.004629
3718.0195,0.005454
3718.9513,0.004630
3719.8832,0.004098
3720.8150,0.004340
3721.7468,0.003082
3722.6787,0.002347
3723.6105,0.003317
3724.5423,0.004071
3725.4742,0.002922
3726.4060,0.000913
3727.3378,0.001843
3728.2697,0.003458
3729.2015,0.002402
3730.1333,0.001747
3731.0652,0.003307
3731.9970,0.003043
3732.9288,0.003340
3733.8607,0.004275
3734.7925,0.003764
3735.7243,0.002846
3736.6562,0.002358
3737.5880,0.001071
3738.5199,-0.000072
3739.4517,0.001599
3740.3835,0.002040
3741.3154,0.001785
3742.2472,0.001407
3743.1790,0.001223
3744.1109,0.001243
3745.0427,0.000977
3745.9745,0.000716
3746.9064,0.000941
3747.8382,0.000282
3748.7700,-0.000762
3749.7019,-0.000260
3750.6337,0.001220
3751.5655,0.001845
3752.4974,0.002068
3753.4292,0.002096
3754.3610,0.002662
3755.2929,0.002832
3756.2247,0.001236
3757.1565,0.002371
3758.0884,0.002414
3759.0202,0.002174
3759.9520,0.003243
3760.8839,0.003520
3761.8157,0.002951
3762.7475,0.002724
3763.6794,0.002862
3764.6112,0.001148
3765.5431,-0.000384
3766.4749,0.000770
3767.4067,0.002643
3768.3386,0.003097
3769.2704,0.002700
3770.2022,0.002177
3771.1341,0.002958
3772.0659,0.003293
3772.9977,0.002098
3773.9296,0.001441
3774.8614,0.001627
3775.7932,0.002079
3776.7251,0.003166
3777.6569,0.003219
3778.5887,0.001405
3779.5206,0.001169
3780.4524,0.003041
3781.3842,0.002657
3782.3161,0.001921
3783.2479,0.001393
3784.1797,0.000270
3785.1116,0.000098
3786.0434,0.000745
3786.9752,0.001168
3787.9071,0.001597
3788.8389,0.002195
3789.7707,0.001457
3790.7026,0.000950
3791.6344,0.000643
3792.5662,0.000718
3793.4981,0.001493
3794.4299,0.001354
3795.3618,0.001996
3796.2936,0.002690
3797.2254,0.002846
3798.1573,0.002488
3799.0891,0.001758
3800.0209,0.001948
3800.9528,0.001927
3801.8846,0.001549
3802.8164,0.001065
3803.7483,0.000817
3804.6801,-0.000384
3805.6119,-0.002175
3806.5438,-0.000773
3807.4756,0.000501
3808.4074,0.000832
3809.3393,0.001183
3810.2711,0.001251
3811.2029,0.002213
3812.1348,0.002640
3813.0666,0.001225
3813.9984,0.000420
3814.9303,0.000985
3815.8621,0.001199
3816.7939,0.000581
3817.7258,-0.000410
3818.6576,-0.001127
3819.5894,-0.000431
3820.5213,0.000613
3821.4531,0.000813
3822.3850,0.000573
3823.3168,0.000160
3824.2486,0.001852
3825.1805,0.001500
3826.1123,0.000514
3827.0441,0.000263
3827.9760,0.000240
3828.9078,0.000690
3829.8396,0.001276
3830.7715,0.000860
3831.7033,0.000254
3832.6351,-0.000068
3833.5670,0.000123
3834.4988,0.001007
3835.4306,0.002338
3836.3625,0.001529
3837.2943,0.000979
3838.2261,0.000728
3839.1580,-0.000537
3840.0898,0.000093
3841.0216,0.000162
3841.9535,-0.000812
3842.8853,0.000141
3843.8171,0.000545
3844.7490,0.000411
3845.6808,0.001198
3846.6126,0.001066
3847.5445,0.001099
3848.4763,0.001561
3849.4082,0.000846
3850.3400,0.000059
3851.2718,0.001139
3852.2037,0.001456
3853.1355,-0.001027
3854.0673,-0.001717
3854.9992,-0.000352
3855.9310,-0.000056
3856.8628,-0.000224
3857.7947,0.000356
3858.7265,0.000377
3859.6583,0.000371
3860.5902,0.000414
3861.5220,0.000193
3862.4538,-0.000291
3863.3857,-0.000723
3864.3175,-0.000336
3865.2493,0.000587
3866.1812,0.000970
3867.1130,0.002706
3868.0448,0.003745
3868.9767,0.003004
3869.9085,0.000351
3870.8403,-0.000518
3871.7722,-0.000498
3872.7040,-0.000859
3873.6358,-0.000011
3874.5677,-0.000218
3875.4995,-0.000349
3876.4314,0.000321
3877.3632,0.000029
3878.2950,0.000137
3879.2269,0.000526
3880.1587,0.001527
3881.0905,0.001534
3882.0224,0.000587
3882.9542,0.000285
3883.8860,0.000672
3884.8179,0.000604
3885.7497,0.000561
3886.6815,0.000842
3887.6134,0.000944
3888.5452,0.002144
3889.4770,0.002503
3890.4089,0.000993
3891.3407,0.000633
3892.2725,0.001400
3893.2044,0.001232
3894.1362,0.000395
3895.0680,0.000900
3895.9999,0.001420
3896.9317,0.001631
3897.8635,0.002031
3898.7954,0.001376
3899.7272,0.000466
3900.6590,0.000475
3901.5909,0.000583
3902.5227,-0.000319
3903.4546,-0.000418
3904.3864,-0.000326
3905.3182,-0.000713
3906.2501,-0.000098
3907.1819,0.001145
3908.1137,0.002006
3909.0456,0.001549
3909.9774,0.002051
3910.9092,0.001744
3911.8411,0.000649
3912.7729,0.000906
3913.7047,0.001155
3914.6366,0.001624
3915.5684,0.000703
3916.5002,0.000121
3917.4321,0.000888
3918.3639,0.000600
3919.2957,0.000340
3920.2276,0.001633
3921.1594,0.002073
3922.0912,0.001462
3923.0231,0.000941
3923.9549,0.000854
3924.8867,0.000622
3925.8186,0.000483
3926.7504,0.000553
3927.6822,0.000512
3928.6141,0.000683
3929.5459,0.001112
3930.4777,0.001128
3931.4096,0.001458
3932.3414,0.001530
3933.2733,0.000704
3934.2051,0.000785
3935.1369,0.001561
3936.0688,0.002144
3937.0006,0.002131
3937.9324,0.001983
3938.8643,0.001416
3939.7961,0.000509
3940.7279,0.001302
3941.6598,0.001949
3942.5916,0.001333
3943.5234,0.001383
3944.4553,0.001687
3945.3871,0.001352
3946.3189,0.000655
3947.2508,0.001014
3948.1826,0.001262
3949.1144,0.001139
3950.0463,0.000586
3950.9781,0.000731
3951.9099,0.001492
3952.8418,0.000903
3953.7736,-0.000063
3954.7054,0.001161
3955.6373,0.001361
3956.5691,0.000857
3957.5009,0.000579
3958.4328,0.000466
3959.3646,0.001431
3960.2965,0.002728
3961.2283,0.002479
3962.1601,0.000665
3963.0920,0.000544
3964.0238,0.002478
3964.9556,0.002400
3965.8875,0.000682
3966.8193,-0.000294
3967.7511,0.000562
3968.6830,0.001991
3969.6148,0.001987
3970.5466,0.001319
3971.4785,0.001797
3972.4103,0.001308
3973.3421,0.000134
3974.2740,0.000403
3975.2058,0.000965
3976.1376,0.001338
3977.0695,0.002115
3978.0013,0.002486
3978.9331,0.000943
3979.8650,0.000246
3980.7968,0.001343
3981.7286,0.002065
3982.6605,0.002357
3983.5923,0.002548
3984.5241,0.002260
3985.4560,0.002074
3986.3878,0.001240
3987.3197,0.000416
3988.2515,0.000467
3989.1833,0.000458
3990.1152,0.000595
3991.0470,0.001149
3991.9788,0.001424
3992.9107,0.000644
3993.8425,-0.000411
3994.7743,-0.000387
3995.7062,0.000056
3996.6380,0.000415
3997.5698,0.001018
3998.5017,0.001801
3999.4335,0.001298
4000.3653,0.001299
