Wavenumber,Intensity
650.4205,0.368049
651.3523,0.361688
652.2841,0.374198
653.2160,0.368464
654.1478,0.357422
655.0796,0.366043
656.0115,0.368557
656.9433,0.370581
657.8751,0.384750
658.8070,0.393373
659.7388,0.386069
660.6706,0.376444
661.6025,0.372449
662.5343,0.371385
663.4661,0.374635
664.3980,0.377718
665.3298,0.370239
666.2616,0.353329
667.1935,0.340597
668.1253,0.349333
669.0571,0.381255
669.9890,0.380528
670.9208,0.362041
671.8526,0.354249
672.7845,0.352805
673.7163,0.350396
674.6481,0.352533
675.5800,0.353774
676.5118,0.351429
677.4437,0.353017
678.3755,0.351820
679.3073,0.349844
680.2392,0.350925
681.1710,0.348707
682.1028,0.344073
683.0347,0.342892
683.9665,0.344591
684.8983,0.343569
685.8302,0.337630
686.7620,0.335632
687.6938,0.342168
688.6257,0.343731
689.5575,0.333144
690.4893,0.327473
691.4212,0.329940
692.3530,0.328762
693.2848,0.327717
694.2167,0.329673
695.1485,0.327251
696.0803,0.329300
697.0122,0.329810
697.9440,0.323369
698.8758,0.319899
699.8077,0.322875
700.7395,0.324946
701.6713,0.321609
702.6032,0.316884
703.5350,0.312771
704.4669,0.305910
705.3987,0.306621
706.3305,0.310680
707.2624,0.307300
708.1942,0.305303
709.1260,0.306483
710.0579,0.305334
710.9897,0.305249
711.9215,0.305056
712.8534,0.304553
713.7852,0.303316
714.7170,0.300500
715.6489,0.300406
716.5807,0.300997
717.5125,0.296564
718.4444,0.294087
719.3762,0.294714
720.3080,0.295064
721.2399,0.292415
722.1717,0.288314
723.1035,0.284437
724.0354,0.286710
724.9672,0.288985
725.8990,0.286421
726.8309,0.281757
727.7627,0.280904
728.6945,0.281051
729.6264,0.280245
730.5582,0.280849
731.4901,0.281018
732.4219,0.277048
733.3537,0.275357
734.2856,0.275446
735.2174,0.273274
736.1492,0.271270
737.0811,0.270486
738.0129,0.269629
738.9447,0.268802
739.8766,0.268609
740.8084,0.267270
741.7402,0.265205
742.6721,0.263882
743.6039,0.261000
744.5357,0.258604
745.4676,0.258039
746.3994,0.256599
747.3312,0.255214
748.2631,0.254372
749.1949,0.252538
750.1267,0.253205
751.0586,0.252783
751.9904,0.249129
752.9222,0.246810
753.8541,0.244603
754.7859,0.242103
755.7177,0.241967
756.6496,0.241074
757.5814,0.239853
758.5132,0.239620
759.4451,0.238258
760.3769,0.237191
761.3088,0.237984
762.2406,0.237130
763.1724,0.234497
764.1043,0.232985
765.0361,0.232615
765.9679,0.230551
766.8998,0.227859
767.8316,0.226434
768.7634,0.227119
769.6953,0.227222
770.6271,0.225199
771.5589,0.222017
772.4908,0.220877
773.4226,0.219870
774.3544,0.219247
775.2863,0.217652
776.2181,0.215958
777.1499,0.215164
778.0818,0.213431
779.0136,0.212277
779.9454,0.211337
780.8773,0.208512
781.8091,0.206897
782.7409,0.207193
783.6728,0.208726
784.6046,0.207851
785.5364,0.206020
786.4683,0.204815
787.4001,0.202994
788.3320,0.200636
789.2638,0.198849
790.1956,0.197368
791.1275,0.195886
792.0593,0.194593
792.9911,0.194012
793.9230,0.193586
794.8548,0.192603
795.7866,0.191109
796.7185,0.189592
797.6503,0.188761
798.5821,0.188265
799.5140,0.186472
800.4458,0.185392
801.3776,0.185015
802.3095,0.184738
803.2413,0.184239
804.1731,0.182485
805.1050,0.181079
806.0368,0.180169
806.9686,0.177936
807.9005,0.176862
808.8323,0.176231
809.7641,0.174719
810.6960,0.173039
811.6278,0.172212
812.5596,0.171187
813.4915,0.169121
814.4233,0.167192
815.3552,0.165929
816.2870,0.164453
817.2188,0.162756
818.1507,0.161261
819.0825,0.160719
820.0143,0.159777
820.9462,0.158457
821.8780,0.158247
822.8098,0.157078
823.7417,0.154961
824.6735,0.153437
825.6053,0.152308
826.5372,0.152394
827.4690,0.152433
828.4008,0.151161
829.3327,0.148504
830.2645,0.146515
831.1963,0.146566
832.1282,0.146943
833.0600,0.145369
833.9918,0.143704
834.9237,0.142711
835.8555,0.141700
836.7873,0.140504
837.7192,0.140002
838.6510,0.139718
839.5828,0.138561
840.5147,0.136650
841.4465,0.135394
842.3784,0.134727
843.3102,0.134299
844.2420,0.133105
845.1739,0.132430
846.1057,0.132943
847.0375,0.131774
847.9694,0.129415
848.9012,0.129024
849.8330,0.129139
850.7649,0.127973
851.6967,0.127138
852.6285,0.126688
853.5604,0.125671
854.4922,0.124507
855.4240,0.123254
856.3559,0.122886
857.2877,0.122638
858.2195,0.122329
859.1514,0.121937
860.0832,0.121009
861.0150,0.120394
861.9469,0.120659
862.8787,0.120615
863.8105,0.120493
864.7424,0.121124
865.6742,0.121516
866.6060,0.122085
867.5379,0.123009
868.4697,0.124393
869.4016,0.126533
870.3334,0.128927
871.2652,0.131430
872.1971,0.134595
873.1289,0.139011
874.0607,0.143656
874.9926,0.148175
875.9244,0.151511
876.8562,0.153568
877.7881,0.154644
878.7199,0.154225
879.6517,0.151672
880.5836,0.147021
881.5154,0.140823
882.4472,0.134522
883.3791,0.128159
884.3109,0.121779
885.2427,0.116063
886.1746,0.111372
887.1064,0.106961
888.0382,0.103446
888.9701,0.100375
889.9019,0.097494
890.8337,0.095352
891.7656,0.093622
892.6974,0.091527
893.6292,0.089379
894.5611,0.088319
895.4929,0.087511
896.4247,0.086287
897.3566,0.085220
898.2884,0.084456
899.2203,0.083656
900.1521,0.083152
901.0839,0.082509
902.0158,0.081742
902.9476,0.080996
903.8794,0.079954
904.8113,0.079087
905.7431,0.078461
906.6749,0.078154
907.6068,0.077770
908.5386,0.076886
909.4704,0.076149
910.4023,0.075980
911.3341,0.075425
912.2659,0.074441
913.1978,0.073788
914.1296,0.073228
915.0614,0.072456
915.9933,0.071691
916.9251,0.071376
917.8569,0.071143
918.7888,0.071115
919.7206,0.070928
920.6524,0.070343
921.5843,0.069627
922.5161,0.069339
923.4479,0.068780
924.3798,0.068096
925.3116,0.067697
926.2435,0.066949
927.1753,0.066520
928.1071,0.066493
929.0390,0.066705
929.9708,0.066165
930.9026,0.065308
931.8345,0.065136
932.7663,0.064812
933.6981,0.064504
934.6300,0.064175
935.5618,0.063702
936.4936,0.063414
937.4255,0.063312
938.3573,0.063058
939.2891,0.062736
940.2210,0.062352
941.1528,0.061822
942.0846,0.061492
943.0165,0.061235
943.9483,0.060932
944.8801,0.060885
945.8120,0.060765
946.7438,0.060333
947.6756,0.059924
948.6075,0.059857
949.5393,0.059902
950.4711,0.059254
951.4030,0.058938
952.3348,0.058870
953.2667,0.058497
954.1985,0.058170
955.1303,0.058039
956.0622,0.057893
956.9940,0.057598
957.9258,0.057152
958.8577,0.057070
959.7895,0.057197
960.7213,0.057088
961.6532,0.057023
962.5850,0.056980
963.5168,0.056632
964.4487,0.056328
965.3805,0.056195
966.3123,0.056301
967.2442,0.056129
968.1760,0.055571
969.1078,0.055148
970.0397,0.055086
970.9715,0.055133
971.9033,0.054837
972.8352,0.054426
973.7670,0.054537
974.6988,0.054807
975.6307,0.054567
976.5625,0.054478
977.4943,0.054511
978.4262,0.054311
979.3580,0.054438
980.2899,0.054459
981.2217,0.054402
982.1535,0.054262
983.0854,0.053842
984.0172,0.053871
984.9490,0.054290
985.8809,0.054231
986.8127,0.054001
987.7445,0.053971
988.6764,0.053830
989.6082,0.053633
990.5400,0.053576
991.4719,0.053850
992.4037,0.054051
993.3355,0.054154
994.2674,0.054390
995.1992,0.054517
996.1310,0.054676
997.0629,0.054945
997.9947,0.055294
998.9265,0.055364
999.8584,0.055181
1000.7902,0.054837
1001.7220,0.055091
1002.6539,0.055412
1003.5857,0.055467
1004.5175,0.055596
1005.4494,0.056127
1006.3812,0.056649
1007.3131,0.056826
1008.2449,0.056855
1009.1767,0.057240
1010.1086,0.057907
1011.0404,0.058472
1011.9722,0.058929
1012.9041,0.059295
1013.8359,0.059718
1014.7677,0.060321
1015.6996,0.061203
1016.6314,0.062062
1017.5632,0.062879
1018.4951,0.063788
1019.4269,0.065057
1020.3587,0.066617
1021.2906,0.068037
1022.2224,0.069501
1023.1542,0.071287
1024.0861,0.073228
1025.0179,0.074941
1025.9497,0.077239
1026.8816,0.080134
1027.8134,0.083144
1028.7452,0.086149
1029.6771,0.089846
1030.6089,0.094339
1031.5407,0.099148
1032.4726,0.104844
1033.4044,0.111428
1034.3362,0.119279
1035.2681,0.128262
1036.1999,0.138229
1037.1318,0.149376
1038.0636,0.161377
1038.9954,0.174333
1039.9273,0.187602
1040.8591,0.200492
1041.7909,0.211798
1042.7228,0.220408
1043.6546,0.225364
1044.5864,0.226463
1045.5183,0.223542
1046.4501,0.216685
1047.3819,0.206229
1048.3138,0.193679
1049.2456,0.179878
1050.1774,0.165564
1051.1093,0.151548
1052.0411,0.138153
1052.9729,0.125709
1053.9048,0.114587
1054.8366,0.104964
1055.7684,0.096469
1056.7003,0.089517
1057.6321,0.084052
1058.5639,0.079465
1059.4958,0.075654
1060.4276,0.072579
1061.3594,0.070438
1062.2913,0.068575
1063.2231,0.067327
1064.1550,0.066677
1065.0868,0.066113
1066.0186,0.065734
1066.9505,0.065674
1067.8823,0.066211
1068.8141,0.066835
1069.7460,0.067880
1070.6778,0.069276
1071.6096,0.070464
1072.5415,0.071799
1073.4733,0.073791
1074.4051,0.075860
1075.3370,0.078049
1076.2688,0.080375
1077.2006,0.082811
1078.1325,0.085410
1079.0643,0.087735
1079.9961,0.090146
1080.9280,0.092586
1081.8598,0.094919
1082.7916,0.096935
1083.7235,0.098475
1084.6553,0.099386
1085.5871,0.099633
1086.5190,0.099191
1087.4508,0.097800
1088.3826,0.095579
1089.3145,0.092945
1090.2463,0.089992
1091.1782,0.086405
1092.1100,0.082602
1093.0418,0.078903
1093.9737,0.075120
1094.9055,0.071465
1095.8373,0.067939
1096.7692,0.065062
1097.7010,0.062599
1098.6328,0.060237
1099.5647,0.057961
1100.4965,0.055894
1101.4283,0.054218
1102.3602,0.052710
1103.2920,0.051437
1104.2238,0.050401
1105.1557,0.049548
1106.0875,0.048650
1107.0193,0.047807
1107.9512,0.047263
1108.8830,0.046788
1109.8148,0.046339
1110.7467,0.046052
1111.6785,0.045825
1112.6103,0.045615
1113.5422,0.045250
1114.4740,0.044868
1115.4058,0.044696
1116.3377,0.044714
1117.2695,0.044806
1118.2014,0.044667
1119.1332,0.044450
1120.0650,0.044406
1120.9969,0.044466
1121.9287,0.044630
1122.8605,0.044534
1123.7924,0.044396
1124.7242,0.044601
1125.6560,0.044969
1126.5879,0.044939
1127.5197,0.044449
1128.4515,0.044140
1129.3834,0.044105
1130.3152,0.044074
1131.2470,0.043797
1132.1789,0.043749
1133.1107,0.043837
1134.0425,0.043645
1134.9744,0.043466
1135.9062,0.043379
1136.8380,0.043047
1137.7699,0.042759
1138.7017,0.042589
1139.6335,0.042677
1140.5654,0.042900
1141.4972,0.042791
1142.4290,0.042678
1143.3609,0.042655
1144.2927,0.042461
1145.2246,0.042342
1146.1564,0.042722
1147.0882,0.042812
1148.0201,0.042576
1148.9519,0.042378
1149.8837,0.042318
1150.8156,0.042224
1151.7474,0.042343
1152.6792,0.042427
1153.6111,0.042534
1154.5429,0.042517
1155.4747,0.042281
1156.4066,0.042178
1157.3384,0.042125
1158.2702,0.042210
1159.2021,0.042124
1160.1339,0.041864
1161.0657,0.041936
1161.9976,0.041793
1162.9294,0.041611
1163.8612,0.041303
1164.7931,0.041015
1165.7249,0.040942
1166.6567,0.040751
1167.5886,0.040579
1168.5204,0.040521
1169.4522,0.040343
1170.3841,0.040304
1171.3159,0.040357
1172.2477,0.040364
1173.1796,0.040166
1174.1114,0.040035
1175.0433,0.040025
1175.9751,0.040112
1176.9069,0.040328
1177.8388,0.040226
1178.7706,0.040149
1179.7024,0.040140
1180.6343,0.040031
1181.5661,0.040079
1182.4979,0.040183
1183.4298,0.040218
1184.3616,0.040130
1185.2934,0.040066
1186.2253,0.040223
1187.1571,0.040274
1188.0889,0.040190
1189.0208,0.040372
1189.9526,0.040371
1190.8844,0.040279
1191.8163,0.040403
1192.7481,0.040417
1193.6799,0.040354
1194.6118,0.040212
1195.5436,0.040238
1196.4754,0.040466
1197.4073,0.040431
1198.3391,0.040485
1199.2709,0.040447
1200.2028,0.040350
1201.1346,0.040349
1202.0665,0.040395
1202.9983,0.040497
1203.9301,0.040430
1204.8620,0.040315
1205.7938,0.040086
1206.7256,0.040211
1207.6575,0.040534
1208.5893,0.040517
1209.5211,0.040610
1210.4530,0.040819
1211.3848,0.040687
1212.3166,0.040532
1213.2485,0.040695
1214.1803,0.040906
1215.1121,0.040963
1216.0440,0.041030
1216.9758,0.040934
1217.9076,0.040927
1218.8395,0.041113
1219.7713,0.040949
1220.7031,0.040901
1221.6350,0.041198
1222.5668,0.041268
1223.4986,0.041235
1224.4305,0.041262
1225.3623,0.041410
1226.2941,0.041223
1227.2260,0.041139
1228.1578,0.041428
1229.0897,0.041632
1230.0215,0.041831
1230.9533,0.042036
1231.8852,0.042082
1232.8170,0.042078
1233.7488,0.041902
1234.6807,0.042006
1235.6125,0.042026
1236.5443,0.042064
1237.4762,0.042226
1238.4080,0.042331
1239.3398,0.042573
1240.2717,0.042789
1241.2035,0.042825
1242.1353,0.042710
1243.0672,0.042540
1243.9990,0.042622
1244.9308,0.042977
1245.8627,0.043394
1246.7945,0.043601
1247.7263,0.043792
1248.6582,0.043794
1249.5900,0.043595
1250.5218,0.043581
1251.4537,0.043913
1252.3855,0.044337
1253.3173,0.044635
1254.2492,0.044838
1255.1810,0.044819
1256.1129,0.044964
1257.0447,0.045520
1257.9765,0.045847
1258.9084,0.046008
1259.8402,0.046363
1260.7720,0.046774
1261.7039,0.047232
1262.6357,0.047663
1263.5675,0.048066
1264.4994,0.048464
1265.4312,0.049036
1266.3630,0.049348
1267.2949,0.049649
1268.2267,0.050169
1269.1585,0.050862
1270.0904,0.051386
1271.0222,0.051609
1271.9540,0.051905
1272.8859,0.052469
1273.8177,0.052685
1274.7495,0.052489
1275.6814,0.052489
1276.6132,0.052413
1277.5450,0.052006
1278.4769,0.051506
1279.4087,0.051029
1280.3405,0.050685
1281.2724,0.050618
1282.2042,0.050394
1283.1361,0.049890
1284.0679,0.049744
1284.9997,0.049584
1285.9316,0.049059
1286.8634,0.048913
1287.7952,0.049036
1288.7271,0.048997
1289.6589,0.049011
1290.5907,0.049074
1291.5226,0.048992
1292.4544,0.049007
1293.3862,0.049018
1294.3181,0.049212
1295.2499,0.049530
1296.1817,0.049552
1297.1136,0.049585
1298.0454,0.049519
1298.9772,0.049730
1299.9091,0.050131
1300.8409,0.050225
1301.7727,0.050453
1302.7046,0.050891
1303.6364,0.051038
1304.5682,0.051217
1305.5001,0.051282
1306.4319,0.051334
1307.3637,0.051751
1308.2956,0.052341
1309.2274,0.052645
1310.1592,0.052510
1311.0911,0.052625
1312.0229,0.052835
1312.9548,0.052872
1313.8866,0.052931
1314.8184,0.053317
1315.7503,0.053526
1316.6821,0.053549
1317.6139,0.053909
1318.5458,0.054209
1319.4776,0.054549
1320.4094,0.055121
1321.3413,0.055013
1322.2731,0.054507
1323.2049,0.054432
1324.1368,0.054461
1325.0686,0.054419
1326.0004,0.054648
1326.9323,0.054679
1327.8641,0.054463
1328.7959,0.054280
1329.7278,0.054161
1330.6596,0.054187
1331.5914,0.054048
1332.5233,0.053828
1333.4551,0.053676
1334.3869,0.053411
1335.3188,0.052807
1336.2506,0.052282
1337.1824,0.052140
1338.1143,0.052019
1339.0461,0.051950
1339.9780,0.052224
1340.9098,0.052345
1341.8416,0.052204
1342.7735,0.051562
1343.7053,0.050960
1344.6371,0.050661
1345.5690,0.050364
1346.5008,0.049883
1347.4326,0.049666
1348.3645,0.049449
1349.2963,0.049239
1350.2281,0.049282
1351.1600,0.049244
1352.0918,0.048889
1353.0236,0.048795
1353.9555,0.048819
1354.8873,0.048657
1355.8191,0.048634
1356.7510,0.048567
1357.6828,0.048278
1358.6146,0.048340
1359.5465,0.048194
1360.4783,0.047848
1361.4101,0.047812
1362.3420,0.048299
1363.2738,0.049236
1364.2056,0.050491
1365.1375,0.050133
1366.0693,0.049469
1367.0012,0.049597
1367.9330,0.050167
1368.8648,0.051002
1369.7967,0.051926
1370.7285,0.052522
1371.6603,0.052740
1372.5922,0.053245
1373.5240,0.054417
1374.4558,0.056288
1375.3877,0.058178
1376.3195,0.059235
1377.2513,0.059715
1378.1832,0.060289
1379.1150,0.060894
1380.0468,0.061159
1380.9787,0.061770
1381.9105,0.062230
1382.8423,0.062211
1383.7742,0.062318
1384.7060,0.062301
1385.6378,0.061923
1386.5697,0.061864
1387.5015,0.062722
1388.4333,0.063697
1389.3652,0.063213
1390.2970,0.061968
1391.2288,0.060884
1392.1607,0.060266
1393.0925,0.059592
1394.0244,0.059078
1394.9562,0.059488
1395.8880,0.060498
1396.8199,0.060393
1397.7517,0.059853
1398.6835,0.060125
1399.6154,0.061050
1400.5472,0.061658
1401.4790,0.061103
1402.4109,0.060257
1403.3427,0.059912
1404.2745,0.060164
1405.2064,0.060879
1406.1382,0.061764
1407.0700,0.062004
1408.0019,0.061605
1408.9337,0.061314
1409.8655,0.061357
1410.7974,0.061820
1411.7292,0.062283
1412.6610,0.062357
1413.5929,0.062060
1414.5247,0.061606
1415.4565,0.061155
1416.3884,0.060485
1417.3202,0.060109
1418.2520,0.060874
1419.1839,0.061896
1420.1157,0.063243
1421.0476,0.063615
1421.9794,0.061814
1422.9112,0.060783
1423.8431,0.060559
1424.7749,0.060997
1425.7067,0.060812
1426.6386,0.059638
1427.5704,0.058701
1428.5022,0.058156
1429.4341,0.057951
1430.3659,0.058009
1431.2977,0.058091
1432.2296,0.057170
1433.1614,0.055941
1434.0932,0.055273
1435.0251,0.054830
1435.9569,0.054530
1436.8887,0.055042
1437.8206,0.056433
1438.7524,0.056321
1439.6842,0.055453
1440.6161,0.054542
1441.5479,0.054057
1442.4797,0.054260
1443.4116,0.054456
1444.3434,0.054459
1445.2752,0.054810
1446.2071,0.055412
1447.1389,0.055967
1448.0707,0.057010
1449.0026,0.059016
1449.9344,0.059835
1450.8663,0.059211
1451.7981,0.058942
1452.7299,0.059130
1453.6618,0.059246
1454.5936,0.058367
1455.5254,0.057011
1456.4573,0.056531
1457.3891,0.058234
1458.3209,0.059254
1459.2528,0.057390
1460.1846,0.055606
1461.1164,0.053290
1462.0483,0.051029
1462.9801,0.049747
1463.9119,0.048861
1464.8438,0.048493
1465.7756,0.049395
1466.7074,0.049135
1467.6393,0.047234
1468.5711,0.046128
1469.5029,0.045307
1470.4348,0.044222
1471.3666,0.043408
1472.2984,0.043568
1473.2303,0.045407
1474.1621,0.047074
1475.0939,0.046296
1476.0258,0.045096
1476.9576,0.045477
1477.8895,0.046216
1478.8213,0.045719
1479.7531,0.045253
1480.6850,0.045280
1481.6168,0.045916
1482.5486,0.046379
1483.4805,0.045989
1484.4123,0.045426
1485.3441,0.045019
1486.2760,0.044835
1487.2078,0.044773
1488.1396,0.044887
1489.0715,0.045301
1490.0033,0.044949
1490.9351,0.044953
1491.8670,0.045080
1492.7988,0.043762
1493.7306,0.042445
1494.6625,0.041743
1495.5943,0.041256
1496.5261,0.041172
1497.4580,0.042106
1498.3898,0.042540
1499.3216,0.042843
1500.2535,0.042993
1501.1853,0.041746
1502.1171,0.040797
1503.0490,0.040160
1503.9808,0.039683
1504.9127,0.039469
1505.8445,0.039373
1506.7763,0.040819
1507.7082,0.044138
1508.6400,0.044659
1509.5718,0.043140
1510.5037,0.042253
1511.4355,0.041753
1512.3673,0.040995
1513.2992,0.041162
1514.2310,0.041106
1515.1628,0.040474
1516.0947,0.040482
1517.0265,0.040673
1517.9583,0.041406
1518.8902,0.041852
1519.8220,0.040612
1520.7538,0.039918
1521.6857,0.041090
1522.6175,0.043411
1523.5493,0.043332
1524.4812,0.042060
1525.4130,0.041671
1526.3448,0.042603
1527.2767,0.043073
1528.2085,0.042696
1529.1403,0.042281
1530.0722,0.042036
1531.0040,0.041524
1531.9359,0.041145
1532.8677,0.041501
1533.7995,0.042506
1534.7314,0.043964
1535.6632,0.043822
1536.5950,0.042578
1537.5269,0.041391
1538.4587,0.040571
1539.3905,0.040737
1540.3224,0.042742
1541.2542,0.044816
1542.1860,0.044523
1543.1179,0.044775
1544.0497,0.045040
1544.9815,0.045097
1545.9134,0.045750
1546.8452,0.045748
1547.7770,0.044522
1548.7089,0.043783
1549.6407,0.044127
1550.5725,0.045172
1551.5044,0.045929
1552.4362,0.045538
1553.3680,0.044888
1554.2999,0.044593
1555.2317,0.044909
1556.1635,0.045342
1557.0954,0.044599
1558.0272,0.044266
1558.9591,0.046772
1559.8909,0.052085
1560.8227,0.054033
1561.7546,0.051910
1562.6864,0.049308
1563.6182,0.048451
1564.5501,0.048762
1565.4819,0.049582
1566.4137,0.050078
1567.3456,0.049903
1568.2774,0.049781
1569.2092,0.050449
1570.1411,0.052060
1571.0729,0.053332
1572.0047,0.052655
1572.9366,0.051374
1573.8684,0.051081
1574.8002,0.052108
1575.7321,0.053139
1576.6639,0.055009
1577.5957,0.058223
1578.5276,0.058577
1579.4594,0.057620
1580.3912,0.057388
1581.3231,0.057718
1582.2549,0.058097
1583.1867,0.058624
1584.1186,0.059278
1585.0504,0.060093
1585.9822,0.061207
1586.9141,0.062258
1587.8459,0.063033
1588.7778,0.063805
1589.7096,0.064955
1590.6414,0.065955
1591.5733,0.066462
1592.5051,0.067003
1593.4369,0.068299
1594.3688,0.069848
1595.3006,0.071063
1596.2324,0.072209
1597.1643,0.073674
1598.0961,0.074725
1599.0279,0.075367
1599.9598,0.076450
1600.8916,0.077794
1601.8234,0.079462
1602.7553,0.081385
1603.6871,0.082833
1604.6189,0.084569
1605.5508,0.086324
1606.4826,0.087581
1607.4144,0.088899
1608.3463,0.091054
1609.2781,0.093622
1610.2099,0.095500
1611.1418,0.096955
1612.0736,0.098187
1613.0054,0.099244
1613.9373,0.100784
1614.8691,0.102664
1615.8010,0.104715
1616.7328,0.108669
1617.6646,0.115776
1618.5965,0.119770
1619.5283,0.118049
1620.4601,0.117155
1621.3920,0.118174
1622.3238,0.120219
1623.2556,0.122824
1624.1875,0.127270
1625.1193,0.132208
1626.0511,0.132392
1626.9830,0.131307
1627.9148,0.133174
1628.8466,0.137577
1629.7785,0.139975
1630.7103,0.139036
1631.6421,0.138095
1632.5740,0.137858
1633.5058,0.137823
1634.4376,0.138588
1635.3695,0.141357
1636.3013,0.147909
1637.2331,0.152821
1638.1650,0.151597
1639.0968,0.149742
1640.0286,0.147623
1640.9605,0.145741
1641.8923,0.144707
1642.8242,0.144064
1643.7560,0.142812
1644.6878,0.141295
1645.6197,0.141277
1646.5515,0.142755
1647.4833,0.145329
1648.4152,0.145117
1649.3470,0.141547
1650.2788,0.137910
1651.2107,0.135474
1652.1425,0.134168
1653.0743,0.135473
1654.0062,0.142810
1654.9380,0.145848
1655.8698,0.138914
1656.8017,0.132819
1657.7335,0.129389
1658.6653,0.127338
1659.5972,0.125256
1660.5290,0.123450
1661.4608,0.122138
1662.3927,0.120981
1663.3245,0.120653
1664.2563,0.119689
1665.1882,0.116453
1666.1200,0.113458
1667.0518,0.111012
1667.9837,0.108763
1668.9155,0.107716
1669.8474,0.107814
1670.7792,0.107177
1671.7110,0.104269
1672.6429,0.101526
1673.5747,0.099429
1674.5065,0.097391
1675.4384,0.096247
1676.3702,0.096265
1677.3020,0.094811
1678.2339,0.091404
1679.1657,0.088377
1680.0975,0.086579
1681.0294,0.084913
1681.9612,0.082348
1682.8930,0.080724
1683.8249,0.080175
1684.7567,0.080383
1685.6885,0.080544
1686.6204,0.078318
1687.5522,0.075434
1688.4840,0.073158
1689.4159,0.071435
1690.3477,0.069911
1691.2795,0.068143
1692.2114,0.066124
1693.1432,0.064361
1694.0750,0.062696
1695.0069,0.061207
1695.9387,0.060320
1696.8706,0.059746
1697.8024,0.058470
1698.7342,0.056494
1699.6661,0.054725
1700.5979,0.053899
1701.5297,0.054059
1702.4616,0.052974
1703.3934,0.050833
1704.3252,0.049336
1705.2571,0.048530
1706.1889,0.047745
1707.1207,0.047017
1708.0526,0.046472
1708.9844,0.045322
1709.9162,0.043800
1710.8481,0.042295
1711.7799,0.041198
1712.7117,0.040865
1713.6436,0.040112
1714.5754,0.039056
1715.5072,0.038303
1716.4391,0.037336
1717.3709,0.036920
1718.3027,0.036842
1719.2346,0.036066
1720.1664,0.034960
1721.0982,0.034056
1722.0301,0.033380
1722.9619,0.032767
1723.8937,0.032324
1724.8256,0.031806
1725.7574,0.030958
1726.6893,0.030192
1727.6211,0.029563
1728.5529,0.029035
1729.4848,0.028628
1730.4166,0.028329
1731.3484,0.027957
1732.2803,0.027145
1733.2121,0.026292
1734.1439,0.025730
1735.0758,0.025604
1736.0076,0.025942
1736.9394,0.025119
1737.8713,0.024392
1738.8031,0.024152
1739.7349,0.024062
1740.6668,0.024058
1741.5986,0.023616
1742.5304,0.023130
1743.4623,0.023049
1744.3941,0.022811
1745.3259,0.021906
1746.2578,0.021440
1747.1896,0.021605
1748.1214,0.021527
1749.0533,0.021071
1749.9851,0.020339
1750.9169,0.020104
1751.8488,0.020330
1752.7806,0.020428
1753.7125,0.019871
1754.6443,0.019547
1755.5761,0.019269
1756.5080,0.018729
1757.4398,0.018745
1758.3716,0.019200
1759.3035,0.018846
1760.2353,0.017941
1761.1671,0.017497
1762.0990,0.017500
1763.0308,0.017621
1763.9626,0.017435
1764.8945,0.017209
1765.8263,0.016946
1766.7581,0.016493
1767.6900,0.016459
1768.6218,0.016468
1769.5536,0.016599
1770.4855,0.016970
1771.4173,0.016335
1772.3491,0.015395
1773.2810,0.015201
1774.2128,0.015519
1775.1446,0.015364
1776.0765,0.015325
1777.0083,0.015555
1777.9401,0.015253
1778.8720,0.014782
1779.8038,0.014823
1780.7357,0.014533
1781.6675,0.014260
1782.5993,0.014479
1783.5312,0.014269
1784.4630,0.014148
1785.3948,0.013955
1786.3267,0.013400
1787.2585,0.013428
1788.1903,0.013855
1789.1222,0.013762
1790.0540,0.013386
1790.9858,0.013025
1791.9177,0.013380
1792.8495,0.014138
1793.7813,0.013831
1794.7132,0.012967
1795.6450,0.012562
1796.5768,0.012512
1797.5087,0.012638
1798.4405,0.012463
1799.3723,0.012089
1800.3042,0.012427
1801.2360,0.012828
1802.1678,0.012013
1803.0997,0.011630
1804.0315,0.012610
1804.9633,0.012734
1805.8952,0.012197
1806.8270,0.012343
1807.7589,0.012472
1808.6907,0.012446
1809.6225,0.012305
1810.5544,0.012197
1811.4862,0.012065
1812.4180,0.011552
1813.3499,0.011374
1814.2817,0.011435
1815.2135,0.011333
1816.1454,0.011450
1817.0772,0.011140
1818.0090,0.010930
1818.9409,0.010894
1819.8727,0.010545
1820.8045,0.010380
1821.7364,0.010534
1822.6682,0.010914
1823.6000,0.011311
1824.5319,0.011395
1825.4637,0.011450
1826.3955,0.010752
1827.3274,0.010040
1828.2592,0.010347
1829.1910,0.010203
1830.1229,0.009851
1831.0547,0.010756
1831.9865,0.011395
1832.9184,0.010491
1833.8502,0.010125
1834.7821,0.010587
1835.7139,0.010286
1836.6457,0.009784
1837.5776,0.010356
1838.5094,0.010239
1839.4412,0.009583
1840.3731,0.009569
1841.3049,0.010062
1842.2367,0.010585
1843.1686,0.010388
1844.1004,0.009903
1845.0322,0.009309
1845.9641,0.009177
1846.8959,0.009872
1847.8277,0.010099
1848.7596,0.010079
1849.6914,0.009959
1850.6232,0.009513
1851.5551,0.009206
1852.4869,0.009642
1853.4187,0.009959
1854.3506,0.010379
1855.2824,0.010499
1856.2142,0.009867
1857.1461,0.009453
1858.0779,0.009597
1859.0097,0.010106
1859.9416,0.010495
1860.8734,0.010213
1861.8052,0.009540
1862.7371,0.008747
1863.6689,0.009328
1864.6008,0.009723
1865.5326,0.009324
1866.4644,0.009278
1867.3963,0.008436
1868.3281,0.008329
1869.2599,0.009228
1870.1918,0.009806
1871.1236,0.009380
1872.0554,0.008441
1872.9873,0.008942
1873.9191,0.009306
1874.8509,0.008577
1875.7828,0.008328
1876.7146,0.008571
1877.6464,0.008843
1878.5783,0.009309
1879.5101,0.009842
1880.4419,0.009884
1881.3738,0.009337
1882.3056,0.008864
1883.2374,0.009320
1884.1693,0.009369
1885.1011,0.009288
1886.0329,0.009464
1886.9648,0.009022
1887.8966,0.008695
1888.8284,0.008733
1889.7603,0.008067
1890.6921,0.008232
1891.6240,0.008797
1892.5558,0.008737
1893.4876,0.008659
1894.4195,0.008187
1895.3513,0.008321
1896.2831,0.008438
1897.2150,0.008870
1898.1468,0.009187
1899.0786,0.008278
1900.0105,0.007952
1900.9423,0.008550
1901.8741,0.008262
1902.8060,0.007824
1903.7378,0.008175
1904.6696,0.007978
1905.6015,0.008719
1906.5333,0.009962
1907.4651,0.009751
1908.3970,0.009451
1909.3288,0.009192
1910.2606,0.007918
1911.1925,0.009211
1912.1243,0.010115
1913.0561,0.010033
1913.9880,0.009865
1914.9198,0.009555
1915.8516,0.008988
1916.7835,0.009112
1917.7153,0.008847
1918.6472,0.008824
1919.5790,0.008863
1920.5108,0.008189
1921.4427,0.008646
1922.3745,0.009479
1923.3063,0.009001
1924.2382,0.008088
1925.1700,0.008206
1926.1018,0.008700
1927.0337,0.009386
1927.9655,0.008944
1928.8973,0.008433
1929.8292,0.008146
1930.7610,0.007967
1931.6928,0.008012
1932.6247,0.007874
1933.5565,0.007281
1934.4883,0.007543
1935.4202,0.007989
1936.3520,0.007469
1937.2838,0.006672
1938.2157,0.007614
1939.1475,0.008609
1940.0793,0.007425
1941.0112,0.006575
1941.9430,0.007808
1942.8748,0.008909
1943.8067,0.007468
1944.7385,0.004511
1945.6704,0.004415
1946.6022,0.005934
1947.5340,0.006859
1948.4659,0.007255
1949.3977,0.007270
1950.3295,0.007624
1951.2614,0.006407
1952.1932,0.003283
1953.1250,0.002871
1954.0569,0.004134
1954.9887,0.007476
1955.9205,0.007799
1956.8524,0.005637
1957.7842,0.005810
1958.7160,0.005436
1959.6479,0.005941
1960.5797,0.008370
1961.5115,0.009683
1962.4434,0.009094
1963.3752,0.006281
1964.3070,0.005094
1965.2389,0.005504
1966.1707,0.004430
1967.1025,0.004372
1968.0344,0.004777
1968.9662,0.002913
1969.8980,0.002898
1970.8299,0.004936
1971.7617,0.004906
1972.6936,0.004961
1973.6254,0.003471
1974.5572,0.002092
1975.4891,0.001826
1976.4209,0.001131
1977.3527,0.001181
1978.2846,0.001263
1979.2164,0.002679
1980.1482,0.005661
1981.0801,0.005769
1982.0119,0.003752
1982.9437,0.005800
1983.8756,0.005624
1984.8074,0.000863
1985.7392,-0.000687
1986.6711,0.003434
1987.6029,0.004744
1988.5347,0.003666
1989.4666,0.003887
1990.3984,0.005333
1991.3302,0.005670
1992.2621,0.004336
1993.1939,0.006707
1994.1257,0.008177
1995.0576,0.008153
1995.9894,0.008070
1996.9212,0.007763
1997.8531,0.005548
1998.7849,0.002689
1999.7167,0.004949
2000.6486,0.007121
2001.5804,0.005728
2002.5123,0.006949
2003.4441,0.007732
2004.3759,0.006040
2005.3078,0.004212
2006.2396,0.006095
2007.1714,0.007014
2008.1033,0.007582
2009.0351,0.008663
2009.9669,0.007789
2010.8988,0.007955
2011.8306,0.006293
2012.7624,0.005952
2013.6943,0.007986
2014.6261,0.006354
2015.5579,0.003486
2016.4898,0.006182
2017.4216,0.010632
2018.3534,0.008728
2019.2853,0.003468
2020.2171,0.000445
2021.1489,0.001830
2022.0808,0.003411
2023.0126,0.002012
2023.9444,0.002155
2024.8763,0.003221
2025.8081,0.004740
2026.7399,0.007675
2027.6718,0.009328
2028.6036,0.005995
2029.5355,0.002466
2030.4673,0.006350
2031.3991,0.007868
2032.3310,0.006632
2033.2628,0.005681
2034.1946,0.004033
2035.1265,0.003381
2036.0583,0.004703
2036.9901,0.007792
2037.9220,0.006166
2038.8538,0.004041
2039.7856,0.005069
2040.7175,0.006041
2041.6493,0.006974
2042.5811,0.008163
2043.5130,0.009611
2044.4448,0.008543
2045.3766,0.005708
2046.3085,0.006925
2047.2403,0.009293
2048.1721,0.009345
2049.1040,0.008492
2050.0358,0.006769
2050.9676,0.006611
2051.8995,0.008646
2052.8313,0.009150
2053.7631,0.008993
2054.6950,0.009160
2055.6268,0.008250
2056.5587,0.007634
2057.4905,0.009153
2058.4223,0.010301
2059.3542,0.010650
2060.2860,0.011143
2061.2178,0.012166
2062.1497,0.012263
2063.0815,0.011355
2064.0133,0.012065
2064.9452,0.012748
2065.8770,0.011193
2066.8088,0.009765
2067.7407,0.010597
2068.6725,0.012756
2069.6043,0.013471
2070.5362,0.011966
2071.4680,0.011865
2072.3998,0.012160
2073.3317,0.011514
2074.2635,0.011957
2075.1953,0.013044
2076.1272,0.013632
2077.0590,0.013105
2077.9908,0.011658
2078.9227,0.012327
2079.8545,0.013822
2080.7863,0.013017
2081.7182,0.011917
2082.6500,0.013112
2083.5819,0.014815
2084.5137,0.015012
2085.4455,0.013993
2086.3774,0.012489
2087.3092,0.012502
2088.2410,0.013264
2089.1729,0.013304
2090.1047,0.012644
2091.0365,0.013881
2091.9684,0.014444
2092.9002,0.012020
2093.8320,0.011105
2094.7639,0.012264
2095.6957,0.013065
2096.6275,0.012825
2097.5594,0.012972
2098.4912,0.013645
2099.4230,0.011712
2100.3549,0.011189
2101.2867,0.013249
2102.2185,0.014239
2103.1504,0.013559
2104.0822,0.012245
2105.0140,0.012489
2105.9459,0.014041
2106.8777,0.014760
2107.8095,0.014332
2108.7414,0.013953
2109.6732,0.013979
2110.6051,0.012539
2111.5369,0.011457
2112.4687,0.012741
2113.4006,0.015898
2114.3324,0.015443
2115.2642,0.013663
2116.1961,0.012152
2117.1279,0.012708
2118.0597,0.014042
2118.9916,0.014859
2119.9234,0.013620
2120.8552,0.012461
2121.7871,0.011774
2122.7189,0.012866
2123.6507,0.013733
2124.5826,0.013189
2125.5144,0.011779
2126.4462,0.012690
2127.3781,0.014390
2128.3099,0.013206
2129.2417,0.013774
2130.1736,0.015272
2131.1054,0.014694
2132.0372,0.014626
2132.9691,0.013830
2133.9009,0.011804
2134.8327,0.010494
2135.7646,0.011888
2136.6964,0.014082
2137.6282,0.012661
2138.5601,0.011057
2139.4919,0.010199
2140.4238,0.010158
2141.3556,0.009670
2142.2874,0.008045
2143.2193,0.009259
2144.1511,0.009503
2145.0829,0.006515
2146.0148,0.008688
2146.9466,0.009229
2147.8784,0.008422
2148.8103,0.011592
2149.7421,0.012645
2150.6739,0.007913
2151.6058,0.005791
2152.5376,0.009104
2153.4694,0.009009
2154.4013,0.007330
2155.3331,0.006593
2156.2649,0.007218
2157.1968,0.010332
2158.1286,0.010927
2159.0604,0.006561
2159.9923,0.006349
2160.9241,0.007616
2161.8559,0.008704
2162.7878,0.006264
2163.7196,0.003400
2164.6514,0.001505
2165.5833,0.001312
2166.5151,0.001944
2167.4470,0.005373
2168.3788,0.006383
2169.3106,0.006111
2170.2425,0.007875
2171.1743,0.010996
2172.1061,0.011012
2173.0380,0.009060
2173.9698,0.007574
2174.9016,0.006748
2175.8335,0.007426
2176.7653,0.005983
2177.6971,0.006685
2178.6290,0.009207
2179.5608,0.009729
2180.4926,0.009498
2181.4245,0.009074
2182.3563,0.007259
2183.2881,0.006876
2184.2200,0.009086
2185.1518,0.010038
2186.0836,0.009989
2187.0155,0.008849
2187.9473,0.009181
2188.8791,0.007219
2189.8110,0.007825
2190.7428,0.009149
2191.6746,0.008345
2192.6065,0.007904
2193.5383,0.006637
2194.4702,0.005761
2195.4020,0.005808
2196.3338,0.005817
2197.2657,0.007424
2198.1975,0.008775
2199.1293,0.010070
2200.0612,0.008583
2200.9930,0.005967
2201.9248,0.007569
2202.8567,0.010314
2203.7885,0.009909
2204.7203,0.007954
2205.6522,0.008567
2206.5840,0.010600
2207.5158,0.008744
2208.4477,0.006993
2209.3795,0.006459
2210.3113,0.007915
2211.2432,0.008089
2212.1750,0.008595
2213.1068,0.007321
2214.0387,0.007739
2214.9705,0.008673
2215.9023,0.008755
2216.8342,0.010015
2217.7660,0.009592
2218.6978,0.006645
2219.6297,0.007543
2220.5615,0.009202
2221.4934,0.010090
2222.4252,0.008911
2223.3570,0.008150
2224.2889,0.009297
2225.2207,0.010005
2226.1525,0.008417
2227.0844,0.006704
2228.0162,0.006257
2228.9480,0.006474
2229.8799,0.009091
2230.8117,0.010664
2231.7435,0.008699
2232.6754,0.007182
2233.6072,0.006901
2234.5390,0.007064
2235.4709,0.009822
2236.4027,0.009526
2237.3345,0.006844
2238.2664,0.006964
2239.1982,0.008954
2240.1300,0.008642
2241.0619,0.008005
2241.9937,0.009090
2242.9255,0.010179
2243.8574,0.009267
2244.7892,0.008276
2245.7210,0.008343
2246.6529,0.008860
2247.5847,0.008897
2248.5166,0.007663
2249.4484,0.008183
2250.3802,0.008578
2251.3121,0.008492
2252.2439,0.008959
2253.1757,0.010164
2254.1076,0.012135
2255.0394,0.010057
2255.9712,0.008107
2256.9031,0.008390
2257.8349,0.008867
2258.7667,0.009648
2259.6986,0.009427
2260.6304,0.008527
2261.5622,0.009752
2262.4941,0.010161
2263.4259,0.009767
2264.3577,0.009039
2265.2896,0.009086
2266.2214,0.009584
2267.1532,0.009844
2268.0851,0.010565
2269.0169,0.010506
2269.9487,0.009264
2270.8806,0.009503
2271.8124,0.010006
2272.7442,0.009415
2273.6761,0.009507
2274.6079,0.009626
2275.5397,0.009595
2276.4716,0.009098
2277.4034,0.008017
2278.3353,0.008461
2279.2671,0.009134
2280.1989,0.009185
2281.1308,0.009455
2282.0626,0.009123
2282.9944,0.008270
2283.9263,0.008547
2284.8581,0.009763
2285.7899,0.010247
2286.7218,0.009533
2287.6536,0.008773
2288.5854,0.008724
2289.5173,0.009672
2290.4491,0.009904
2291.3809,0.009813
2292.3128,0.010200
2293.2446,0.010739
2294.1764,0.010368
2295.1083,0.009756
2296.0401,0.009177
2296.9719,0.009123
2297.9038,0.009590
2298.8356,0.010173
2299.7674,0.009948
2300.6993,0.009202
2301.6311,0.009644
2302.5629,0.010042
2303.4948,0.008795
2304.4266,0.008539
2305.3585,0.009249
2306.2903,0.009646
2307.2221,0.009061
2308.1540,0.008747
2309.0858,0.009503
2310.0176,0.009567
2310.9495,0.008889
2311.8813,0.008781
2312.8131,0.008813
2313.7450,0.008534
2314.6768,0.008168
2315.6086,0.008046
2316.5405,0.008064
2317.4723,0.008932
2318.4041,0.009289
2319.3360,0.008476
2320.2678,0.008914
2321.1996,0.008804
2322.1315,0.008586
2323.0633,0.009051
2323.9951,0.009727
2324.9270,0.009870
2325.8588,0.009246
2326.7906,0.009723
2327.7225,0.009928
2328.6543,0.008960
2329.5861,0.007554
2330.5180,0.007349
2331.4498,0.008037
2332.3817,0.008491
2333.3135,0.008871
2334.2453,0.009298
2335.1772,0.009285
2336.1090,0.008793
2337.0408,0.008310
2337.9727,0.008039
2338.9045,0.007924
2339.8363,0.007791
2340.7682,0.007526
2341.7000,0.008354
2342.6318,0.010026
2343.5637,0.010047
2344.4955,0.008858
2345.4273,0.008090
2346.3592,0.007946
2347.2910,0.007980
2348.2228,0.007889
2349.1547,0.008222
2350.0865,0.008456
2351.0183,0.008841
2351.9502,0.008825
2352.8820,0.008157
2353.8138,0.007462
2354.7457,0.007533
2355.6775,0.008074
2356.6093,0.007341
2357.5412,0.006962
2358.4730,0.007542
2359.4049,0.007630
2360.3367,0.007676
2361.2685,0.007772
2362.2004,0.007300
2363.1322,0.006403
2364.0640,0.006514
2364.9959,0.006980
2365.9277,0.007558
2366.8595,0.007546
2367.7914,0.007810
2368.7232,0.008942
2369.6550,0.009304
2370.5869,0.007951
2371.5187,0.007118
2372.4505,0.007776
2373.3824,0.007243
2374.3142,0.007109
2375.2460,0.007989
2376.1779,0.007876
2377.1097,0.007378
2378.0415,0.007144
2378.9734,0.007185
2379.9052,0.007432
2380.8370,0.007264
2381.7689,0.006953
2382.7007,0.007025
2383.6325,0.006935
2384.5644,0.007019
2385.4962,0.006853
2386.4281,0.006765
2387.3599,0.007004
2388.2917,0.006766
2389.2236,0.006533
2390.1554,0.006498
2391.0872,0.006639
2392.0191,0.006691
2392.9509,0.006865
2393.8827,0.007388
2394.8146,0.007577
2395.7464,0.006692
2396.6782,0.006341
2397.6101,0.006234
2398.5419,0.006737
2399.4737,0.007457
2400.4056,0.007509
2401.3374,0.007301
2402.2692,0.007292
2403.2011,0.006725
2404.1329,0.006364
2405.0647,0.006641
2405.9966,0.005980
2406.9284,0.005395
2407.8602,0.006136
2408.7921,0.006797
2409.7239,0.006800
2410.6557,0.006334
2411.5876,0.006210
2412.5194,0.006304
2413.4512,0.006607
2414.3831,0.005975
2415.3149,0.006161
2416.2468,0.006849
2417.1786,0.005831
2418.1104,0.005552
2419.0423,0.006114
2419.9741,0.006006
2420.9059,0.006361
2421.8378,0.007131
2422.7696,0.006483
2423.7014,0.005852
2424.6333,0.006312
2425.5651,0.005815
2426.4969,0.004693
2427.4288,0.005517
2428.3606,0.006436
2429.2924,0.005686
2430.2243,0.005759
2431.1561,0.006375
2432.0879,0.006712
2433.0198,0.006565
2433.9516,0.005875
2434.8834,0.004984
2435.8153,0.005017
2436.7471,0.005557
2437.6789,0.006275
2438.6108,0.006069
2439.5426,0.005159
2440.4744,0.004758
2441.4063,0.005324
2442.3381,0.005226
2443.2700,0.004720
2444.2018,0.005109
2445.1336,0.005262
2446.0655,0.005623
2446.9973,0.005763
2447.9291,0.005344
2448.8610,0.005063
2449.7928,0.005195
2450.7246,0.004947
2451.6565,0.005305
2452.5883,0.005724
2453.5201,0.005538
2454.4520,0.005322
2455.3838,0.005406
2456.3156,0.005328
2457.2475,0.005596
2458.1793,0.005761
2459.1111,0.005125
2460.0430,0.005053
2460.9748,0.005698
2461.9066,0.005880
2462.8385,0.005470
2463.7703,0.005113
2464.7021,0.005152
2465.6340,0.005338
2466.5658,0.005411
2467.4976,0.005749
2468.4295,0.005594
2469.3613,0.004558
2470.2932,0.004990
2471.2250,0.005854
2472.1568,0.005625
2473.0887,0.005756
2474.0205,0.006417
2474.9523,0.006128
2475.8842,0.004902
2476.8160,0.004466
2477.7478,0.004925
2478.6797,0.005433
2479.6115,0.006661
2480.5433,0.006920
2481.4752,0.005999
2482.4070,0.005144
2483.3388,0.005299
2484.2707,0.005982
2485.2025,0.005684
2486.1343,0.005037
2487.0662,0.004930
2487.9980,0.005128
2488.9298,0.005083
2489.8617,0.004656
2490.7935,0.004682
2491.7253,0.005589
2492.6572,0.005842
2493.5890,0.005190
2494.5208,0.004801
2495.4527,0.004693
2496.3845,0.005535
2497.3164,0.006378
2498.2482,0.005513
2499.1800,0.004734
2500.1119,0.004824
2501.0437,0.005390
2501.9755,0.005968
2502.9074,0.005137
2503.8392,0.004947
2504.7710,0.005808
2505.7029,0.005760
2506.6347,0.005161
2507.5665,0.005019
2508.4984,0.004802
2509.4302,0.005040
2510.3620,0.005040
2511.2939,0.004916
2512.2257,0.004980
2513.1575,0.005892
2514.0894,0.006022
2515.0212,0.004970
2515.9530,0.004103
2516.8849,0.004068
2517.8167,0.004848
2518.7485,0.005830
2519.6804,0.006018
2520.6122,0.005647
2521.5440,0.005036
2522.4759,0.005185
2523.4077,0.005864
2524.3396,0.006396
2525.2714,0.005873
2526.2032,0.005191
2527.1351,0.004843
2528.0669,0.005130
2528.9987,0.005261
2529.9306,0.004418
2530.8624,0.004469
2531.7942,0.005174
2532.7261,0.004760
2533.6579,0.004163
2534.5897,0.005195
2535.5216,0.005828
2536.4534,0.005272
2537.3852,0.004381
2538.3171,0.004529
2539.2489,0.005016
2540.1807,0.004537
2541.1126,0.004239
2542.0444,0.004604
2542.9762,0.004720
2543.9081,0.004719
2544.8399,0.004194
2545.7717,0.003678
2546.7036,0.004278
2547.6354,0.005022
2548.5672,0.004859
2549.4991,0.004178
2550.4309,0.003270
2551.3627,0.003835
2552.2946,0.004872
2553.2264,0.005003
2554.1583,0.003994
2555.0901,0.003555
2556.0219,0.004429
2556.9538,0.004484
2557.8856,0.003938
2558.8174,0.003966
2559.7493,0.004517
2560.6811,0.004532
2561.6129,0.004238
2562.5448,0.004610
2563.4766,0.005051
2564.4084,0.005562
2565.3403,0.006000
2566.2721,0.005458
2567.2039,0.005040
2568.1358,0.004498
2569.0676,0.003872
2569.9994,0.004099
2570.9313,0.003792
2571.8631,0.002961
2572.7949,0.004311
2573.7268,0.005142
2574.6586,0.004544
2575.5904,0.004466
2576.5223,0.004252
2577.4541,0.003751
2578.3859,0.004440
2579.3178,0.005159
2580.2496,0.005405
2581.1815,0.004860
2582.1133,0.004102
2583.0451,0.004716
2583.9770,0.005223
2584.9088,0.005656
2585.8406,0.005283
2586.7725,0.004391
2587.7043,0.004458
2588.6361,0.004477
2589.5680,0.004385
2590.4998,0.004495
2591.4316,0.004451
2592.3635,0.004356
2593.2953,0.004382
2594.2271,0.004053
2595.1590,0.003800
2596.0908,0.003983
2597.0226,0.004221
2597.9545,0.004074
2598.8863,0.003764
2599.8181,0.004122
2600.7500,0.004377
2601.6818,0.003649
2602.6136,0.003939
2603.5455,0.005275
2604.4773,0.005383
2605.4091,0.004729
2606.3410,0.004515
2607.2728,0.004622
2608.2047,0.004742
2609.1365,0.004629
2610.0683,0.004356
2611.0002,0.004605
2611.9320,0.005067
2612.8638,0.005107
2613.7957,0.004987
2614.7275,0.004528
2615.6593,0.004246
2616.5912,0.004878
2617.5230,0.005196
2618.4548,0.004520
2619.3867,0.004132
2620.3185,0.004675
2621.2503,0.005258
2622.1822,0.005502
2623.1140,0.004886
2624.0458,0.004270
2624.9777,0.004868
2625.9095,0.005068
2626.8413,0.004409
2627.7732,0.004703
2628.7050,0.005285
2629.6368,0.005407
2630.5687,0.005575
2631.5005,0.005939
2632.4323,0.005415
2633.3642,0.004920
2634.2960,0.005579
2635.2279,0.006113
2636.1597,0.005563
2637.0915,0.005246
2638.0234,0.005145
2638.9552,0.005002
2639.8870,0.005162
2640.8189,0.005533
2641.7507,0.005624
2642.6825,0.005277
2643.6144,0.005230
2644.5462,0.005964
2645.4780,0.006176
2646.4099,0.005731
2647.3417,0.005826
2648.2735,0.005941
2649.2054,0.005626
2650.1372,0.005683
2651.0690,0.006231
2652.0009,0.006355
2652.9327,0.005838
2653.8645,0.005769
2654.7964,0.006185
2655.7282,0.005956
2656.6600,0.006055
2657.5919,0.006477
2658.5237,0.006424
2659.4555,0.006248
2660.3874,0.005993
2661.3192,0.006185
2662.2511,0.006570
2663.1829,0.006427
2664.1147,0.006176
2665.0466,0.006282
2665.9784,0.006532
2666.9102,0.006218
2667.8421,0.006276
2668.7739,0.006865
2669.7057,0.006929
2670.6376,0.006582
2671.5694,0.006409
2672.5012,0.006470
2673.4331,0.006379
2674.3649,0.006239
2675.2967,0.006422
2676.2286,0.006491
2677.1604,0.006497
2678.0922,0.006787
2679.0241,0.007157
2679.9559,0.007464
2680.8877,0.007431
2681.8196,0.007277
2682.7514,0.007349
2683.6832,0.007285
2684.6151,0.007106
2685.5469,0.007097
2686.4787,0.006903
2687.4106,0.006805
2688.3424,0.007184
2689.2742,0.007368
2690.2061,0.007150
2691.1379,0.007179
2692.0698,0.007592
2693.0016,0.007560
2693.9334,0.007343
2694.8653,0.007444
2695.7971,0.007399
2696.7289,0.007212
2697.6608,0.007457
2698.5926,0.007781
2699.5244,0.007849
2700.4563,0.007831
2701.3881,0.007638
2702.3199,0.007764
2703.2518,0.008315
2704.1836,0.008243
2705.1154,0.008076
2706.0473,0.008587
2706.9791,0.008707
2707.9109,0.008226
2708.8428,0.007865
2709.7746,0.008008
2710.7064,0.008616
2711.6383,0.008780
2712.5701,0.008609
2713.5019,0.008887
2714.4338,0.008777
2715.3656,0.008461
2716.2974,0.008660
2717.2293,0.008587
2718.1611,0.008330
2719.0930,0.008396
2720.0248,0.008401
2720.9566,0.008408
2721.8885,0.008738
2722.8203,0.009224
2723.7521,0.009412
2724.6840,0.009543
2725.6158,0.009549
2726.5476,0.009532
2727.4795,0.009945
2728.4113,0.009783
2729.3431,0.009318
2730.2750,0.009729
2731.2068,0.010236
2732.1386,0.010211
2733.0705,0.010090
2734.0023,0.009851
2734.9341,0.010111
2735.8660,0.010562
2736.7978,0.010190
2737.7296,0.009931
2738.6615,0.009952
2739.5933,0.010100
2740.5251,0.010030
2741.4570,0.009836
2742.3888,0.010087
2743.3206,0.010027
2744.2525,0.010037
2745.1843,0.010507
2746.1162,0.010562
2747.0480,0.010625
2747.9798,0.010547
2748.9117,0.010258
2749.8435,0.010430
2750.7753,0.010743
2751.7072,0.011056
2752.6390,0.011157
2753.5708,0.010722
2754.5027,0.010562
2755.4345,0.010849
2756.3663,0.010729
2757.2982,0.010911
2758.2300,0.011579
2759.1618,0.011519
2760.0937,0.011044
2761.0255,0.010736
2761.9573,0.010607
2762.8892,0.010756
2763.8210,0.010898
2764.7528,0.011066
2765.6847,0.011369
2766.6165,0.011682
2767.5483,0.011891
2768.4802,0.011651
2769.4120,0.011302
2770.3438,0.011281
2771.2757,0.011560
2772.2075,0.011637
2773.1394,0.011576
2774.0712,0.011628
2775.0030,0.011647
2775.9349,0.011626
2776.8667,0.011612
2777.7985,0.011604
2778.7304,0.011696
2779.6622,0.012255
2780.5940,0.012733
2781.5259,0.012977
2782.4577,0.013057
2783.3895,0.012817
2784.3214,0.012700
2785.2532,0.012784
2786.1850,0.013055
2787.1169,0.012908
2788.0487,0.012268
2788.9805,0.012674
2789.9124,0.013547
2790.8442,0.013273
2791.7760,0.012886
2792.7079,0.013285
2793.6397,0.013930
2794.5715,0.014121
2795.5034,0.013572
2796.4352,0.013871
2797.3670,0.014848
2798.2989,0.014713
2799.2307,0.014286
2800.1626,0.014435
2801.0944,0.014623
2802.0262,0.014876
2802.9581,0.015310
2803.8899,0.015463
2804.8217,0.015435
2805.7536,0.015403
2806.6854,0.015119
2807.6172,0.015068
2808.5491,0.015488
2809.4809,0.015861
2810.4127,0.016079
2811.3446,0.016374
2812.2764,0.016527
2813.2082,0.016759
2814.1401,0.017125
2815.0719,0.016950
2816.0037,0.016817
2816.9356,0.017222
2817.8674,0.017201
2818.7992,0.017058
2819.7311,0.017372
2820.6629,0.017584
2821.5947,0.017849
2822.5266,0.018202
2823.4584,0.018859
2824.3902,0.019083
2825.3221,0.018624
2826.2539,0.018366
2827.1857,0.018383
2828.1176,0.018644
2829.0494,0.018928
2829.9813,0.019034
2830.9131,0.018989
2831.8449,0.019187
2832.7768,0.019791
2833.7086,0.019840
2834.6404,0.019722
2835.5723,0.020248
2836.5041,0.020470
2837.4359,0.020488
2838.3678,0.020939
2839.2996,0.021751
2840.2314,0.022201
2841.1633,0.021841
2842.0951,0.021791
2843.0269,0.022351
2843.9588,0.022587
2844.8906,0.022549
2845.8224,0.022398
2846.7543,0.022591
2847.6861,0.023365
2848.6179,0.023510
2849.5498,0.023004
2850.4816,0.022763
2851.4134,0.022856
2852.3453,0.023160
2853.2771,0.023569
2854.2089,0.024238
2855.1408,0.024797
2856.0726,0.024800
2857.0045,0.024511
2857.9363,0.024611
2858.8681,0.025265
2859.8000,0.026389
2860.7318,0.026935
2861.6636,0.026504
2862.5955,0.026886
2863.5273,0.027759
2864.4591,0.028132
2865.3910,0.028489
2866.3228,0.029055
2867.2546,0.029402
2868.1865,0.029859
2869.1183,0.030637
2870.0501,0.031081
2870.9820,0.031236
2871.9138,0.031564
2872.8456,0.032009
2873.7775,0.032456
2874.7093,0.033243
2875.6411,0.033800
2876.5730,0.034237
2877.5048,0.035110
2878.4366,0.036024
2879.3685,0.036319
2880.3003,0.036120
2881.2321,0.036030
2882.1640,0.036572
2883.0958,0.037352
2884.0277,0.037871
2884.9595,0.038151
2885.8913,0.038349
2886.8232,0.038727
2887.7550,0.039192
2888.6868,0.039389
2889.6187,0.039986
2890.5505,0.040753
2891.4823,0.040792
2892.4142,0.041333
2893.3460,0.042424
2894.2778,0.043025
2895.2097,0.042858
2896.1415,0.042645
2897.0733,0.043622
2898.0052,0.044919
2898.9370,0.045152
2899.8688,0.045507
2900.8007,0.046273
2901.7325,0.046150
2902.6643,0.045604
2903.5962,0.045747
2904.5280,0.045450
2905.4598,0.044918
2906.3917,0.045156
2907.3235,0.045274
2908.2553,0.044976
2909.1872,0.044689
2910.1190,0.045272
2911.0509,0.045426
2911.9827,0.043954
2912.9145,0.042877
2913.8464,0.043147
2914.7782,0.043128
2915.7100,0.042449
2916.6419,0.042123
2917.5737,0.042087
2918.5055,0.042011
2919.4374,0.042075
2920.3692,0.042467
2921.3010,0.042351
2922.2329,0.041958
2923.1647,0.042488
2924.0965,0.043269
2925.0284,0.043039
2925.9602,0.042793
2926.8920,0.043704
2927.8239,0.044328
2928.7557,0.044404
2929.6875,0.044885
2930.6194,0.045329
2931.5512,0.045755
2932.4830,0.046104
2933.4149,0.045944
2934.3467,0.045715
2935.2785,0.046060
2936.2104,0.046593
2937.1422,0.047187
2938.0741,0.047226
2939.0059,0.046741
2939.9377,0.046749
2940.8696,0.046909
2941.8014,0.047212
2942.7332,0.047689
2943.6651,0.047558
2944.5969,0.046728
2945.5287,0.046459
2946.4606,0.046737
2947.3924,0.047079
2948.3242,0.048085
2949.2561,0.048250
2950.1879,0.048093
2951.1197,0.048843
2952.0516,0.049161
2952.9834,0.048938
2953.9152,0.048860
2954.8471,0.049102
2955.7789,0.049542
2956.7107,0.049831
2957.6426,0.050512
2958.5744,0.050748
2959.5062,0.050638
2960.4381,0.051344
2961.3699,0.052674
2962.3017,0.053876
2963.2336,0.054787
2964.1654,0.056094
2965.0972,0.057912
2966.0291,0.059081
2966.9609,0.060311
2967.8928,0.062695
2968.8246,0.065378
2969.7564,0.066902
2970.6883,0.068802
2971.6201,0.071683
2972.5519,0.073836
2973.4838,0.075718
2974.4156,0.078304
2975.3474,0.080171
2976.2793,0.081942
2977.2111,0.083989
2978.1429,0.085894
2979.0748,0.087771
2980.0066,0.088101
2980.9384,0.087968
2981.8703,0.088582
2982.8021,0.088291
2983.7339,0.087281
2984.6658,0.085703
2985.5976,0.084138
2986.5294,0.081995
2987.4613,0.079641
2988.3931,0.077949
2989.3249,0.075908
2990.2568,0.073505
2991.1886,0.071656
2992.1204,0.069948
2993.0523,0.068500
2993.9841,0.066882
2994.9160,0.065222
2995.8478,0.063640
2996.7796,0.062394
2997.7115,0.061309
2998.6433,0.060009
2999.5751,0.058853
3000.5070,0.058485
3001.4388,0.058614
3002.3706,0.057988
3003.3025,0.057321
3004.2343,0.057638
3005.1661,0.057569
3006.0980,0.057090
3007.0298,0.056889
3007.9616,0.056716
3008.8935,0.057105
3009.8253,0.057276
3010.7571,0.057400
3011.6890,0.058349
3012.6208,0.058256
3013.5526,0.057973
3014.4845,0.059435
3015.4163,0.060013
3016.3481,0.059141
3017.2800,0.059795
3018.2118,0.059862
3019.1436,0.059663
3020.0755,0.060639
3021.0073,0.061280
3021.9392,0.061552
3022.8710,0.062231
3023.8028,0.062368
3024.7347,0.061869
3025.6665,0.062149
3026.5983,0.063981
3027.5302,0.065490
3028.4620,0.065099
3029.3938,0.064689
3030.3257,0.065654
3031.2575,0.066151
3032.1893,0.065910
3033.1212,0.066498
3034.0530,0.067745
3034.9848,0.068622
3035.9167,0.069288
3036.8485,0.069337
3037.7803,0.069759
3038.7122,0.070841
3039.6440,0.071499
3040.5758,0.071786
3041.5077,0.072817
3042.4395,0.074215
3043.3713,0.074383
3044.3032,0.074077
3045.2350,0.074449
3046.1668,0.074905
3047.0987,0.075863
3048.0305,0.076775
3048.9624,0.077973
3049.8942,0.078250
3050.8260,0.078891
3051.7579,0.080852
3052.6897,0.081345
3053.6215,0.081161
3054.5534,0.081966
3055.4852,0.082629
3056.4170,0.083233
3057.3489,0.083042
3058.2807,0.083046
3059.2125,0.083934
3060.1444,0.085173
3061.0762,0.086609
3062.0080,0.087717
3062.9399,0.087520
3063.8717,0.088480
3064.8035,0.090006
3065.7354,0.091356
3066.6672,0.092426
3067.5990,0.092027
3068.5309,0.092436
3069.4627,0.093655
3070.3945,0.094435
3071.3264,0.095280
3072.2582,0.095843
3073.1900,0.097206
3074.1219,0.098312
3075.0537,0.098628
3075.9856,0.099258
3076.9174,0.100532
3077.8492,0.101195
3078.7811,0.101674
3079.7129,0.102564
3080.6447,0.104407
3081.5766,0.105741
3082.5084,0.106571
3083.4402,0.107657
3084.3721,0.108578
3085.3039,0.109306
3086.2357,0.109731
3087.1676,0.110545
3088.0994,0.111277
3089.0312,0.112064
3089.9631,0.112750
3090.8949,0.113509
3091.8267,0.115296
3092.7586,0.116116
3093.6904,0.116311
3094.6222,0.117628
3095.5541,0.118822
3096.4859,0.120199
3097.4177,0.121193
3098.3496,0.122041
3099.2814,0.124033
3100.2132,0.124985
3101.1451,0.125484
3102.0769,0.126364
3103.0087,0.127653
3103.9406,0.128502
3104.8724,0.129344
3105.8043,0.130141
3106.7361,0.130836
3107.6679,0.132399
3108.5998,0.134918
3109.5316,0.135922
3110.4634,0.136504
3111.3953,0.137038
3112.3271,0.138107
3113.2589,0.138872
3114.1908,0.139388
3115.1226,0.141046
3116.0544,0.143712
3116.9863,0.145050
3117.9181,0.144591
3118.8499,0.145029
3119.7818,0.147395
3120.7136,0.148306
3121.6454,0.148857
3122.5773,0.149795
3123.5091,0.150064
3124.4409,0.151910
3125.3728,0.154102
3126.3046,0.154815
3127.2364,0.156783
3128.1683,0.157901
3129.1001,0.158438
3130.0319,0.160225
3130.9638,0.162046
3131.8956,0.162931
3132.8275,0.164381
3133.7593,0.165623
3134.6911,0.166662
3135.6230,0.167892
3136.5548,0.169893
3137.4866,0.172093
3138.4185,0.172836
3139.3503,0.172320
3140.2821,0.173564
3141.2140,0.174951
3142.1458,0.176026
3143.0776,0.177782
3144.0095,0.179446
3144.9413,0.180374
3145.8731,0.181337
3146.8050,0.182820
3147.7368,0.183476
3148.6686,0.184688
3149.6005,0.186506
3150.5323,0.187089
3151.4641,0.188887
3152.3960,0.190811
3153.3278,0.193304
3154.2596,0.195370
3155.1915,0.194976
3156.1233,0.193885
3157.0551,0.195480
3157.9870,0.198043
3158.9188,0.199327
3159.8507,0.200095
3160.7825,0.201528
3161.7143,0.202851
3162.6462,0.203764
3163.5780,0.206040
3164.5098,0.208192
3165.4417,0.208221
3166.3735,0.209183
3167.3053,0.210617
3168.2372,0.213124
3169.1690,0.215181
3170.1008,0.215525
3171.0327,0.215962
3171.9645,0.217078
3172.8963,0.217508
3173.8282,0.219900
3174.7600,0.221048
3175.6918,0.223759
3176.6237,0.225525
3177.5555,0.225543
3178.4873,0.226342
3179.4192,0.228556
3180.3510,0.229462
3181.2828,0.230743
3182.2147,0.231690
3183.1465,0.231104
3184.0783,0.231923
3185.0102,0.235567
3185.9420,0.237184
3186.8739,0.237502
3187.8057,0.237966
3188.7375,0.240535
3189.6694,0.242819
3190.6012,0.243170
3191.5330,0.243347
3192.4649,0.244832
3193.3967,0.245855
3194.3285,0.247041
3195.2604,0.248412
3196.1922,0.250251
3197.1240,0.250566
3198.0559,0.252146
3198.9877,0.253999
3199.9195,0.254857
3200.8514,0.253573
3201.7832,0.253966
3202.7150,0.256664
3203.6469,0.258931
3204.5787,0.258954
3205.5105,0.259958
3206.4424,0.261143
3207.3742,0.261871
3208.3060,0.262240
3209.2379,0.263519
3210.1697,0.264468
3211.1015,0.266552
3212.0334,0.267694
3212.9652,0.268600
3213.8971,0.267934
3214.8289,0.268634
3215.7607,0.269412
3216.6926,0.269634
3217.6244,0.270884
3218.5562,0.272914
3219.4881,0.272902
3220.4199,0.272773
3221.3517,0.274583
3222.2836,0.276917
3223.2154,0.277051
3224.1472,0.277605
3225.0791,0.279246
3226.0109,0.279882
3226.9427,0.279433
3227.8746,0.280467
3228.8064,0.280286
3229.7382,0.280085
3230.6701,0.280150
3231.6019,0.282034
3232.5337,0.282432
3233.4656,0.284328
3234.3974,0.284969
3235.3292,0.284793
3236.2611,0.284012
3237.1929,0.283614
3238.1247,0.284589
3239.0566,0.287248
3239.9884,0.287170
3240.9202,0.286096
3241.8521,0.284884
3242.7839,0.287619
3243.7158,0.287940
3244.6476,0.285823
3245.5794,0.287108
3246.5113,0.290075
3247.4431,0.290721
3248.3749,0.291781
3249.3068,0.291700
3250.2386,0.292095
3251.1704,0.291309
3252.1023,0.290229
3253.0341,0.290272
3253.9659,0.291033
3254.8978,0.291202
3255.8296,0.291169
3256.7614,0.291655
3257.6933,0.293016
3258.6251,0.292263
3259.5569,0.293385
3260.4888,0.295863
3261.4206,0.296841
3262.3524,0.294167
3263.2843,0.292063
3264.2161,0.292799
3265.1479,0.295520
3266.0798,0.295792
3267.0116,0.295820
3267.9434,0.296050
3268.8753,0.296325
3269.8071,0.294946
3270.7390,0.294565
3271.6708,0.294877
3272.6026,0.297007
3273.5345,0.295736
3274.4663,0.295326
3275.3981,0.294583
3276.3300,0.292968
3277.2618,0.293519
3278.1936,0.295750
3279.1255,0.296220
3280.0573,0.297744
3280.9891,0.297843
3281.9210,0.296430
3282.8528,0.296039
3283.7846,0.297812
3284.7165,0.297202
3285.6483,0.297267
3286.5801,0.297508
3287.5120,0.296760
3288.4438,0.295977
3289.3756,0.295029
3290.3075,0.295726
3291.2393,0.297667
3292.1711,0.297292
3293.1030,0.298728
3294.0348,0.300912
3294.9666,0.299891
3295.8985,0.296326
3296.8303,0.297316
3297.7622,0.298892
3298.6940,0.299270
3299.6258,0.298464
3300.5577,0.299315
3301.4895,0.297862
3302.4213,0.296257
3303.3532,0.296567
3304.2850,0.299281
3305.2168,0.300075
3306.1487,0.302302
3307.0805,0.302133
3308.0123,0.298729
3308.9442,0.295699
3309.8760,0.295335
3310.8078,0.295789
3311.7397,0.298040
3312.6715,0.297451
3313.6033,0.299367
3314.5352,0.299257
3315.4670,0.298497
3316.3988,0.298957
3317.3307,0.300434
3318.2625,0.299239
3319.1943,0.300266
3320.1262,0.299038
3321.0580,0.297266
3321.9898,0.297137
3322.9217,0.298365
3323.8535,0.299143
3324.7854,0.299759
3325.7172,0.298050
3326.6490,0.298806
3327.5809,0.301171
3328.5127,0.301342
3329.4445,0.299380
3330.3764,0.299361
3331.3082,0.298603
3332.2400,0.299823
3333.1719,0.300335
3334.1037,0.301028
3335.0355,0.300084
3335.9674,0.301946
3336.8992,0.302094
3337.8310,0.302394
3338.7629,0.301876
3339.6947,0.301963
3340.6265,0.301248
3341.5584,0.299034
3342.4902,0.297766
3343.4220,0.299842
3344.3539,0.301894
3345.2857,0.301883
3346.2175,0.299476
3347.1494,0.299620
3348.0812,0.298710
3349.0130,0.300007
3349.9449,0.302437
3350.8767,0.301627
3351.8086,0.299950
3352.7404,0.298893
3353.6722,0.297435
3354.6041,0.299261
3355.5359,0.298880
3356.4677,0.298989
3357.3996,0.300849
3358.3314,0.302795
3359.2632,0.302452
3360.1951,0.300397
3361.1269,0.297980
3362.0587,0.298316
3362.9906,0.297252
3363.9224,0.297411
3364.8542,0.297709
3365.7861,0.298964
3366.7179,0.299190
3367.6497,0.298163
3368.5816,0.296488
3369.5134,0.295644
3370.4452,0.293826
3371.3771,0.297064
3372.3089,0.297685
3373.2407,0.297541
3374.1726,0.294360
3375.1044,0.291214
3376.0362,0.291117
3376.9681,0.293722
3377.8999,0.294586
3378.8317,0.295014
3379.7636,0.295655
3380.6954,0.296557
3381.6273,0.292927
3382.5591,0.292656
3383.4909,0.291909
3384.4228,0.289622
3385.3546,0.288273
3386.2864,0.290281
3387.2183,0.291458
3388.1501,0.291321
3389.0819,0.289762
3390.0138,0.288059
3390.9456,0.286472
3391.8774,0.285558
3392.8093,0.286811
3393.7411,0.288044
3394.6729,0.287658
3395.6048,0.286570
3396.5366,0.283440
3397.4684,0.282881
3398.4003,0.282028
3399.3321,0.280787
3400.2639,0.279145
3401.1958,0.280891
3402.1276,0.279747
3403.0594,0.276326
3403.9913,0.273487
3404.9231,0.274954
3405.8549,0.276025
3406.7868,0.275068
3407.7186,0.274417
3408.6505,0.273940
3409.5823,0.270791
3410.5141,0.269722
3411.4460,0.269158
3412.3778,0.270545
3413.3096,0.270317
3414.2415,0.268530
3415.1733,0.265994
3416.1051,0.265556
3417.0370,0.266435
3417.9688,0.267550
3418.9006,0.265998
3419.8325,0.263887
3420.7643,0.262731
3421.6961,0.263190
3422.6280,0.259810
3423.5598,0.259648
3424.4916,0.258226
3425.4235,0.256595
3426.3553,0.256279
3427.2871,0.257918
3428.2190,0.257149
3429.1508,0.256186
3430.0826,0.255542
3431.0145,0.255203
3431.9463,0.252004
3432.8781,0.248237
3433.8100,0.245894
3434.7418,0.246209
3435.6737,0.244262
3436.6055,0.242264
3437.5373,0.241894
3438.4692,0.242403
3439.4010,0.242068
3440.3328,0.240796
3441.2647,0.238500
3442.1965,0.238266
3443.1283,0.236311
3444.0602,0.233557
3444.9920,0.233625
3445.9238,0.235322
3446.8557,0.233101
3447.7875,0.230293
3448.7193,0.230547
3449.6512,0.232764
3450.5830,0.232001
3451.5148,0.232531
3452.4467,0.229824
3453.3785,0.227488
3454.3103,0.225018
3455.2422,0.223349
3456.1740,0.221707
3457.1058,0.221093
3458.0377,0.218809
3458.9695,0.218456
3459.9013,0.221265
3460.8332,0.221385
3461.7650,0.217752
3462.6969,0.216007
3463.6287,0.213341
3464.5605,0.212931
3465.4924,0.215346
3466.4242,0.215106
3467.3560,0.213577
3468.2879,0.212338
3469.2197,0.208602
3470.1515,0.207002
3471.0834,0.206105
3472.0152,0.205976
3472.9470,0.202703
3473.8789,0.202864
3474.8107,0.203639
3475.7425,0.201632
3476.6744,0.198513
3477.6062,0.198020
3478.5380,0.195963
3479.4699,0.195886
3480.4017,0.195424
3481.3335,0.195888
3482.2654,0.194238
3483.1972,0.191116
3484.1290,0.188798
3485.0609,0.190094
3485.9927,0.188984
3486.9245,0.185095
3487.8564,0.185561
3488.7882,0.186822
3489.7201,0.185217
3490.6519,0.184628
3491.5837,0.185219
3492.5156,0.186764
3493.4474,0.183920
3494.3792,0.181320
3495.3111,0.180994
3496.2429,0.180745
3497.1747,0.178381
3498.1066,0.176714
3499.0384,0.176997
3499.9702,0.179252
3500.9021,0.174686
3501.8339,0.171173
3502.7657,0.170906
3503.6976,0.171282
3504.6294,0.170523
3505.5612,0.172128
3506.4931,0.170707
3507.4249,0.167159
3508.3567,0.164355
3509.2886,0.161657
3510.2204,0.160551
3511.1522,0.160436
3512.0841,0.160569
3513.0159,0.160425
3513.9477,0.158031
3514.8796,0.157515
3515.8114,0.157357
3516.7432,0.156271
3517.6751,0.155777
3518.6069,0.154897
3519.5388,0.153049
3520.4706,0.153030
3521.4024,0.153095
3522.3343,0.151437
3523.2661,0.150758
3524.1979,0.150215
3525.1298,0.148385
3526.0616,0.148852
3526.9934,0.146687
3527.9253,0.142307
3528.8571,0.141978
3529.7889,0.143452
3530.7208,0.142076
3531.6526,0.141161
3532.5844,0.139998
3533.5163,0.140866
3534.4481,0.140679
3535.3799,0.139656
3536.3118,0.140144
3537.2436,0.140843
3538.1754,0.137263
3539.1073,0.134165
3540.0391,0.131107
3540.9709,0.130197
3541.9028,0.130583
3542.8346,0.129528
3543.7664,0.128913
3544.6983,0.127885
3545.6301,0.124803
3546.5620,0.125876
3547.4938,0.123977
3548.4256,0.121287
3549.3575,0.121687
3550.2893,0.122615
3551.2211,0.120840
3552.1530,0.118515
3553.0848,0.120348
3554.0166,0.119118
3554.9485,0.116783
3555.8803,0.114906
3556.8121,0.114813
3557.7440,0.115291
3558.6758,0.115004
3559.6076,0.114210
3560.5395,0.112600
3561.4713,0.110670
3562.4031,0.108976
3563.3350,0.108925
3564.2668,0.106949
3565.1986,0.105308
3566.1305,0.105086
3567.0623,0.104057
3567.9941,0.103491
3568.9260,0.104603
3569.8578,0.102096
3570.7896,0.100879
3571.7215,0.102570
3572.6533,0.102131
3573.5852,0.100206
3574.5170,0.098285
3575.4488,0.097515
3576.3807,0.096342
3577.3125,0.096109
3578.2443,0.097776
3579.1762,0.098294
3580.1080,0.095939
3581.0398,0.093654
3581.9717,0.091886
3582.9035,0.089418
3583.8353,0.088111
3584.7672,0.087591
3585.6990,0.085379
3586.6308,0.083346
3587.5627,0.087016
3588.4945,0.089326
3589.4263,0.085653
3590.3582,0.082098
3591.2900,0.083941
3592.2218,0.084386
3593.1537,0.082443
3594.0855,0.083202
3595.0173,0.082820
3595.9492,0.080043
3596.8810,0.081121
3597.8128,0.081838
3598.7447,0.080813
3599.6765,0.078018
3600.6084,0.077074
3601.5402,0.076637
3602.4720,0.074894
3603.4039,0.073028
3604.3357,0.070940
3605.2675,0.070268
3606.1994,0.071274
3607.1312,0.071185
3608.0630,0.070988
3608.9949,0.070002
3609.9267,0.069199
3610.8585,0.070685
3611.7904,0.069405
3612.7222,0.067062
3613.6540,0.066512
3614.5859,0.065349
3615.5177,0.063964
3616.4495,0.063183
3617.3814,0.062265
3618.3132,0.062228
3619.2450,0.063101
3620.1769,0.062427
3621.1087,0.060181
3622.0405,0.058140
3622.9724,0.059088
3623.9042,0.060307
3624.8360,0.058885
3625.7679,0.057383
3626.6997,0.057451
3627.6316,0.056532
3628.5634,0.056480
3629.4952,0.056889
3630.4271,0.054519
3631.3589,0.052118
3632.2907,0.051169
3633.2226,0.051176
3634.1544,0.051697
3635.0862,0.052129
3636.0181,0.051342
3636.9499,0.049861
3637.8817,0.048533
3638.8136,0.048188
3639.7454,0.048146
3640.6772,0.047360
3641.6091,0.046406
3642.5409,0.045846
3643.4727,0.045668
3644.4046,0.045717
3645.3364,0.044875
3646.2682,0.043708
3647.2001,0.042924
3648.1319,0.041806
3649.0637,0.042089
3649.9956,0.040349
3650.9274,0.037409
3651.8592,0.037303
3652.7911,0.039265
3653.7229,0.038363
3654.6547,0.035031
3655.5866,0.033607
3656.5184,0.034437
3657.4503,0.035282
3658.3821,0.034740
3659.3139,0.034287
3660.2458,0.033004
3661.1776,0.031514
3662.1094,0.030804
3663.0413,0.030167
3663.9731,0.030056
3664.9049,0.029454
3665.8368,0.030174
3666.7686,0.030212
3667.7004,0.028399
3668.6323,0.025813
3669.5641,0.023900
3670.4959,0.024330
3671.4278,0.025117
3672.3596,0.024767
3673.2914,0.023483
3674.2233,0.021221
3675.1551,0.019319
3676.0869,0.019541
3677.0188,0.019517
3677.9506,0.018201
3678.8824,0.016451
3679.8143,0.015371
3680.7461,0.015143
3681.6779,0.015613
3682.6098,0.016769
3683.5416,0.016314
3684.4735,0.015962
3685.4053,0.016660
3686.3371,0.015270
3687.2690,0.013118
3688.2008,0.012086
3689.1326,0.012006
3690.0645,0.012644
3690.9963,0.011472
3691.9281,0.010615
3692.8600,0.010119
3693.7918,0.009378
3694.7236,0.009033
3695.6555,0.008733
3696.5873,0.008566
3697.5191,0.009004
3698.4510,0.008946
3699.3828,0.009008
3700.3146,0.008534
3701.2465,0.008030
3702.1783,0.007900
3703.1101,0.007207
3704.0420,0.006488
3704.9738,0.005527
3705.9056,0.005606
3706.8375,0.006703
3707.7693,0.006920
3708.7011,0.006696
3709.6330,0.006110
3710.5648,0.004871
3711.4967,0.004178
3712.4285,0.005199
3713.3603,0.005775
3714.2922,0.004528
3715.2240,0.003400
3716.1558,0.003863
3717.0877,0.004713
3718.0195,0.004948
3718.9513,0.004866
3719.8832,0.004423
3720.8150,0.002657
3721.7468,0.001285
3722.6787,0.002585
3723.6105,0.004553
3724.5423,0.004246
3725.4742,0.003464
3726.4060,0.003245
3727.3378,0.002500
3728.2697,0.004008
3729.2015,0.004924
3730.1333,0.003181
3731.0652,0.003061
3731.9970,0.003340
3732.9288,0.002671
3733.8607,0.002149
3734.7925,0.000666
3735.7243,-0.000284
3736.6562,0.000708
3737.5880,0.001538
3738.5199,-0.000384
3739.4517,-0.002566
3740.3835,-0.001262
3741.3154,0.001448
3742.2472,0.001675
3743.1790,0.000312
3744.1109,0.000505
3745.0427,0.000412
3745.9745,-0.000362
3746.9064,0.000210
3747.8382,0.002153
3748.7700,0.002516
3749.7019,0.002313
3750.6337,0.002050
3751.5655,0.001246
3752.4974,0.001327
3753.4292,0.000268
3754.3610,-0.001340
3755.2929,0.000083
3756.2247,0.000629
3757.1565,-0.000042
3758.0884,-0.000171
3759.0202,0.000055
3759.9520,0.001310
3760.8839,0.002505
3761.8157,0.001255
3762.7475,0.000950
3763.6794,0.001753
3764.6112,0.000666
3765.5431,0.000324
3766.4749,0.001515
3767.4067,0.002594
3768.3386,0.002674
3769.2704,0.001543
3770.2022,0.000974
3771.1341,0.001731
3772.0659,0.001729
3772.9977,0.001305
3773.9296,0.001639
3774.8614,0.001997
3775.7932,0.002489
3776.7251,0.003063
3777.6569,0.003079
3778.5887,0.001755
3779.5206,0.000895
3780.4524,0.001571
3781.3842,0.001547
3782.3161,0.001126
3783.2479,0.001166
3784.1797,0.001339
3785.1116,0.001496
3786.0434,0.002097
3786.9752,0.003045
3787.9071,0.002627
3788.8389,0.001798
3789.7707,0.001342
3790.7026,0.001272
3791.6344,0.001296
3792.5662,0.000845
3793.4981,0.000887
3794.4299,0.001342
3795.3618,0.000971
3796.2936,0.000563
3797.2254,0.001098
3798.1573,0.001622
3799.0891,0.001669
3800.0209,0.001121
3800.9528,0.001395
3801.8846,0.001781
3802.8164,0.001140
3803.7483,-0.000459
3804.6801,-0.000544
3805.6119,0.000243
3806.5438,-0.000232
3807.4756,-0.000190
3808.4074,-0.000007
3809.3393,-0.000512
3810.2711,-0.000262
3811.2029,0.000730
3812.1348,0.000839
3813.0666,0.000836
3813.9984,0.001337
3814.9303,0.001123
3815.8621,0.000912
3816.7939,0.000541
3817.7258,-0.000656
3818.6576,-0.000887
3819.5894,0.000244
3820.5213,0.000627
3821.4531,0.000899
3822.3850,0.000687
3823.3168,-0.000795
3824.2486,-0.000910
3825.1805,0.000566
3826.1123,0.000666
3827.0441,0.000775
3827.9760,0.001392
3828.9078,0.001373
3829.8396,0.000963
3830.7715,0.000994
3831.7033,0.001111
3832.6351,0.000987
3833.5670,0.001288
3834.4988,0.001548
3835.4306,0.001112
3836.3625,0.000704
3837.2943,0.000108
3838.2261,-0.000864
3839.1580,-0.000867
3840.0898,-0.001460
3841.0216,-0.001185
3841.9535,0.000681
3842.8853,0.000538
3843.8171,0.000615
3844.7490,0.001131
3845.6808,0.000798
3846.6126,0.001126
3847.5445,0.001922
3848.4763,0.001771
3849.4082,0.000305
3850.3400,-0.000639
3851.2718,0.000466
3852.2037,0.000589
3853.1355,0.000130
3854.0673,-0.000142
3854.9992,-0.001059
3855.9310,-0.000570
3856.8628,0.000714
3857.7947,0.000720
3858.7265,0.000063
3859.6583,0.000743
3860.5902,0.001047
3861.5220,0.000444
3862.4538,0.000251
3863.3857,0.000313
3864.3175,0.000259
3865.2493,-0.000649
3866.1812,-0.000872
3867.1130,-0.000732
3868.0448,-0.001198
3868.9767,-0.001274
3869.9085,-0.000931
3870.8403,-0.000479
3871.7722,-0.000665
3872.7040,-0.000392
3873.6358,0.000354
3874.5677,0.001274
3875.4995,0.001456
3876.4314,0.000179
3877.3632,-0.000604
3878.2950,0.000212
3879.2269,0.000996
3880.1587,0.001117
3881.0905,0.001239
3882.0224,0.001485
3882.9542,0.001180
3883.8860,-0.000026
3884.8179,-0.000976
3885.7497,-0.000505
3886.6815,-0.000221
3887.6134,-0.000770
3888.5452,-0.000921
3889.4770,-0.000163
3890.4089,0.000244
3891.3407,-0.000341
3892.2725,-0.000748
3893.2044,-0.000130
3894.1362,0.000021
3895.0680,-0.000056
3895.9999,0.001192
3896.9317,0.001232
3897.8635,0.000221
3898.7954,0.000446
3899.7272,0.001684
3900.6590,0.001590
3901.5909,-0.000483
3902.5227,-0.001416
3903.4546,0.000061
3904.3864,0.000581
3905.3182,-0.000334
3906.2501,0.000034
3907.1819,0.000667
3908.1137,0.000493
3909.0456,0.000932
3909.9774,0.000285
3910.9092,-0.000952
3911.8411,-0.000663
3912.7729,0.000028
3913.7047,0.000926
3914.6366,0.001613
3915.5684,0.001112
3916.5002,0.000071
3917.4321,-0.000517
3918.3639,0.000667
3919.2957,0.001923
3920.2276,0.000717
3921.1594,0.000124
3922.0912,0.001774
3923.0231,0.002545
3923.9549,0.001476
3924.8867,0.000736
3925.8186,0.000903
3926.7504,0.000830
3927.6822,0.000368
3928.6141,0.000834
3929.5459,0.001162
3930.4777,0.000181
3931.4096,-0.000173
3932.3414,0.000336
3933.2733,0.001134
3934.2051,0.001308
3935.1369,0.001000
3936.0688,0.001383
3937.0006,0.002007
3937.9324,0.001910
3938.8643,0.001225
3939.7961,0.000767
3940.7279,0.000581
3941.6598,0.000655
3942.5916,0.000631
3943.5234,-0.000093
3944.4553,-0.001017
3945.3871,-0.001847
3946.3189,-0.000952
3947.2508,0.001314
3948.1826,0.001397
3949.1144,0.001239
3950.0463,0.001194
3950.9781,0.000133
3951.9099,0.000176
3952.8418,0.000752
3953.7736,0.001508
3954.7054,0.001634
3955.6373,0.000876
3956.5691,0.001257
3957.5009,0.001434
3958.4328,0.000709
3959.3646,0.000781
3960.2965,0.000736
3961.2283,0.000656
3962.1601,0.001208
3963.0920,0.000573
3964.0238,0.000132
3964.9556,0.001228
3965.8875,0.002000
3966.8193,0.002026
3967.7511,0.001755
3968.6830,0.001674
3969.6148,0.001789
3970.5466,0.001087
3971.4785,0.000591
3972.4103,0.001384
3973.3421,0.002512
3974.2740,0.002792
3975.2058,0.001898
3976.1376,0.001386
3977.0695,0.000970
3978.0013,0.000996
3978.9331,0.001634
3979.8650,0.002081
3980.7968,0.002095
3981.7286,0.001144
3982.6605,0.001414
3983.5923,0.001754
3984.5241,0.000815
3985.4560,0.000666
3986.3878,0.000739
3987.3197,0.000564
3988.2515,0.000529
3989.1833,0.000471
3990.1152,0.000854
3991.0470,0.001342
3991.9788,0.000505
3992.9107,0.000148
3993.8425,0.001653
3994.7743,0.002563
3995.7062,0.002255
3996.6380,0.001502
3997.5698,0.000312
3998.5017,-0.000718
3999.4335,-0.000772
4000.3653,0.000515
