Wavenumber,Intensity
650.4205,0.364926
651.3523,0.373494
652.2841,0.392952
653.2160,0.382797
654.1478,0.360289
655.0796,0.358593
656.0115,0.368918
656.9433,0.366770
657.8751,0.362716
658.8070,0.363358
659.7388,0.363316
660.6706,0.370626
661.6025,0.363923
662.5343,0.351801
663.4661,0.356652
664.3980,0.372729
665.3298,0.371098
666.2616,0.356141
667.1935,0.352860
668.1253,0.383234
669.0571,0.399217
669.9890,0.380254
670.9208,0.367716
671.8526,0.353510
672.7845,0.347252
673.7163,0.351218
674.6481,0.342344
675.5800,0.334701
676.5118,0.338244
677.4437,0.343616
678.3755,0.343655
679.3073,0.342250
680.2392,0.338178
681.1710,0.340110
682.1028,0.345650
683.0347,0.346934
683.9665,0.339081
684.8983,0.332399
685.8302,0.329367
686.7620,0.327059
687.6938,0.324992
688.6257,0.327876
689.5575,0.328332
690.4893,0.326131
691.4212,0.326348
692.3530,0.327684
693.2848,0.324422
694.2167,0.321847
695.1485,0.321611
696.0803,0.320497
697.0122,0.311842
697.9440,0.309422
698.8758,0.316785
699.8077,0.317346
700.7395,0.313894
701.6713,0.312717
702.6032,0.310354
703.5350,0.309758
704.4669,0.308769
705.3987,0.306096
706.3305,0.304460
707.2624,0.303386
708.1942,0.300895
709.1260,0.300663
710.0579,0.296940
710.9897,0.295499
711.9215,0.296899
712.8534,0.297116
713.7852,0.297125
714.7170,0.296402
715.6489,0.295048
716.5807,0.291648
717.5125,0.288891
718.4444,0.288231
719.3762,0.286030
720.3080,0.285674
721.2399,0.286391
722.1717,0.286383
723.1035,0.283677
724.0354,0.282248
724.9672,0.280781
725.8990,0.279270
726.8309,0.276930
727.7627,0.276388
728.6945,0.276991
729.6264,0.276776
730.5582,0.273935
731.4901,0.273343
732.4219,0.271099
733.3537,0.271129
734.2856,0.271496
735.2174,0.268466
736.1492,0.266418
737.0811,0.265886
738.0129,0.262972
738.9447,0.260678
739.8766,0.259911
740.8084,0.260427
741.7402,0.259591
742.6721,0.257716
743.6039,0.255811
744.5357,0.254696
745.4676,0.252712
746.3994,0.251122
747.3312,0.249441
748.2631,0.247083
749.1949,0.245544
750.1267,0.244654
751.0586,0.245075
751.9904,0.243975
752.9222,0.243013
753.8541,0.244179
754.7859,0.240758
755.7177,0.239208
756.6496,0.238804
757.5814,0.236506
758.5132,0.234554
759.4451,0.235384
760.3769,0.233546
761.3088,0.231633
762.2406,0.230496
763.1724,0.228407
764.1043,0.226928
765.0361,0.225972
765.9679,0.225538
766.8998,0.224303
767.8316,0.220402
768.7634,0.219114
769.6953,0.220420
770.6271,0.221558
771.5589,0.221040
772.4908,0.217629
773.4226,0.215043
774.3544,0.214409
775.2863,0.212881
776.2181,0.211268
777.1499,0.210076
778.0818,0.209036
779.0136,0.207629
779.9454,0.205917
780.8773,0.205024
781.8091,0.205457
782.7409,0.206094
783.6728,0.204311
784.6046,0.200856
785.5364,0.200041
786.4683,0.198437
787.4001,0.196865
788.3320,0.197093
789.2638,0.197106
790.1956,0.195550
791.1275,0.194177
792.0593,0.193113
792.9911,0.190895
793.9230,0.187519
794.8548,0.186608
795.7866,0.188263
796.7185,0.187734
797.6503,0.185148
798.5821,0.183452
799.5140,0.182970
800.4458,0.183660
801.3776,0.183711
802.3095,0.181892
803.2413,0.180428
804.1731,0.179959
805.1050,0.178808
806.0368,0.177403
806.9686,0.175509
807.9005,0.174105
808.8323,0.172480
809.7641,0.169197
810.6960,0.167222
811.6278,0.168150
812.5596,0.168345
813.4915,0.166463
814.4233,0.163887
815.3552,0.161781
816.2870,0.160323
817.2188,0.159120
818.1507,0.157926
819.0825,0.156312
820.0143,0.154489
820.9462,0.154538
821.8780,0.154869
822.8098,0.153769
823.7417,0.152300
824.6735,0.150922
825.6053,0.149393
826.5372,0.148438
827.4690,0.147584
828.4008,0.146957
829.3327,0.146331
830.2645,0.145231
831.1963,0.144135
832.1282,0.143007
833.0600,0.141028
833.9918,0.139944
834.9237,0.139372
835.8555,0.138309
836.7873,0.137125
837.7192,0.136129
838.6510,0.135640
839.5828,0.135496
840.5147,0.134713
841.4465,0.133187
842.3784,0.131229
843.3102,0.130001
844.2420,0.129696
845.1739,0.130282
846.1057,0.129591
847.0375,0.128176
847.9694,0.128040
848.9012,0.127031
849.8330,0.125316
850.7649,0.124827
851.6967,0.124417
852.6285,0.124261
853.5604,0.122983
854.4922,0.121268
855.4240,0.120395
856.3559,0.120832
857.2877,0.120638
858.2195,0.120361
859.1514,0.120027
860.0832,0.119385
861.0150,0.119478
861.9469,0.119597
862.8787,0.119560
863.8105,0.119911
864.7424,0.120256
865.6742,0.121503
866.6060,0.123150
867.5379,0.124360
868.4697,0.125532
869.4016,0.127258
870.3334,0.130264
871.2652,0.133782
872.1971,0.138361
873.1289,0.144174
874.0607,0.150032
874.9926,0.155659
875.9244,0.160450
876.8562,0.164096
877.7881,0.165628
878.7199,0.164904
879.6517,0.161649
880.5836,0.156277
881.5154,0.149114
882.4472,0.141888
883.3791,0.134419
884.3109,0.126994
885.2427,0.120503
886.1746,0.115002
887.1064,0.109816
888.0382,0.105363
888.9701,0.101319
889.9019,0.097480
890.8337,0.094284
891.7656,0.091775
892.6974,0.089869
893.6292,0.088660
894.5611,0.087206
895.4929,0.085887
896.4247,0.085127
897.3566,0.084443
898.2884,0.082925
899.2203,0.081351
900.1521,0.080158
901.0839,0.079570
902.0158,0.079212
902.9476,0.078550
903.8794,0.077944
904.8113,0.077451
905.7431,0.076643
906.6749,0.075913
907.6068,0.075379
908.5386,0.074840
909.4704,0.074146
910.4023,0.073416
911.3341,0.073044
912.2659,0.072584
913.1978,0.071811
914.1296,0.071367
915.0614,0.070990
915.9933,0.070860
916.9251,0.070379
917.8569,0.069406
918.7888,0.068901
919.7206,0.068219
920.6524,0.067335
921.5843,0.067060
922.5161,0.066651
923.4479,0.066291
924.3798,0.066739
925.3116,0.066546
926.2435,0.065391
927.1753,0.064870
928.1071,0.065142
929.0390,0.064845
929.9708,0.064253
930.9026,0.063657
931.8345,0.063151
932.7663,0.062697
933.6981,0.062601
934.6300,0.062304
935.5618,0.061562
936.4936,0.061006
937.4255,0.060915
938.3573,0.060921
939.2891,0.060905
940.2210,0.060613
941.1528,0.060192
942.0846,0.059933
943.0165,0.059796
943.9483,0.059577
944.8801,0.059463
945.8120,0.059214
946.7438,0.058475
947.6756,0.057926
948.6075,0.057923
949.5393,0.058051
950.4711,0.057844
951.4030,0.057502
952.3348,0.057256
953.2667,0.057004
954.1985,0.057139
955.1303,0.057067
956.0622,0.056697
956.9940,0.056334
957.9258,0.055960
958.8577,0.055873
959.7895,0.055695
960.7213,0.055870
961.6532,0.055891
962.5850,0.055744
963.5168,0.055579
964.4487,0.054905
965.3805,0.054572
966.3123,0.054481
967.2442,0.054581
968.1760,0.054870
969.1078,0.054557
970.0397,0.054365
970.9715,0.054391
971.9033,0.054498
972.8352,0.054565
973.7670,0.054148
974.6988,0.053647
975.6307,0.053419
976.5625,0.053773
977.4943,0.054016
978.4262,0.053783
979.3580,0.053856
980.2899,0.054018
981.2217,0.053844
982.1535,0.053555
983.0854,0.053555
984.0172,0.053734
984.9490,0.053545
985.8809,0.053294
986.8127,0.053549
987.7445,0.053821
988.6764,0.054056
989.6082,0.053878
990.5400,0.053751
991.4719,0.053927
992.4037,0.054096
993.3355,0.054260
994.2674,0.054285
995.1992,0.054606
996.1310,0.054672
997.0629,0.054587
997.9947,0.054996
998.9265,0.055312
999.8584,0.055492
1000.7902,0.055647
1001.7220,0.055787
1002.6539,0.055890
1003.5857,0.056537
1004.5175,0.057120
1005.4494,0.057314
1006.3812,0.057404
1007.3131,0.057746
1008.2449,0.058346
1009.1767,0.058855
1010.1086,0.059178
1011.0404,0.059786
1011.9722,0.060736
1012.9041,0.061550
1013.8359,0.062035
1014.7677,0.062723
1015.6996,0.063592
1016.6314,0.064716
1017.5632,0.066007
1018.4951,0.067391
1019.4269,0.068703
1020.3587,0.070167
1021.2906,0.071920
1022.2224,0.074043
1023.1542,0.076441
1024.0861,0.078949
1025.0179,0.081625
1025.9497,0.084760
1026.8816,0.088030
1027.8134,0.091412
1028.7452,0.095445
1029.6771,0.100411
1030.6089,0.105848
1031.5407,0.112092
1032.4726,0.119471
1033.4044,0.128006
1034.3362,0.137669
1035.2681,0.148311
1036.1999,0.160645
1037.1318,0.174462
1038.0636,0.189325
1038.9954,0.204917
1039.9273,0.220885
1040.8591,0.235699
1041.7909,0.248137
1042.7228,0.257711
1043.6546,0.263388
1044.5864,0.264082
1045.5183,0.259640
1046.4501,0.251217
1047.3819,0.239201
1048.3138,0.224533
1049.2456,0.208776
1050.1774,0.192370
1051.1093,0.175727
1052.0411,0.160113
1052.9729,0.145639
1053.9048,0.132225
1054.8366,0.120468
1055.7684,0.110315
1056.7003,0.101625
1057.6321,0.094181
1058.5639,0.088167
1059.4958,0.083357
1060.4276,0.079437
1061.3594,0.076598
1062.2913,0.074726
1063.2231,0.073022
1064.1550,0.071913
1065.0868,0.071390
1066.0186,0.071230
1066.9505,0.071316
1067.8823,0.071744
1068.8141,0.072475
1069.7460,0.073495
1070.6778,0.074810
1071.6096,0.076644
1072.5415,0.078742
1073.4733,0.080936
1074.4051,0.083207
1075.3370,0.085712
1076.2688,0.088819
1077.2006,0.091767
1078.1325,0.094788
1079.0643,0.098215
1079.9961,0.101296
1080.9280,0.104181
1081.8598,0.107033
1082.7916,0.109353
1083.7235,0.111052
1084.6553,0.111942
1085.5871,0.112313
1086.5190,0.112266
1087.4508,0.111044
1088.3826,0.108586
1089.3145,0.105525
1090.2463,0.101773
1091.1782,0.097711
1092.1100,0.093209
1093.0418,0.088581
1093.9737,0.084009
1094.9055,0.079318
1095.8373,0.075130
1096.7692,0.071162
1097.7010,0.067700
1098.6328,0.064885
1099.5647,0.061990
1100.4965,0.059349
1101.4283,0.057398
1102.3602,0.055738
1103.2920,0.054150
1104.2238,0.052578
1105.1557,0.051213
1106.0875,0.050440
1107.0193,0.049678
1107.9512,0.048738
1108.8830,0.047954
1109.8148,0.047579
1110.7467,0.047304
1111.6785,0.046583
1112.6103,0.046149
1113.5422,0.045989
1114.4740,0.045622
1115.4058,0.045548
1116.3377,0.045471
1117.2695,0.045276
1118.2014,0.045125
1119.1332,0.045113
1120.0650,0.045065
1120.9969,0.044923
1121.9287,0.044702
1122.8605,0.044835
1123.7924,0.044909
1124.7242,0.044827
1125.6560,0.044849
1126.5879,0.044833
1127.5197,0.044641
1128.4515,0.044413
1129.3834,0.044381
1130.3152,0.044418
1131.2470,0.044331
1132.1789,0.044145
1133.1107,0.043974
1134.0425,0.043704
1134.9744,0.043374
1135.9062,0.043259
1136.8380,0.043122
1137.7699,0.043074
1138.7017,0.043050
1139.6335,0.042808
1140.5654,0.042601
1141.4972,0.042450
1142.4290,0.042374
1143.3609,0.042354
1144.2927,0.042327
1145.2246,0.042124
1146.1564,0.042142
1147.0882,0.042317
1148.0201,0.042255
1148.9519,0.041921
1149.8837,0.041782
1150.8156,0.042074
1151.7474,0.042243
1152.6792,0.042243
1153.6111,0.042151
1154.5429,0.042080
1155.4747,0.042184
1156.4066,0.041919
1157.3384,0.041720
1158.2702,0.041651
1159.2021,0.041589
1160.1339,0.041399
1161.0657,0.041067
1161.9976,0.040830
1162.9294,0.040670
1163.8612,0.040610
1164.7931,0.040471
1165.7249,0.040364
1166.6567,0.039965
1167.5886,0.039595
1168.5204,0.039575
1169.4522,0.039645
1170.3841,0.039454
1171.3159,0.039310
1172.2477,0.039379
1173.1796,0.039350
1174.1114,0.039210
1175.0433,0.039201
1175.9751,0.039149
1176.9069,0.039092
1177.8388,0.039303
1178.7706,0.039071
1179.7024,0.038863
1180.6343,0.038910
1181.5661,0.039035
1182.4979,0.039095
1183.4298,0.039020
1184.3616,0.039097
1185.2934,0.039307
1186.2253,0.039416
1187.1571,0.039212
1188.0889,0.039113
1189.0208,0.039035
1189.9526,0.039080
1190.8844,0.039137
1191.8163,0.039102
1192.7481,0.039093
1193.6799,0.039063
1194.6118,0.039146
1195.5436,0.039275
1196.4754,0.039396
1197.4073,0.039453
1198.3391,0.039197
1199.2709,0.039218
1200.2028,0.039413
1201.1346,0.039378
1202.0665,0.039286
1202.9983,0.039370
1203.9301,0.039509
1204.8620,0.039602
1205.7938,0.039626
1206.7256,0.039500
1207.6575,0.039414
1208.5893,0.039510
1209.5211,0.039576
1210.4530,0.039476
1211.3848,0.039495
1212.3166,0.039591
1213.2485,0.039857
1214.1803,0.040134
1215.1121,0.040109
1216.0440,0.039870
1216.9758,0.040043
1217.9076,0.040401
1218.8395,0.040460
1219.7713,0.040422
1220.7031,0.040512
1221.6350,0.040503
1222.5668,0.040335
1223.4986,0.040398
1224.4305,0.040576
1225.3623,0.040612
1226.2941,0.040581
1227.2260,0.040523
1228.1578,0.040642
1229.0897,0.040896
1230.0215,0.041074
1230.9533,0.041009
1231.8852,0.041015
1232.8170,0.041048
1233.7488,0.040890
1234.6807,0.041115
1235.6125,0.041371
1236.5443,0.041406
1237.4762,0.041632
1238.4080,0.042042
1239.3398,0.042200
1240.2717,0.042095
1241.2035,0.042151
1242.1353,0.042401
1243.0672,0.042310
1243.9990,0.042178
1244.9308,0.042638
1245.8627,0.042878
1246.7945,0.042899
1247.7263,0.043188
1248.6582,0.043199
1249.5900,0.043185
1250.5218,0.043625
1251.4537,0.043877
1252.3855,0.044104
1253.3173,0.044361
1254.2492,0.044445
1255.1810,0.044814
1256.1129,0.044963
1257.0447,0.045109
1257.9765,0.045597
1258.9084,0.046171
1259.8402,0.046726
1260.7720,0.047316
1261.7039,0.047808
1262.6357,0.048172
1263.5675,0.048485
1264.4994,0.048910
1265.4312,0.049338
1266.3630,0.050098
1267.2949,0.050836
1268.2267,0.051522
1269.1585,0.052234
1270.0904,0.052764
1271.0222,0.053210
1271.9540,0.053726
1272.8859,0.053978
1273.8177,0.054026
1274.7495,0.054135
1275.6814,0.054226
1276.6132,0.053952
1277.5450,0.053395
1278.4769,0.052933
1279.4087,0.052568
1280.3405,0.052215
1281.2724,0.051787
1282.2042,0.051193
1283.1361,0.050747
1284.0679,0.050551
1284.9997,0.050249
1285.9316,0.049901
1286.8634,0.049524
1287.7952,0.049644
1288.7271,0.050031
1289.6589,0.049756
1290.5907,0.049521
1291.5226,0.049561
1292.4544,0.049639
1293.3862,0.049839
1294.3181,0.049944
1295.2499,0.050145
1296.1817,0.050606
1297.1136,0.050832
1298.0454,0.050794
1298.9772,0.050967
1299.9091,0.051279
1300.8409,0.051532
1301.7727,0.051780
1302.7046,0.052044
1303.6364,0.052397
1304.5682,0.052661
1305.5001,0.052878
1306.4319,0.053035
1307.3637,0.053366
1308.2956,0.053834
1309.2274,0.054200
1310.1592,0.054154
1311.0911,0.054132
1312.0229,0.054502
1312.9548,0.055101
1313.8866,0.055508
1314.8184,0.055553
1315.7503,0.055661
1316.6821,0.055649
1317.6139,0.055690
1318.5458,0.056026
1319.4776,0.056698
1320.4094,0.057174
1321.3413,0.057016
1322.2731,0.056768
1323.2049,0.056773
1324.1368,0.056853
1325.0686,0.056828
1326.0004,0.057021
1326.9323,0.057076
1327.8641,0.056917
1328.7959,0.056683
1329.7278,0.056426
1330.6596,0.056369
1331.5914,0.056297
1332.5233,0.056122
1333.4551,0.055985
1334.3869,0.055559
1335.3188,0.054913
1336.2506,0.054444
1337.1824,0.054209
1338.1143,0.054014
1339.0461,0.054167
1339.9780,0.054425
1340.9098,0.054014
1341.8416,0.053263
1342.7735,0.052613
1343.7053,0.052381
1344.6371,0.052107
1345.5690,0.051545
1346.5008,0.051356
1347.4326,0.051385
1348.3645,0.050926
1349.2963,0.050367
1350.2281,0.050281
1351.1600,0.050281
1352.0918,0.050015
1353.0236,0.049770
1353.9555,0.049713
1354.8873,0.049890
1355.8191,0.050064
1356.7510,0.049864
1357.6828,0.049577
1358.6146,0.049313
1359.5465,0.049023
1360.4783,0.048876
1361.4101,0.049555
1362.3420,0.050390
1363.2738,0.050909
1364.2056,0.051321
1365.1375,0.050965
1366.0693,0.050886
1367.0012,0.051175
1367.9330,0.051771
1368.8648,0.052605
1369.7967,0.053608
1370.7285,0.054294
1371.6603,0.055420
1372.5922,0.056927
1373.5240,0.058246
1374.4558,0.060035
1375.3877,0.061831
1376.3195,0.062348
1377.2513,0.062664
1378.1832,0.063668
1379.1150,0.064848
1380.0468,0.065544
1380.9787,0.066126
1381.9105,0.066469
1382.8423,0.066826
1383.7742,0.066924
1384.7060,0.066819
1385.6378,0.066678
1386.5697,0.066722
1387.5015,0.067162
1388.4333,0.067305
1389.3652,0.065978
1390.2970,0.064693
1391.2288,0.063989
1392.1607,0.063655
1393.0925,0.063205
1394.0244,0.062543
1394.9562,0.062598
1395.8880,0.063266
1396.8199,0.063297
1397.7517,0.063112
1398.6835,0.063188
1399.6154,0.063775
1400.5472,0.064185
1401.4790,0.063468
1402.4109,0.062994
1403.3427,0.063161
1404.2745,0.063397
1405.2064,0.064094
1406.1382,0.064962
1407.0700,0.064867
1408.0019,0.064793
1408.9337,0.064841
1409.8655,0.065033
1410.7974,0.065347
1411.7292,0.065291
1412.6610,0.065287
1413.5929,0.065206
1414.5247,0.064832
1415.4565,0.064457
1416.3884,0.064190
1417.3202,0.064342
1418.2520,0.064991
1419.1839,0.065823
1420.1157,0.067321
1421.0476,0.066639
1421.9794,0.064774
1422.9112,0.063770
1423.8431,0.063592
1424.7749,0.063969
1425.7067,0.063342
1426.6386,0.062343
1427.5704,0.061809
1428.5022,0.061553
1429.4341,0.061224
1430.3659,0.061138
1431.2977,0.060541
1432.2296,0.059238
1433.1614,0.058457
1434.0932,0.057907
1435.0251,0.057373
1435.9569,0.057240
1436.8887,0.058400
1437.8206,0.059258
1438.7524,0.057380
1439.6842,0.056400
1440.6161,0.056487
1441.5479,0.056551
1442.4797,0.056484
1443.4116,0.056535
1444.3434,0.056878
1445.2752,0.057362
1446.2071,0.057747
1447.1389,0.058587
1448.0707,0.060207
1449.0026,0.061626
1449.9344,0.062056
1450.8663,0.062131
1451.7981,0.062367
1452.7299,0.062567
1453.6618,0.061955
1454.5936,0.061009
1455.5254,0.061093
1456.4573,0.061719
1457.3891,0.061951
1458.3209,0.061070
1459.2528,0.058927
1460.1846,0.056287
1461.1164,0.054104
1462.0483,0.052536
1462.9801,0.051169
1463.9119,0.050333
1464.8438,0.050207
1465.7756,0.050018
1466.7074,0.048220
1467.6393,0.046944
1468.5711,0.046417
1469.5029,0.045492
1470.4348,0.044581
1471.3666,0.044294
1472.2984,0.044977
1473.2303,0.045791
1474.1621,0.045634
1475.0939,0.044784
1476.0258,0.044692
1476.9576,0.045813
1477.8895,0.045587
1478.8213,0.045034
1479.7531,0.045513
1480.6850,0.045913
1481.6168,0.045994
1482.5486,0.045771
1483.4805,0.045408
1484.4123,0.045411
1485.3441,0.045084
1486.2760,0.044381
1487.2078,0.044254
1488.1396,0.044396
1489.0715,0.043815
1490.0033,0.044122
1490.9351,0.044426
1491.8670,0.043228
1492.7988,0.041819
1493.7306,0.040927
1494.6625,0.040567
1495.5943,0.040864
1496.5261,0.041858
1497.4580,0.042025
1498.3898,0.040598
1499.3216,0.040577
1500.2535,0.040372
1501.1853,0.039569
1502.1171,0.039287
1503.0490,0.038894
1503.9808,0.038652
1504.9127,0.038583
1505.8445,0.039092
1506.7763,0.041135
1507.7082,0.043414
1508.6400,0.041884
1509.5718,0.040100
1510.5037,0.039535
1511.4355,0.038746
1512.3673,0.038593
1513.2992,0.039098
1514.2310,0.038590
1515.1628,0.038237
1516.0947,0.038918
1517.0265,0.039685
1517.9583,0.039618
1518.8902,0.038873
1519.8220,0.038785
1520.7538,0.039722
1521.6857,0.040613
1522.6175,0.040205
1523.5493,0.039885
1524.4812,0.039219
1525.4130,0.039327
1526.3448,0.040237
1527.2767,0.040080
1528.2085,0.040091
1529.1403,0.040079
1530.0722,0.039410
1531.0040,0.038847
1531.9359,0.039414
1532.8677,0.040176
1533.7995,0.040969
1534.7314,0.041524
1535.6632,0.040037
1536.5950,0.039129
1537.5269,0.039241
1538.4587,0.039583
1539.3905,0.040413
1540.3224,0.041813
1541.2542,0.041214
1542.1860,0.040691
1543.1179,0.040989
1544.0497,0.041027
1544.9815,0.041765
1545.9134,0.042546
1546.8452,0.042135
1547.7770,0.041284
1548.7089,0.041172
1549.6407,0.041546
1550.5725,0.042479
1551.5044,0.042725
1552.4362,0.042001
1553.3680,0.041755
1554.2999,0.042214
1555.2317,0.042923
1556.1635,0.042124
1557.0954,0.041678
1558.0272,0.043439
1558.9591,0.047104
1559.8909,0.048946
1560.8227,0.048186
1561.7546,0.046299
1562.6864,0.044835
1563.6182,0.044531
1564.5501,0.044913
1565.4819,0.045529
1566.4137,0.045676
1567.3456,0.045613
1568.2774,0.045663
1569.2092,0.046398
1570.1411,0.047997
1571.0729,0.048983
1572.0047,0.048607
1572.9366,0.048252
1573.8684,0.048286
1574.8002,0.048585
1575.7321,0.049465
1576.6639,0.051690
1577.5957,0.053006
1578.5276,0.052189
1579.4594,0.051925
1580.3912,0.052186
1581.3231,0.052624
1582.2549,0.053214
1583.1867,0.054111
1584.1186,0.054733
1585.0504,0.055309
1585.9822,0.056072
1586.9141,0.056593
1587.8459,0.057137
1588.7778,0.058115
1589.7096,0.058886
1590.6414,0.059394
1591.5733,0.060277
1592.5051,0.061138
1593.4369,0.062147
1594.3688,0.063558
1595.3006,0.064822
1596.2324,0.065766
1597.1643,0.066688
1598.0961,0.067686
1599.0279,0.068950
1599.9598,0.069962
1600.8916,0.070670
1601.8234,0.072073
1602.7553,0.073704
1603.6871,0.074970
1604.6189,0.076787
1605.5508,0.078557
1606.4826,0.079932
1607.4144,0.081856
1608.3463,0.083915
1609.2781,0.085270
1610.2099,0.086752
1611.1418,0.088641
1612.0736,0.090071
1613.0054,0.090955
1613.9373,0.092197
1614.8691,0.093672
1615.8010,0.095435
1616.7328,0.099043
1617.6646,0.104557
1618.5965,0.107298
1619.5283,0.106177
1620.4601,0.106315
1621.3920,0.108266
1622.3238,0.110656
1623.2556,0.113411
1624.1875,0.117258
1625.1193,0.120188
1626.0511,0.120820
1626.9830,0.121695
1627.9148,0.124083
1628.8466,0.127393
1629.7785,0.128320
1630.7103,0.127748
1631.6421,0.127994
1632.5740,0.128018
1633.5058,0.128257
1634.4376,0.129635
1635.3695,0.133620
1636.3013,0.140399
1637.2331,0.142827
1638.1650,0.140393
1639.0968,0.139483
1640.0286,0.138399
1640.9605,0.136906
1641.8923,0.136736
1642.8242,0.135976
1643.7560,0.134305
1644.6878,0.133234
1645.6197,0.133423
1646.5515,0.135710
1647.4833,0.137612
1648.4152,0.136566
1649.3470,0.133206
1650.2788,0.129245
1651.2107,0.127058
1652.1425,0.126842
1653.0743,0.129798
1654.0062,0.136574
1654.9380,0.136168
1655.8698,0.130292
1656.8017,0.125332
1657.7335,0.122580
1658.6653,0.121097
1659.5972,0.119341
1660.5290,0.117252
1661.4608,0.115959
1662.3927,0.115278
1663.3245,0.115103
1664.2563,0.113711
1665.1882,0.110778
1666.1200,0.108234
1667.0518,0.105946
1667.9837,0.104138
1668.9155,0.103273
1669.8474,0.102924
1670.7792,0.101049
1671.7110,0.098549
1672.6429,0.097206
1673.5747,0.095216
1674.5065,0.093254
1675.4384,0.092346
1676.3702,0.091641
1677.3020,0.088793
1678.2339,0.086351
1679.1657,0.084617
1680.0975,0.083098
1681.0294,0.081664
1681.9612,0.079493
1682.8930,0.077798
1683.8249,0.077748
1684.7567,0.078352
1685.6885,0.076659
1686.6204,0.072324
1687.5522,0.070049
1688.4840,0.069252
1689.4159,0.068296
1690.3477,0.067133
1691.2795,0.065606
1692.2114,0.063612
1693.1432,0.061913
1694.0750,0.060248
1695.0069,0.058330
1695.9387,0.057596
1696.8706,0.057585
1697.8024,0.055534
1698.7342,0.053315
1699.6661,0.052432
1700.5979,0.053189
1701.5297,0.052910
1702.4616,0.049071
1703.3934,0.047500
1704.3252,0.047278
1705.2571,0.046882
1706.1889,0.045890
1707.1207,0.044982
1708.0526,0.043567
1708.9844,0.041978
1709.9162,0.041051
1710.8481,0.040970
1711.7799,0.040353
1712.7117,0.039152
1713.6436,0.038288
1714.5754,0.037553
1715.5072,0.036988
1716.4391,0.035842
1717.3709,0.035052
1718.3027,0.035118
1719.2346,0.034324
1720.1664,0.032413
1721.0982,0.032027
1722.0301,0.031772
1722.9619,0.030983
1723.8937,0.030305
1724.8256,0.029917
1725.7574,0.029613
1726.6893,0.029277
1727.6211,0.028597
1728.5529,0.028037
1729.4848,0.027736
1730.4166,0.027523
1731.3484,0.026796
1732.2803,0.026216
1733.2121,0.026780
1734.1439,0.027499
1735.0758,0.026317
1736.0076,0.023594
1736.9394,0.022671
1737.8713,0.022695
1738.8031,0.023020
1739.7349,0.023624
1740.6668,0.023389
1741.5986,0.022109
1742.5304,0.021785
1743.4623,0.022209
1744.3941,0.021871
1745.3259,0.020620
1746.2578,0.020437
1747.1896,0.020590
1748.1214,0.020421
1749.0533,0.020593
1749.9851,0.020416
1750.9169,0.019417
1751.8488,0.019441
1752.7806,0.018934
1753.7125,0.018639
1754.6443,0.019079
1755.5761,0.019127
1756.5080,0.018773
1757.4398,0.018654
1758.3716,0.018196
1759.3035,0.017236
1760.2353,0.016809
1761.1671,0.017283
1762.0990,0.018165
1763.0308,0.017410
1763.9626,0.016001
1764.8945,0.016517
1765.8263,0.016968
1766.7581,0.016917
1767.6900,0.016964
1768.6218,0.016728
1769.5536,0.016076
1770.4855,0.015698
1771.4173,0.015620
1772.3491,0.015400
1773.2810,0.014727
1774.2128,0.014128
1775.1446,0.013796
1776.0765,0.014065
1777.0083,0.014121
1777.9401,0.013956
1778.8720,0.014250
1779.8038,0.014657
1780.7357,0.014584
1781.6675,0.013826
1782.5993,0.012858
1783.5312,0.012910
1784.4630,0.013162
1785.3948,0.013367
1786.3267,0.013712
1787.2585,0.013395
1788.1903,0.013082
1789.1222,0.013123
1790.0540,0.013367
1790.9858,0.013535
1791.9177,0.013520
1792.8495,0.013149
1793.7813,0.013034
1794.7132,0.012746
1795.6450,0.012836
1796.5768,0.012945
1797.5087,0.012045
1798.4405,0.011416
1799.3723,0.011951
1800.3042,0.012004
1801.2360,0.011544
1802.1678,0.011414
1803.0997,0.011776
1804.0315,0.011529
1804.9633,0.011333
1805.8952,0.011354
1806.8270,0.011278
1807.7589,0.011534
1808.6907,0.011655
1809.6225,0.011189
1810.5544,0.011010
1811.4862,0.010961
1812.4180,0.010492
1813.3499,0.010384
1814.2817,0.010806
1815.2135,0.011075
1816.1454,0.010837
1817.0772,0.010805
1818.0090,0.011040
1818.9409,0.010892
1819.8727,0.010278
1820.8045,0.010337
1821.7364,0.011461
1822.6682,0.011323
1823.6000,0.010720
1824.5319,0.010708
1825.4637,0.011059
1826.3955,0.011139
1827.3274,0.010093
1828.2592,0.010051
1829.1910,0.010650
1830.1229,0.011263
1831.0547,0.010980
1831.9865,0.009377
1832.9184,0.008913
1833.8502,0.009657
1834.7821,0.010384
1835.7139,0.010111
1836.6457,0.010093
1837.5776,0.010342
1838.5094,0.010002
1839.4412,0.009315
1840.3731,0.009094
1841.3049,0.009574
1842.2367,0.009448
1843.1686,0.009416
1844.1004,0.010069
1845.0322,0.010072
1845.9641,0.008766
1846.8959,0.008134
1847.8277,0.008503
1848.7596,0.009337
1849.6914,0.010011
1850.6232,0.010398
1851.5551,0.009558
1852.4869,0.009410
1853.4187,0.009831
1854.3506,0.009445
1855.2824,0.009044
1856.2142,0.009154
1857.1461,0.008969
1858.0779,0.008158
1859.0097,0.008271
1859.9416,0.009398
1860.8734,0.009528
1861.8052,0.009359
1862.7371,0.009490
1863.6689,0.009425
1864.6008,0.008921
1865.5326,0.008675
1866.4644,0.008836
1867.3963,0.009174
1868.3281,0.009588
1869.2599,0.008407
1870.1918,0.007442
1871.1236,0.008368
1872.0554,0.008362
1872.9873,0.007871
1873.9191,0.008474
1874.8509,0.008465
1875.7828,0.007595
1876.7146,0.007877
1877.6464,0.009076
1878.5783,0.009468
1879.5101,0.008914
1880.4419,0.008736
1881.3738,0.008295
1882.3056,0.007893
1883.2374,0.007930
1884.1693,0.008436
1885.1011,0.009033
1886.0329,0.008608
1886.9648,0.007635
1887.8966,0.008234
1888.8284,0.009345
1889.7603,0.009984
1890.6921,0.009213
1891.6240,0.007255
1892.5558,0.008112
1893.4876,0.009256
1894.4195,0.008818
1895.3513,0.008953
1896.2831,0.008750
1897.2150,0.008144
1898.1468,0.008152
1899.0786,0.007066
1900.0105,0.006794
1900.9423,0.008450
1901.8741,0.009784
1902.8060,0.008404
1903.7378,0.008371
1904.6696,0.008954
1905.6015,0.008630
1906.5333,0.008286
1907.4651,0.007908
1908.3970,0.008658
1909.3288,0.009469
1910.2606,0.008653
1911.1925,0.008527
1912.1243,0.009355
1913.0561,0.010540
1913.9880,0.010739
1914.9198,0.009995
1915.8516,0.009282
1916.7835,0.008289
1917.7153,0.009113
1918.6472,0.009856
1919.5790,0.007235
1920.5108,0.006405
1921.4427,0.007303
1922.3745,0.008220
1923.3063,0.008901
1924.2382,0.008244
1925.1700,0.006838
1926.1018,0.007167
1927.0337,0.009478
1927.9655,0.008174
1928.8973,0.006995
1929.8292,0.007416
1930.7610,0.007908
1931.6928,0.009609
1932.6247,0.009628
1933.5565,0.008646
1934.4883,0.009019
1935.4202,0.008483
1936.3520,0.006198
1937.2838,0.005845
1938.2157,0.007783
1939.1475,0.008317
1940.0793,0.006830
1941.0112,0.005379
1941.9430,0.005472
1942.8748,0.008640
1943.8067,0.009628
1944.7385,0.006487
1945.6704,0.006493
1946.6022,0.005589
1947.5340,0.005307
1948.4659,0.005292
1949.3977,0.004870
1950.3295,0.003889
1951.2614,0.004400
1952.1932,0.006381
1953.1250,0.006211
1954.0569,0.008014
1954.9887,0.007952
1955.9205,0.004132
1956.8524,0.003391
1957.7842,0.006033
1958.7160,0.006753
1959.6479,0.004443
1960.5797,0.005987
1961.5115,0.007112
1962.4434,0.006030
1963.3752,0.004581
1964.3070,0.006160
1965.2389,0.006061
1966.1707,0.002275
1967.1025,0.004516
1968.0344,0.006936
1968.9662,0.005436
1969.8980,0.005941
1970.8299,0.004748
1971.7617,0.003077
1972.6936,0.004126
1973.6254,0.004099
1974.5572,0.005044
1975.4891,0.005010
1976.4209,0.005844
1977.3527,0.007806
1978.2846,0.004426
1979.2164,0.002242
1980.1482,0.005392
1981.0801,0.006547
1982.0119,0.005768
1982.9437,0.004357
1983.8756,0.003237
1984.8074,0.004478
1985.7392,0.004236
1986.6711,0.001870
1987.6029,0.001638
1988.5347,0.002176
1989.4666,0.002035
1990.3984,0.003096
1991.3302,0.004045
1992.2621,0.004847
1993.1939,0.002883
1994.1257,0.003593
1995.0576,0.006135
1995.9894,0.006212
1996.9212,0.007402
1997.8531,0.007093
1998.7849,0.004105
1999.7167,0.001737
2000.6486,0.003840
2001.5804,0.003123
2002.5123,0.001802
2003.4441,0.002024
2004.3759,0.003410
2005.3078,0.006100
2006.2396,0.006433
2007.1714,0.005684
2008.1033,0.006015
2009.0351,0.007155
2009.9669,0.008364
2010.8988,0.007768
2011.8306,0.006058
2012.7624,0.003635
2013.6943,0.003913
2014.6261,0.006600
2015.5579,0.006743
2016.4898,0.003716
2017.4216,0.003420
2018.3534,0.003534
2019.2853,0.004273
2020.2171,0.004163
2021.1489,0.004257
2022.0808,0.004046
2023.0126,0.005995
2023.9444,0.008139
2024.8763,0.005040
2025.8081,0.000517
2026.7399,-0.000428
2027.6718,0.001554
2028.6036,0.003100
2029.5355,0.005448
2030.4673,0.004875
2031.3991,0.002119
2032.3310,0.003331
2033.2628,0.006274
2034.1946,0.008084
2035.1265,0.008114
2036.0583,0.005601
2036.9901,0.003701
2037.9220,0.003554
2038.8538,0.003576
2039.7856,0.003389
2040.7175,0.004131
2041.6493,0.005087
2042.5811,0.006233
2043.5130,0.006855
2044.4448,0.005976
2045.3766,0.004911
2046.3085,0.004742
2047.2403,0.005758
2048.1721,0.009109
2049.1040,0.008100
2050.0358,0.007449
2050.9676,0.010482
2051.8995,0.009657
2052.8313,0.007317
2053.7631,0.008207
2054.6950,0.008656
2055.6268,0.009576
2056.5587,0.010628
2057.4905,0.011945
2058.4223,0.011244
2059.3542,0.009457
2060.2860,0.009302
2061.2178,0.009163
2062.1497,0.009803
2063.0815,0.011480
2064.0133,0.011076
2064.9452,0.008968
2065.8770,0.011079
2066.8088,0.012580
2067.7407,0.011537
2068.6725,0.010515
2069.6043,0.010114
2070.5362,0.009352
2071.4680,0.009908
2072.3998,0.011980
2073.3317,0.012839
2074.2635,0.011863
2075.1953,0.012498
2076.1272,0.013470
2077.0590,0.012361
2077.9908,0.011645
2078.9227,0.011006
2079.8545,0.010047
2080.7863,0.011076
2081.7182,0.011621
2082.6500,0.011455
2083.5819,0.011687
2084.5137,0.012458
2085.4455,0.014246
2086.3774,0.014844
2087.3092,0.012854
2088.2410,0.011466
2089.1729,0.011133
2090.1047,0.010074
2091.0365,0.010071
2091.9684,0.011104
2092.9002,0.011405
2093.8320,0.012080
2094.7639,0.012283
2095.6957,0.011549
2096.6275,0.010507
2097.5594,0.010228
2098.4912,0.009849
2099.4230,0.009915
2100.3549,0.011136
2101.2867,0.012049
2102.2185,0.011587
2103.1504,0.012025
2104.0822,0.012253
2105.0140,0.012053
2105.9459,0.012834
2106.8777,0.013701
2107.8095,0.013705
2108.7414,0.013395
2109.6732,0.012756
2110.6051,0.012079
2111.5369,0.012291
2112.4687,0.012921
2113.4006,0.013069
2114.3324,0.013222
2115.2642,0.013535
2116.1961,0.012913
2117.1279,0.011705
2118.0597,0.011815
2118.9916,0.013071
2119.9234,0.012700
2120.8552,0.011392
2121.7871,0.011609
2122.7189,0.012334
2123.6507,0.014568
2124.5826,0.015421
2125.5144,0.014397
2126.4462,0.013753
2127.3781,0.013244
2128.3099,0.013124
2129.2417,0.013980
2130.1736,0.014475
2131.1054,0.013393
2132.0372,0.012114
2132.9691,0.011656
2133.9009,0.012497
2134.8327,0.012020
2135.7646,0.011431
2136.6964,0.013108
2137.6282,0.014796
2138.5601,0.013609
2139.4919,0.011246
2140.4238,0.009573
2141.3556,0.009617
2142.2874,0.011006
2143.2193,0.011183
2144.1511,0.010583
2145.0829,0.010575
2146.0148,0.013032
2146.9466,0.012412
2147.8784,0.009377
2148.8103,0.008715
2149.7421,0.008798
2150.6739,0.008509
2151.6058,0.007231
2152.5376,0.006097
2153.4694,0.006754
2154.4013,0.006217
2155.3331,0.006435
2156.2649,0.006514
2157.1968,0.004510
2158.1286,0.005772
2159.0604,0.006444
2159.9923,0.004328
2160.9241,0.001297
2161.8559,0.001356
2162.7878,0.005713
2163.7196,0.008764
2164.6514,0.009253
2165.5833,0.009336
2166.5151,0.007854
2167.4470,0.004595
2168.3788,0.002918
2169.3106,0.003413
2170.2425,0.005651
2171.1743,0.007307
2172.1061,0.007302
2173.0380,0.008447
2173.9698,0.009862
2174.9016,0.009000
2175.8335,0.006310
2176.7653,0.005670
2177.6971,0.007107
2178.6290,0.006906
2179.5608,0.006765
2180.4926,0.007952
2181.4245,0.008503
2182.3563,0.007214
2183.2881,0.005642
2184.2200,0.005654
2185.1518,0.005483
2186.0836,0.005255
2187.0155,0.006886
2187.9473,0.008974
2188.8791,0.010159
2189.8110,0.005171
2190.7428,0.001676
2191.6746,0.004256
2192.6065,0.007632
2193.5383,0.007593
2194.4702,0.010190
2195.4020,0.012123
2196.3338,0.011312
2197.2657,0.009742
2198.1975,0.007406
2199.1293,0.007238
2200.0612,0.007798
2200.9930,0.006458
2201.9248,0.006753
2202.8567,0.007811
2203.7885,0.008974
2204.7203,0.010158
2205.6522,0.011396
2206.5840,0.009544
2207.5158,0.008467
2208.4477,0.008453
2209.3795,0.008241
2210.3113,0.008471
2211.2432,0.008487
2212.1750,0.008137
2213.1068,0.007996
2214.0387,0.007277
2214.9705,0.007952
2215.9023,0.008856
2216.8342,0.008782
2217.7660,0.009178
2218.6978,0.007872
2219.6297,0.005255
2220.5615,0.005726
2221.4934,0.008533
2222.4252,0.010670
2223.3570,0.010070
2224.2889,0.008358
2225.2207,0.007402
2226.1525,0.008843
2227.0844,0.009464
2228.0162,0.008737
2228.9480,0.008533
2229.8799,0.006373
2230.8117,0.006687
2231.7435,0.008801
2232.6754,0.009107
2233.6072,0.008088
2234.5390,0.008166
2235.4709,0.009703
2236.4027,0.010624
2237.3345,0.009415
2238.2664,0.008340
2239.1982,0.010137
2240.1300,0.010531
2241.0619,0.009872
2241.9937,0.009256
2242.9255,0.008400
2243.8574,0.007734
2244.7892,0.008859
2245.7210,0.010356
2246.6529,0.008421
2247.5847,0.007918
2248.5166,0.009082
2249.4484,0.009522
2250.3802,0.008698
2251.3121,0.008011
2252.2439,0.008595
2253.1757,0.008089
2254.1076,0.008134
2255.0394,0.008585
2255.9712,0.008133
2256.9031,0.007509
2257.8349,0.006714
2258.7667,0.007499
2259.6986,0.008922
2260.6304,0.008716
2261.5622,0.007517
2262.4941,0.007505
2263.4259,0.008709
2264.3577,0.009351
2265.2896,0.010536
2266.2214,0.011443
2267.1532,0.011291
2268.0851,0.010019
2269.0169,0.009738
2269.9487,0.009934
2270.8806,0.009321
2271.8124,0.008977
2272.7442,0.009167
2273.6761,0.009433
2274.6079,0.008927
2275.5397,0.008171
2276.4716,0.007919
2277.4034,0.008394
2278.3353,0.008239
2279.2671,0.007393
2280.1989,0.007065
2281.1308,0.007047
2282.0626,0.007057
2282.9944,0.008169
2283.9263,0.010137
2284.8581,0.010597
2285.7899,0.008792
2286.7218,0.007931
2287.6536,0.009212
2288.5854,0.009633
2289.5173,0.009010
2290.4491,0.009031
2291.3809,0.008908
2292.3128,0.008718
2293.2446,0.008605
2294.1764,0.009209
2295.1083,0.009199
2296.0401,0.008695
2296.9719,0.009206
2297.9038,0.009321
2298.8356,0.009521
2299.7674,0.009517
2300.6993,0.008554
2301.6311,0.008344
2302.5629,0.009184
2303.4948,0.009013
2304.4266,0.008774
2305.3585,0.009245
2306.2903,0.009562
2307.2221,0.008593
2308.1540,0.007949
2309.0858,0.008501
2310.0176,0.008999
2310.9495,0.008809
2311.8813,0.008823
2312.8131,0.009004
2313.7450,0.008017
2314.6768,0.007334
2315.6086,0.007910
2316.5405,0.008802
2317.4723,0.008960
2318.4041,0.008658
2319.3360,0.008821
2320.2678,0.008778
2321.1996,0.008726
2322.1315,0.008886
2323.0633,0.009128
2323.9951,0.009117
2324.9270,0.008597
2325.8588,0.007783
2326.7906,0.008153
2327.7225,0.008942
2328.6543,0.008989
2329.5861,0.008514
2330.5180,0.008502
2331.4498,0.008476
2332.3817,0.008479
2333.3135,0.007839
2334.2453,0.007711
2335.1772,0.008365
2336.1090,0.008633
2337.0408,0.008306
2337.9727,0.008473
2338.9045,0.008756
2339.8363,0.008118
2340.7682,0.007187
2341.7000,0.007431
2342.6318,0.007840
2343.5637,0.008128
2344.4955,0.008074
2345.4273,0.007548
2346.3592,0.007516
2347.2910,0.008475
2348.2228,0.008830
2349.1547,0.008026
2350.0865,0.007615
2351.0183,0.008346
2351.9502,0.008833
2352.8820,0.008403
2353.8138,0.008239
2354.7457,0.008540
2355.6775,0.008043
2356.6093,0.008033
2357.5412,0.007665
2358.4730,0.007006
2359.4049,0.006933
2360.3367,0.007212
2361.2685,0.007383
2362.2004,0.007409
2363.1322,0.007529
2364.0640,0.008102
2364.9959,0.008256
2365.9277,0.007939
2366.8595,0.007174
2367.7914,0.005714
2368.7232,0.005229
2369.6550,0.005910
2370.5869,0.007316
2371.5187,0.007711
2372.4505,0.006507
2373.3824,0.006294
2374.3142,0.006861
2375.2460,0.007064
2376.1779,0.007045
2377.1097,0.006656
2378.0415,0.006338
2378.9734,0.006831
2379.9052,0.007228
2380.8370,0.007144
2381.7689,0.007182
2382.7007,0.007148
2383.6325,0.006346
2384.5644,0.006037
2385.4962,0.006366
2386.4281,0.006875
2387.3599,0.007445
2388.2917,0.007456
2389.2236,0.007134
2390.1554,0.006751
2391.0872,0.006295
2392.0191,0.006226
2392.9509,0.006528
2393.8827,0.006565
2394.8146,0.006271
2395.7464,0.006359
2396.6782,0.006737
2397.6101,0.006708
2398.5419,0.006991
2399.4737,0.007352
2400.4056,0.007301
2401.3374,0.007253
2402.2692,0.006819
2403.2011,0.006009
2404.1329,0.005529
2405.0647,0.005694
2405.9966,0.006410
2406.9284,0.006799
2407.8602,0.006313
2408.7921,0.006351
2409.7239,0.006679
2410.6557,0.006270
2411.5876,0.006195
2412.5194,0.006572
2413.4512,0.006775
2414.3831,0.007343
2415.3149,0.007089
2416.2468,0.006762
2417.1786,0.006991
2418.1104,0.007078
2419.0423,0.006974
2419.9741,0.006687
2420.9059,0.006229
2421.8378,0.006087
2422.7696,0.006320
2423.7014,0.006223
2424.6333,0.005907
2425.5651,0.005990
2426.4969,0.006494
2427.4288,0.006730
2428.3606,0.006471
2429.2924,0.005906
2430.2243,0.005290
2431.1561,0.005601
2432.0879,0.005821
2433.0198,0.005691
2433.9516,0.005317
2434.8834,0.005307
2435.8153,0.005802
2436.7471,0.005967
2437.6789,0.006108
2438.6108,0.005938
2439.5426,0.005559
2440.4744,0.005825
2441.4063,0.005678
2442.3381,0.005148
2443.2700,0.005645
2444.2018,0.006158
2445.1336,0.005746
2446.0655,0.005935
2446.9973,0.005762
2447.9291,0.004632
2448.8610,0.003739
2449.7928,0.004413
2450.7246,0.005737
2451.6565,0.006187
2452.5883,0.006341
2453.5201,0.006140
2454.4520,0.005428
2455.3838,0.005288
2456.3156,0.005756
2457.2475,0.006278
2458.1793,0.005855
2459.1111,0.005654
2460.0430,0.006074
2460.9748,0.005914
2461.9066,0.005667
2462.8385,0.005638
2463.7703,0.005291
2464.7021,0.005299
2465.6340,0.005005
2466.5658,0.004774
2467.4976,0.004772
2468.4295,0.004180
2469.3613,0.004584
2470.2932,0.005262
2471.2250,0.005299
2472.1568,0.005778
2473.0887,0.005575
2474.0205,0.004618
2474.9523,0.004459
2475.8842,0.005230
2476.8160,0.005605
2477.7478,0.005372
2478.6797,0.004817
2479.6115,0.004911
2480.5433,0.005955
2481.4752,0.006596
2482.4070,0.005496
2483.3388,0.004718
2484.2707,0.005239
2485.2025,0.005185
2486.1343,0.005057
2487.0662,0.005694
2487.9980,0.006341
2488.9298,0.005964
2489.8617,0.005090
2490.7935,0.005557
2491.7253,0.006422
2492.6572,0.006268
2493.5890,0.005595
2494.5208,0.005852
2495.4527,0.006132
2496.3845,0.004927
2497.3164,0.004623
2498.2482,0.005715
2499.1800,0.005082
2500.1119,0.004335
2501.0437,0.005127
2501.9755,0.006005
2502.9074,0.006521
2503.8392,0.006402
2504.7710,0.005518
2505.7029,0.004524
2506.6347,0.004433
2507.5665,0.005623
2508.4984,0.006096
2509.4302,0.005645
2510.3620,0.005406
2511.2939,0.005869
2512.2257,0.006410
2513.1575,0.006074
2514.0894,0.004816
2515.0212,0.004183
2515.9530,0.004128
2516.8849,0.004473
2517.8167,0.005616
2518.7485,0.006683
2519.6804,0.006569
2520.6122,0.005499
2521.5440,0.005372
2522.4759,0.006245
2523.4077,0.005873
2524.3396,0.005376
2525.2714,0.005632
2526.2032,0.005027
2527.1351,0.004579
2528.0669,0.005150
2528.9987,0.005201
2529.9306,0.005426
2530.8624,0.005135
2531.7942,0.004248
2532.7261,0.004283
2533.6579,0.004305
2534.5897,0.003842
2535.5216,0.004613
2536.4534,0.005145
2537.3852,0.004633
2538.3171,0.004372
2539.2489,0.004906
2540.1807,0.005623
2541.1126,0.005912
2542.0444,0.006148
2542.9762,0.005680
2543.9081,0.005058
2544.8399,0.004908
2545.7717,0.004741
2546.7036,0.004410
2547.6354,0.004611
2548.5672,0.005603
2549.4991,0.005739
2550.4309,0.004592
2551.3627,0.003470
2552.2946,0.004014
2553.2264,0.005132
2554.1583,0.005343
2555.0901,0.005103
2556.0219,0.005131
2556.9538,0.005643
2557.8856,0.005748
2558.8174,0.004723
2559.7493,0.004045
2560.6811,0.004540
2561.6129,0.005064
2562.5448,0.005092
2563.4766,0.004387
2564.4084,0.004110
2565.3403,0.004926
2566.2721,0.005385
2567.2039,0.004686
2568.1358,0.003400
2569.0676,0.003531
2569.9994,0.004229
2570.9313,0.004287
2571.8631,0.004765
2572.7949,0.004766
2573.7268,0.003964
2574.6586,0.004026
2575.5904,0.004545
2576.5223,0.004873
2577.4541,0.004540
2578.3859,0.004664
2579.3178,0.005050
2580.2496,0.005161
2581.1815,0.004913
2582.1133,0.005170
2583.0451,0.005021
2583.9770,0.004552
2584.9088,0.004828
2585.8406,0.004779
2586.7725,0.004320
2587.7043,0.004904
2588.6361,0.005355
2589.5680,0.005073
2590.4998,0.005285
2591.4316,0.005240
2592.3635,0.004845
2593.2953,0.004915
2594.2271,0.005136
2595.1590,0.005657
2596.0908,0.005274
2597.0226,0.004128
2597.9545,0.004031
2598.8863,0.004590
2599.8181,0.003796
2600.7500,0.003772
2601.6818,0.004991
2602.6136,0.005173
2603.5455,0.004462
2604.4773,0.004271
2605.4091,0.004719
2606.3410,0.005048
2607.2728,0.005013
2608.2047,0.004592
2609.1365,0.004261
2610.0683,0.004509
2611.0002,0.004762
2611.9320,0.005205
2612.8638,0.005587
2613.7957,0.005441
2614.7275,0.005133
2615.6593,0.005409
2616.5912,0.005174
2617.5230,0.004747
2618.4548,0.004978
2619.3867,0.005450
2620.3185,0.005552
2621.2503,0.005037
2622.1822,0.004643
2623.1140,0.004366
2624.0458,0.003899
2624.9777,0.003875
2625.9095,0.004764
2626.8413,0.005335
2627.7732,0.005366
2628.7050,0.005643
2629.6368,0.005713
2630.5687,0.005898
2631.5005,0.005799
2632.4323,0.005266
2633.3642,0.005364
2634.2960,0.006010
2635.2279,0.006196
2636.1597,0.006071
2637.0915,0.006221
2638.0234,0.006368
2638.9552,0.006087
2639.8870,0.006100
2640.8189,0.006105
2641.7507,0.005999
2642.6825,0.006122
2643.6144,0.006602
2644.5462,0.006782
2645.4780,0.006473
2646.4099,0.005945
2647.3417,0.005674
2648.2735,0.006212
2649.2054,0.006867
2650.1372,0.006566
2651.0690,0.006057
2652.0009,0.006160
2652.9327,0.006395
2653.8645,0.006211
2654.7964,0.006346
2655.7282,0.006717
2656.6600,0.006829
2657.5919,0.006583
2658.5237,0.006506
2659.4555,0.006650
2660.3874,0.006808
2661.3192,0.006810
2662.2511,0.006884
2663.1829,0.007116
2664.1147,0.006856
2665.0466,0.006440
2665.9784,0.006482
2666.9102,0.006806
2667.8421,0.007162
2668.7739,0.007420
2669.7057,0.007599
2670.6376,0.007386
2671.5694,0.006847
2672.5012,0.006621
2673.4331,0.006475
2674.3649,0.006652
2675.2967,0.007010
2676.2286,0.007306
2677.1604,0.007536
2678.0922,0.007324
2679.0241,0.007096
2679.9559,0.007216
2680.8877,0.007361
2681.8196,0.007457
2682.7514,0.007507
2683.6832,0.007923
2684.6151,0.008297
2685.5469,0.008259
2686.4787,0.008018
2687.4106,0.008030
2688.3424,0.008088
2689.2742,0.008067
2690.2061,0.007900
2691.1379,0.007893
2692.0698,0.008349
2693.0016,0.008401
2693.9334,0.008549
2694.8653,0.008892
2695.7971,0.008836
2696.7289,0.008656
2697.6608,0.008371
2698.5926,0.008265
2699.5244,0.008317
2700.4563,0.008666
2701.3881,0.009143
2702.3199,0.009290
2703.2518,0.009090
2704.1836,0.009036
2705.1154,0.009332
2706.0473,0.009697
2706.9791,0.009986
2707.9109,0.009761
2708.8428,0.008776
2709.7746,0.008309
2710.7064,0.009019
2711.6383,0.009573
2712.5701,0.009421
2713.5019,0.009362
2714.4338,0.009418
2715.3656,0.009098
2716.2974,0.009102
2717.2293,0.009917
2718.1611,0.010443
2719.0930,0.010612
2720.0248,0.010434
2720.9566,0.009964
2721.8885,0.009771
2722.8203,0.009960
2723.7521,0.010547
2724.6840,0.010501
2725.6158,0.010295
2726.5476,0.010687
2727.4795,0.010692
2728.4113,0.010661
2729.3431,0.010851
2730.2750,0.011174
2731.2068,0.011414
2732.1386,0.011017
2733.0705,0.010925
2734.0023,0.010723
2734.9341,0.010595
2735.8660,0.011150
2736.7978,0.011470
2737.7296,0.011155
2738.6615,0.011095
2739.5933,0.011465
2740.5251,0.011946
2741.4570,0.011884
2742.3888,0.011562
2743.3206,0.011479
2744.2525,0.011334
2745.1843,0.011432
2746.1162,0.011770
2747.0480,0.011842
2747.9798,0.011614
2748.9117,0.011534
2749.8435,0.011678
2750.7753,0.011899
2751.7072,0.011825
2752.6390,0.011744
2753.5708,0.012136
2754.5027,0.012111
2755.4345,0.012103
2756.3663,0.012013
2757.2982,0.012242
2758.2300,0.012462
2759.1618,0.012313
2760.0937,0.012407
2761.0255,0.012258
2761.9573,0.011671
2762.8892,0.011879
2763.8210,0.012000
2764.7528,0.012120
2765.6847,0.012879
2766.6165,0.012873
2767.5483,0.012194
2768.4802,0.012318
2769.4120,0.012664
2770.3438,0.012279
2771.2757,0.012418
2772.2075,0.012982
2773.1394,0.013147
2774.0712,0.013027
2775.0030,0.012732
2775.9349,0.012496
2776.8667,0.012639
2777.7985,0.013143
2778.7304,0.013918
2779.6622,0.013637
2780.5940,0.013513
2781.5259,0.014054
2782.4577,0.013856
2783.3895,0.013076
2784.3214,0.012993
2785.2532,0.013704
2786.1850,0.013993
2787.1169,0.014054
2788.0487,0.014066
2788.9805,0.014039
2789.9124,0.013882
2790.8442,0.013910
2791.7760,0.014185
2792.7079,0.014511
2793.6397,0.014696
2794.5715,0.014605
2795.5034,0.015040
2796.4352,0.015476
2797.3670,0.015513
2798.2989,0.016066
2799.2307,0.016261
2800.1626,0.015981
2801.0944,0.016024
2802.0262,0.016254
2802.9581,0.016433
2803.8899,0.016637
2804.8217,0.016756
2805.7536,0.017057
2806.6854,0.017277
2807.6172,0.017154
2808.5491,0.017571
2809.4809,0.018403
2810.4127,0.018037
2811.3446,0.017774
2812.2764,0.018172
2813.2082,0.018303
2814.1401,0.018236
2815.0719,0.018799
2816.0037,0.019290
2816.9356,0.019219
2817.8674,0.018602
2818.7992,0.018513
2819.7311,0.019230
2820.6629,0.020002
2821.5947,0.020426
2822.5266,0.020054
2823.4584,0.020193
2824.3902,0.020781
2825.3221,0.020789
2826.2539,0.020860
2827.1857,0.021118
2828.1176,0.021197
2829.0494,0.021302
2829.9813,0.021147
2830.9131,0.021447
2831.8449,0.021876
2832.7768,0.022286
2833.7086,0.022321
2834.6404,0.022479
2835.5723,0.022629
2836.5041,0.022799
2837.4359,0.023377
2838.3678,0.023989
2839.2996,0.024101
2840.2314,0.023818
2841.1633,0.023506
2842.0951,0.024228
2843.0269,0.025027
2843.9588,0.025416
2844.8906,0.025487
2845.8224,0.024886
2846.7543,0.025038
2847.6861,0.025622
2848.6179,0.025683
2849.5498,0.025652
2850.4816,0.026037
2851.4134,0.026545
2852.3453,0.026751
2853.2771,0.027100
2854.2089,0.027550
2855.1408,0.027901
2856.0726,0.027755
2857.0045,0.028201
2857.9363,0.028509
2858.8681,0.028893
2859.8000,0.029280
2860.7318,0.029476
2861.6636,0.029435
2862.5955,0.029671
2863.5273,0.030586
2864.4591,0.031662
2865.3910,0.031968
2866.3228,0.031996
2867.2546,0.032916
2868.1865,0.033534
2869.1183,0.034135
2870.0501,0.034967
2870.9820,0.035286
2871.9138,0.035949
2872.8456,0.036458
2873.7775,0.037750
2874.7093,0.039152
2875.6411,0.039926
2876.5730,0.040320
2877.5048,0.040617
2878.4366,0.040662
2879.3685,0.041458
2880.3003,0.041900
2881.2321,0.041842
2882.1640,0.042618
2883.0958,0.043251
2884.0277,0.043454
2884.9595,0.043530
2885.8913,0.043866
2886.8232,0.044317
2887.7550,0.044869
2888.6868,0.045409
2889.6187,0.045934
2890.5505,0.046382
2891.4823,0.046602
2892.4142,0.047065
2893.3460,0.047600
2894.2778,0.047914
2895.2097,0.048647
2896.1415,0.049274
2897.0733,0.049714
2898.0052,0.050183
2898.9370,0.050398
2899.8688,0.051047
2900.8007,0.051095
2901.7325,0.051124
2902.6643,0.051016
2903.5962,0.050417
2904.5280,0.050126
2905.4598,0.050573
2906.3917,0.050683
2907.3235,0.050232
2908.2553,0.049251
2909.1872,0.049290
2910.1190,0.049699
2911.0509,0.048993
2911.9827,0.048286
2912.9145,0.047494
2913.8464,0.047401
2914.7782,0.047888
2915.7100,0.048007
2916.6419,0.047809
2917.5737,0.047179
2918.5055,0.047143
2919.4374,0.047112
2920.3692,0.047040
2921.3010,0.047265
2922.2329,0.047916
2923.1647,0.047739
2924.0965,0.047735
2925.0284,0.048284
2925.9602,0.048415
2926.8920,0.048622
2927.8239,0.049685
2928.7557,0.049848
2929.6875,0.049776
2930.6194,0.049986
2931.5512,0.049882
2932.4830,0.049742
2933.4149,0.049563
2934.3467,0.049741
2935.2785,0.050032
2936.2104,0.050661
2937.1422,0.050661
2938.0741,0.050218
2939.0059,0.050077
2939.9377,0.050989
2940.8696,0.050936
2941.8014,0.050699
2942.7332,0.051770
2943.6651,0.052032
2944.5969,0.050975
2945.5287,0.050433
2946.4606,0.050704
2947.3924,0.051432
2948.3242,0.052049
2949.2561,0.051927
2950.1879,0.051591
2951.1197,0.051577
2952.0516,0.051633
2952.9834,0.051748
2953.9152,0.051303
2954.8471,0.050970
2955.7789,0.051919
2956.7107,0.052930
2957.6426,0.052775
2958.5744,0.052546
2959.5062,0.053993
2960.4381,0.055236
2961.3699,0.056509
2962.3017,0.057830
2963.2336,0.058799
2964.1654,0.060497
2965.0972,0.062375
2966.0291,0.064199
2966.9609,0.066168
2967.8928,0.068180
2968.8246,0.070458
2969.7564,0.073199
2970.6883,0.076376
2971.6201,0.078859
2972.5519,0.081169
2973.4838,0.083428
2974.4156,0.086375
2975.3474,0.088961
2976.2793,0.091257
2977.2111,0.093851
2978.1429,0.095377
2979.0748,0.095983
2980.0066,0.096665
2980.9384,0.096837
2981.8703,0.095927
2982.8021,0.094731
2983.7339,0.093584
2984.6658,0.091495
2985.5976,0.089329
2986.5294,0.086553
2987.4613,0.083718
2988.3931,0.081409
2989.3249,0.078476
2990.2568,0.076084
2991.1886,0.073528
2992.1204,0.070198
2993.0523,0.067950
2993.9841,0.065897
2994.9160,0.064037
2995.8478,0.062629
2996.7796,0.061614
2997.7115,0.060380
2998.6433,0.059302
2999.5751,0.058330
3000.5070,0.057899
3001.4388,0.057546
3002.3706,0.056718
3003.3025,0.056300
3004.2343,0.056495
3005.1661,0.056559
3006.0980,0.056395
3007.0298,0.056423
3007.9616,0.056251
3008.8935,0.056289
3009.8253,0.055868
3010.7571,0.054910
3011.6890,0.055909
3012.6208,0.056700
3013.5526,0.056562
3014.4845,0.057215
3015.4163,0.056973
3016.3481,0.056363
3017.2800,0.056398
3018.2118,0.056878
3019.1436,0.057395
3020.0755,0.058107
3021.0073,0.058335
3021.9392,0.058620
3022.8710,0.059242
3023.8028,0.059861
3024.7347,0.060328
3025.6665,0.060718
3026.5983,0.061036
3027.5302,0.061186
3028.4620,0.061777
3029.3938,0.061806
3030.3257,0.061915
3031.2575,0.062401
3032.1893,0.063211
3033.1212,0.063092
3034.0530,0.063858
3034.9848,0.065084
3035.9167,0.065412
3036.8485,0.066149
3037.7803,0.067093
3038.7122,0.066854
3039.6440,0.067151
3040.5758,0.068566
3041.5077,0.069423
3042.4395,0.070337
3043.3713,0.071038
3044.3032,0.070643
3045.2350,0.070316
3046.1668,0.070592
3047.0987,0.071295
3048.0305,0.072308
3048.9624,0.073679
3049.8942,0.074651
3050.8260,0.074211
3051.7579,0.074780
3052.6897,0.075235
3053.6215,0.075532
3054.5534,0.077392
3055.4852,0.077952
3056.4170,0.077810
3057.3489,0.078622
3058.2807,0.079983
3059.2125,0.079754
3060.1444,0.080062
3061.0762,0.081729
3062.0080,0.082733
3062.9399,0.083630
3063.8717,0.084669
3064.8035,0.085778
3065.7354,0.086970
3066.6672,0.087652
3067.5990,0.087637
3068.5309,0.087109
3069.4627,0.087679
3070.3945,0.088614
3071.3264,0.090712
3072.2582,0.090997
3073.1900,0.091266
3074.1219,0.091733
3075.0537,0.091719
3075.9856,0.091896
3076.9174,0.093798
3077.8492,0.096465
3078.7811,0.097735
3079.7129,0.097687
3080.6447,0.098540
3081.5766,0.099330
3082.5084,0.099642
3083.4402,0.100530
3084.3721,0.101577
3085.3039,0.102475
3086.2357,0.103946
3087.1676,0.104274
3088.0994,0.104795
3089.0312,0.105351
3089.9631,0.106331
3090.8949,0.106983
3091.8267,0.107731
3092.7586,0.109428
3093.6904,0.111462
3094.6222,0.111841
3095.5541,0.112019
3096.4859,0.112528
3097.4177,0.113370
3098.3496,0.114001
3099.2814,0.115280
3100.2132,0.116080
3101.1451,0.116630
3102.0769,0.118034
3103.0087,0.120343
3103.9406,0.121017
3104.8724,0.120743
3105.8043,0.121354
3106.7361,0.123797
3107.6679,0.126187
3108.5998,0.127461
3109.5316,0.126972
3110.4634,0.126897
3111.3953,0.127620
3112.3271,0.129686
3113.2589,0.132242
3114.1908,0.134539
3115.1226,0.134192
3116.0544,0.134284
3116.9863,0.135636
3117.9181,0.137087
3118.8499,0.137698
3119.7818,0.138669
3120.7136,0.139842
3121.6454,0.140866
3122.5773,0.141640
3123.5091,0.143964
3124.4409,0.145114
3125.3728,0.145189
3126.3046,0.145382
3127.2364,0.146710
3128.1683,0.147664
3129.1001,0.148363
3130.0319,0.149820
3130.9638,0.151721
3131.8956,0.152342
3132.8275,0.153637
3133.7593,0.155890
3134.6911,0.158285
3135.6230,0.159540
3136.5548,0.160226
3137.4866,0.161383
3138.4185,0.162555
3139.3503,0.162297
3140.2821,0.163140
3141.2140,0.164300
3142.1458,0.165748
3143.0776,0.166951
3144.0095,0.167946
3144.9413,0.168989
3145.8731,0.170677
3146.8050,0.172218
3147.7368,0.173101
3148.6686,0.174808
3149.6005,0.176812
3150.5323,0.177500
3151.4641,0.178071
3152.3960,0.179471
3153.3278,0.181862
3154.2596,0.183292
3155.1915,0.183593
3156.1233,0.183326
3157.0551,0.184063
3157.9870,0.185742
3158.9188,0.188037
3159.8507,0.189907
3160.7825,0.190962
3161.7143,0.190362
3162.6462,0.191892
3163.5780,0.194190
3164.5098,0.196643
3165.4417,0.198297
3166.3735,0.198327
3167.3053,0.198064
3168.2372,0.200167
3169.1690,0.202403
3170.1008,0.203037
3171.0327,0.203922
3171.9645,0.204757
3172.8963,0.205089
3173.8282,0.207351
3174.7600,0.208906
3175.6918,0.210079
3176.6237,0.211804
3177.5555,0.213416
3178.4873,0.214463
3179.4192,0.215428
3180.3510,0.215160
3181.2828,0.216214
3182.2147,0.219101
3183.1465,0.221274
3184.0783,0.221891
3185.0102,0.222244
3185.9420,0.223164
3186.8739,0.224327
3187.8057,0.225604
3188.7375,0.227498
3189.6694,0.227332
3190.6012,0.228286
3191.5330,0.230523
3192.4649,0.231646
3193.3967,0.231545
3194.3285,0.233252
3195.2604,0.234385
3196.1922,0.235226
3197.1240,0.236026
3198.0559,0.237924
3198.9877,0.239646
3199.9195,0.240890
3200.8514,0.242203
3201.7832,0.243646
3202.7150,0.243105
3203.6469,0.244254
3204.5787,0.245238
3205.5105,0.244609
3206.4424,0.245420
3207.3742,0.247493
3208.3060,0.248715
3209.2379,0.249972
3210.1697,0.251381
3211.1015,0.251268
3212.0334,0.251227
3212.9652,0.254691
3213.8971,0.256927
3214.8289,0.256492
3215.7607,0.254884
3216.6926,0.256363
3217.6244,0.258130
3218.5562,0.257211
3219.4881,0.258091
3220.4199,0.261303
3221.3517,0.261203
3222.2836,0.261441
3223.2154,0.262924
3224.1472,0.263510
3225.0791,0.264130
3226.0109,0.265187
3226.9427,0.266698
3227.8746,0.267467
3228.8064,0.265385
3229.7382,0.265873
3230.6701,0.268569
3231.6019,0.270179
3232.5337,0.269838
3233.4656,0.270430
3234.3974,0.269875
3235.3292,0.269386
3236.2611,0.270192
3237.1929,0.271582
3238.1247,0.272614
3239.0566,0.273918
3239.9884,0.273465
3240.9202,0.272879
3241.8521,0.273108
3242.7839,0.272454
3243.7158,0.272183
3244.6476,0.272959
3245.5794,0.274342
3246.5113,0.276818
3247.4431,0.277564
3248.3749,0.276069
3249.3068,0.274596
3250.2386,0.276555
3251.1704,0.277174
3252.1023,0.277010
3253.0341,0.277669
3253.9659,0.278362
3254.8978,0.277808
3255.8296,0.278715
3256.7614,0.280189
3257.6933,0.281887
3258.6251,0.282276
3259.5569,0.282509
3260.4888,0.280452
3261.4206,0.279852
3262.3524,0.279905
3263.2843,0.278890
3264.2161,0.280384
3265.1479,0.282077
3266.0798,0.280235
3267.0116,0.280182
3267.9434,0.280593
3268.8753,0.281422
3269.8071,0.282532
3270.7390,0.281787
3271.6708,0.279851
3272.6026,0.281725
3273.5345,0.282851
3274.4663,0.283326
3275.3981,0.282635
3276.3300,0.282357
3277.2618,0.281763
3278.1936,0.281388
3279.1255,0.282570
3280.0573,0.285090
3280.9891,0.283909
3281.9210,0.282178
3282.8528,0.284115
3283.7846,0.286440
3284.7165,0.285054
3285.6483,0.284536
3286.5801,0.284010
3287.5120,0.283388
3288.4438,0.283581
3289.3756,0.284611
3290.3075,0.285790
3291.2393,0.286740
3292.1711,0.285614
3293.1030,0.283988
3294.0348,0.283115
3294.9666,0.283954
3295.8985,0.285088
3296.8303,0.285700
3297.7622,0.285159
3298.6940,0.284191
3299.6258,0.283037
3300.5577,0.283806
3301.4895,0.284767
3302.4213,0.285990
3303.3532,0.285914
3304.2850,0.285879
3305.2168,0.285434
3306.1487,0.283763
3307.0805,0.283003
3308.0123,0.286021
3308.9442,0.287542
3309.8760,0.286562
3310.8078,0.284381
3311.7397,0.283057
3312.6715,0.283007
3313.6033,0.285755
3314.5352,0.287450
3315.4670,0.286218
3316.3988,0.285184
3317.3307,0.286052
3318.2625,0.286511
3319.1943,0.285013
3320.1262,0.283096
3321.0580,0.284315
3321.9898,0.285855
3322.9217,0.286449
3323.8535,0.286097
3324.7854,0.287052
3325.7172,0.288280
3326.6490,0.288521
3327.5809,0.287275
3328.5127,0.286112
3329.4445,0.285906
3330.3764,0.287324
3331.3082,0.286131
3332.2400,0.285259
3333.1719,0.286080
3334.1037,0.287109
3335.0355,0.287065
3335.9674,0.289848
3336.8992,0.292234
3337.8310,0.292009
3338.7629,0.289699
3339.6947,0.289652
3340.6265,0.290462
3341.5584,0.288779
3342.4902,0.287228
3343.4220,0.287277
3344.3539,0.286395
3345.2857,0.286239
3346.2175,0.287256
3347.1494,0.288342
3348.0812,0.287082
3349.0130,0.286409
3349.9449,0.286798
3350.8767,0.287846
3351.8086,0.288951
3352.7404,0.289368
3353.6722,0.287933
3354.6041,0.286722
3355.5359,0.284898
3356.4677,0.284109
3357.3996,0.285497
3358.3314,0.288030
3359.2632,0.288818
3360.1951,0.288375
3361.1269,0.287957
3362.0587,0.289402
3362.9906,0.287748
3363.9224,0.285520
3364.8542,0.285592
3365.7861,0.287489
3366.7179,0.288158
3367.6497,0.287431
3368.5816,0.286659
3369.5134,0.286029
3370.4452,0.284310
3371.3771,0.282519
3372.3089,0.281249
3373.2407,0.281514
3374.1726,0.282253
3375.1044,0.283666
3376.0362,0.282270
3376.9681,0.281195
3377.8999,0.280648
3378.8317,0.280399
3379.7636,0.281459
3380.6954,0.284209
3381.6273,0.282389
3382.5591,0.278571
3383.4909,0.277725
3384.4228,0.278821
3385.3546,0.281000
3386.2864,0.281972
3387.2183,0.280405
3388.1501,0.277563
3389.0819,0.275175
3390.0138,0.275590
3390.9456,0.274719
3391.8774,0.273202
3392.8093,0.271875
3393.7411,0.274557
3394.6729,0.275041
3395.6048,0.274353
3396.5366,0.274281
3397.4684,0.270704
3398.4003,0.267653
3399.3321,0.269885
3400.2639,0.270132
3401.1958,0.269396
3402.1276,0.268771
3403.0594,0.266661
3403.9913,0.263700
3404.9231,0.263394
3405.8549,0.264899
3406.7868,0.266519
3407.7186,0.266195
3408.6505,0.265104
3409.5823,0.263953
3410.5141,0.262885
3411.4460,0.261419
3412.3778,0.260073
3413.3096,0.259158
3414.2415,0.257593
3415.1733,0.256377
3416.1051,0.256737
3417.0370,0.255552
3417.9688,0.252802
3418.9006,0.252230
3419.8325,0.253729
3420.7643,0.251311
3421.6961,0.248935
3422.6280,0.247719
3423.5598,0.248032
3424.4916,0.250419
3425.4235,0.251283
3426.3553,0.248879
3427.2871,0.248386
3428.2190,0.247669
3429.1508,0.244315
3430.0826,0.241240
3431.0145,0.240506
3431.9463,0.240484
3432.8781,0.240437
3433.8100,0.238718
3434.7418,0.236842
3435.6737,0.237249
3436.6055,0.239064
3437.5373,0.235640
3438.4692,0.231528
3439.4010,0.232320
3440.3328,0.231888
3441.2647,0.228178
3442.1965,0.226943
3443.1283,0.228444
3444.0602,0.230282
3444.9920,0.228570
3445.9238,0.225269
3446.8557,0.224795
3447.7875,0.224743
3448.7193,0.223100
3449.6512,0.223523
3450.5830,0.222530
3451.5148,0.218711
3452.4467,0.217788
3453.3785,0.219825
3454.3103,0.219670
3455.2422,0.216861
3456.1740,0.214663
3457.1058,0.216013
3458.0377,0.214665
3458.9695,0.211833
3459.9013,0.211081
3460.8332,0.209650
3461.7650,0.207910
3462.6969,0.207095
3463.6287,0.206782
3464.5605,0.207335
3465.4924,0.204875
3466.4242,0.200550
3467.3560,0.199586
3468.2879,0.201271
3469.2197,0.200141
3470.1515,0.196625
3471.0834,0.195781
3472.0152,0.197343
3472.9470,0.197940
3473.8789,0.196527
3474.8107,0.194511
3475.7425,0.192130
3476.6744,0.189497
3477.6062,0.190707
3478.5380,0.191940
3479.4699,0.190672
3480.4017,0.189380
3481.3335,0.189532
3482.2654,0.189962
3483.1972,0.187267
3484.1290,0.185262
3485.0609,0.184898
3485.9927,0.181039
3486.9245,0.180880
3487.8564,0.182545
3488.7882,0.181473
3489.7201,0.180185
3490.6519,0.176707
3491.5837,0.173374
3492.5156,0.175512
3493.4474,0.178291
3494.3792,0.175136
3495.3111,0.169721
3496.2429,0.170665
3497.1747,0.171626
3498.1066,0.168760
3499.0384,0.167921
3499.9702,0.167388
3500.9021,0.166417
3501.8339,0.165851
3502.7657,0.165137
3503.6976,0.164098
3504.6294,0.161943
3505.5612,0.161106
3506.4931,0.160976
3507.4249,0.158687
3508.3567,0.155253
3509.2886,0.155618
3510.2204,0.157717
3511.1522,0.158137
3512.0841,0.157025
3513.0159,0.156545
3513.9477,0.157507
3514.8796,0.156016
3515.8114,0.152795
3516.7432,0.153393
3517.6751,0.151930
3518.6069,0.146172
3519.5388,0.145713
3520.4706,0.146934
3521.4024,0.144280
3522.3343,0.144399
3523.2661,0.145298
3524.1979,0.142649
3525.1298,0.140993
3526.0616,0.138837
3526.9934,0.135009
3527.9253,0.134489
3528.8571,0.136783
3529.7889,0.139085
3530.7208,0.138545
3531.6526,0.135340
3532.5844,0.133278
3533.5163,0.133771
3534.4481,0.132621
3535.3799,0.130955
3536.3118,0.131448
3537.2436,0.132496
3538.1754,0.131708
3539.1073,0.128741
3540.0391,0.126726
3540.9709,0.125618
3541.9028,0.123817
3542.8346,0.122452
3543.7664,0.122638
3544.6983,0.122885
3545.6301,0.124135
3546.5620,0.124323
3547.4938,0.119600
3548.4256,0.117001
3549.3575,0.117495
3550.2893,0.116015
3551.2211,0.114448
3552.1530,0.114390
3553.0848,0.115188
3554.0166,0.114818
3554.9485,0.112436
3555.8803,0.109485
3556.8121,0.108481
3557.7440,0.108806
3558.6758,0.106481
3559.6076,0.104988
3560.5395,0.105802
3561.4713,0.105820
3562.4031,0.104467
3563.3350,0.103020
3564.2668,0.103609
3565.1986,0.103134
3566.1305,0.100980
3567.0623,0.101138
3567.9941,0.101542
3568.9260,0.099932
3569.8578,0.098572
3570.7896,0.097740
3571.7215,0.094085
3572.6533,0.090299
3573.5852,0.090880
3574.5170,0.093662
3575.4488,0.093557
3576.3807,0.093629
3577.3125,0.093081
3578.2443,0.091119
3579.1762,0.091036
3580.1080,0.089620
3581.0398,0.086363
3581.9717,0.086293
3582.9035,0.086104
3583.8353,0.085436
3584.7672,0.086526
3585.6990,0.086561
3586.6308,0.084956
3587.5627,0.081513
3588.4945,0.081289
3589.4263,0.082522
3590.3582,0.080768
3591.2900,0.079910
3592.2218,0.078318
3593.1537,0.077004
3594.0855,0.075913
3595.0173,0.074316
3595.9492,0.073915
3596.8810,0.074073
3597.8128,0.074685
3598.7447,0.075138
3599.6765,0.073418
3600.6084,0.072164
3601.5402,0.072707
3602.4720,0.072354
3603.4039,0.069872
3604.3357,0.068190
3605.2675,0.068467
3606.1994,0.067721
3607.1312,0.066891
3608.0630,0.067346
3608.9949,0.066529
3609.9267,0.064497
3610.8585,0.063826
3611.7904,0.064063
3612.7222,0.062511
3613.6540,0.061139
3614.5859,0.061165
3615.5177,0.060993
3616.4495,0.059174
3617.3814,0.058804
3618.3132,0.059243
3619.2450,0.059364
3620.1769,0.059357
3621.1087,0.057894
3622.0405,0.056948
3622.9724,0.055632
3623.9042,0.053367
3624.8360,0.053330
3625.7679,0.053679
3626.6997,0.053015
3627.6316,0.052453
3628.5634,0.052261
3629.4952,0.050463
3630.4271,0.050866
3631.3589,0.050823
3632.2907,0.048832
3633.2226,0.049510
3634.1544,0.050496
3635.0862,0.048148
3636.0181,0.045889
3636.9499,0.045826
3637.8817,0.046105
3638.8136,0.045039
3639.7454,0.044392
3640.6772,0.044905
3641.6091,0.045416
3642.5409,0.044495
3643.4727,0.042276
3644.4046,0.040761
3645.3364,0.040034
3646.2682,0.040387
3647.2001,0.041772
3648.1319,0.041703
3649.0637,0.040185
3649.9956,0.038001
3650.9274,0.034535
3651.8592,0.032924
3652.7911,0.031912
3653.7229,0.032022
3654.6547,0.032107
3655.5866,0.031395
3656.5184,0.031854
3657.4503,0.033717
3658.3821,0.034358
3659.3139,0.031674
3660.2458,0.028190
3661.1776,0.027680
3662.1094,0.028598
3663.0413,0.029635
3663.9731,0.029323
3664.9049,0.027980
3665.8368,0.026983
3666.7686,0.027217
3667.7004,0.027643
3668.6323,0.026781
3669.5641,0.026342
3670.4959,0.025834
3671.4278,0.023263
3672.3596,0.020856
3673.2914,0.020353
3674.2233,0.019126
3675.1551,0.019393
3676.0869,0.019955
3677.0188,0.019511
3677.9506,0.018538
3678.8824,0.016942
3679.8143,0.016174
3680.7461,0.015684
3681.6779,0.015606
3682.6098,0.016186
3683.5416,0.014501
3684.4735,0.013289
3685.4053,0.014084
3686.3371,0.014462
3687.2690,0.014074
3688.2008,0.013042
3689.1326,0.013397
3690.0645,0.013322
3690.9963,0.012264
3691.9281,0.012467
3692.8600,0.011116
3693.7918,0.009350
3694.7236,0.008905
3695.6555,0.009045
3696.5873,0.008212
3697.5191,0.006877
3698.4510,0.007232
3699.3828,0.007834
3700.3146,0.007716
3701.2465,0.008307
3702.1783,0.008609
3703.1101,0.009379
3704.0420,0.010285
3704.9738,0.008308
3705.9056,0.005598
3706.8375,0.005550
3707.7693,0.006458
3708.7011,0.007139
3709.6330,0.005768
3710.5648,0.004767
3711.4967,0.006090
3712.4285,0.007142
3713.3603,0.005509
3714.2922,0.004215
3715.2240,0.003673
3716.1558,0.003303
3717.0877,0.003188
3718.0195,0.003484
3718.9513,0.003485
3719.8832,0.004304
3720.8150,0.005512
3721.7468,0.005552
3722.6787,0.004849
3723.6105,0.005296
3724.5423,0.005567
3725.4742,0.004173
3726.4060,0.003269
3727.3378,0.003849
3728.2697,0.003987
3729.2015,0.003879
3730.1333,0.002696
3731.0652,0.001687
3731.9970,0.001873
3732.9288,0.003785
3733.8607,0.004693
3734.7925,0.003243
3735.7243,0.002120
3736.6562,0.002336
3737.5880,0.001391
3738.5199,-0.000193
3739.4517,-0.000151
3740.3835,0.000378
3741.3154,0.001635
3742.2472,0.001654
3743.1790,0.002008
3744.1109,0.003178
3745.0427,0.003512
3745.9745,0.003509
3746.9064,0.002827
3747.8382,0.001959
3748.7700,-0.000137
3749.7019,0.000318
3750.6337,0.002980
3751.5655,0.003490
3752.4974,0.000420
3753.4292,0.000062
3754.3610,0.002048
3755.2929,0.001928
3756.2247,-0.000285
3757.1565,-0.000200
3758.0884,0.001785
3759.0202,0.003295
3759.9520,0.003394
3760.8839,0.002472
3761.8157,0.002204
3762.7475,0.001802
3763.6794,0.001385
3764.6112,0.001665
3765.5431,0.003133
3766.4749,0.003186
3767.4067,0.002828
3768.3386,0.003187
3769.2704,0.002207
3770.2022,0.001270
3771.1341,0.002058
3772.0659,0.002131
3772.9977,0.001595
3773.9296,0.001311
3774.8614,0.001119
3775.7932,0.001960
3776.7251,0.002719
3777.6569,0.002631
3778.5887,0.002901
3779.5206,0.002908
3780.4524,0.001348
3781.3842,0.000565
3782.3161,0.001975
3783.2479,0.002511
3784.1797,0.001112
3785.1116,0.001254
3786.0434,0.003019
3786.9752,0.003532
3787.9071,0.002497
3788.8389,0.001238
3789.7707,0.000605
3790.7026,0.000993
3791.6344,0.002042
3792.5662,0.003266
3793.4981,0.003841
3794.4299,0.002593
3795.3618,0.001144
3796.2936,0.001360
3797.2254,0.001500
3798.1573,0.002423
3799.0891,0.003188
3800.0209,0.001543
3800.9528,0.001624
3801.8846,0.002475
3802.8164,0.001199
3803.7483,0.000854
3804.6801,0.000033
3805.6119,-0.000869
3806.5438,-0.000880
3807.4756,-0.000225
3808.4074,0.000993
3809.3393,0.001183
3810.2711,-0.000810
3811.2029,-0.001142
3812.1348,0.000306
3813.0666,0.001510
3813.9984,0.002673
3814.9303,0.002847
3815.8621,0.001695
3816.7939,0.001343
3817.7258,0.002859
3818.6576,0.003093
3819.5894,0.000209
3820.5213,-0.000221
3821.4531,0.001814
3822.3850,0.002872
3823.3168,0.002355
3824.2486,0.001233
3825.1805,0.001562
3826.1123,0.001641
3827.0441,0.000784
3827.9760,0.001234
3828.9078,0.002077
3829.8396,0.002250
3830.7715,0.002073
3831.7033,0.001364
3832.6351,0.000794
3833.5670,0.001602
3834.4988,0.002103
3835.4306,0.002016
3836.3625,0.002390
3837.2943,0.002745
3838.2261,0.001650
3839.1580,0.000414
3840.0898,0.001052
3841.0216,0.001211
3841.9535,0.000032
3842.8853,-0.000213
3843.8171,0.000218
3844.7490,0.000119
3845.6808,0.000211
3846.6126,-0.000476
3847.5445,-0.000823
3848.4763,-0.000097
3849.4082,0.001212
3850.3400,0.002269
3851.2718,0.002779
3852.2037,0.002777
3853.1355,0.001141
3854.0673,0.001358
3854.9992,0.001486
3855.9310,-0.000401
3856.8628,-0.001394
3857.7947,-0.000813
3858.7265,-0.000603
3859.6583,-0.000693
3860.5902,-0.001294
3861.5220,0.000000
3862.4538,0.001587
3863.3857,0.001750
3864.3175,0.002203
3865.2493,0.002327
3866.1812,0.002382
3867.1130,0.002003
3868.0448,0.000263
3868.9767,-0.000406
3869.9085,0.000784
3870.8403,0.001044
3871.7722,0.000263
3872.7040,0.000416
3873.6358,0.000076
3874.5677,0.000153
3875.4995,0.000763
3876.4314,0.000550
3877.3632,-0.000348
3878.2950,-0.000468
3879.2269,-0.000084
3880.1587,0.000109
3881.0905,0.000827
3882.0224,0.001288
3882.9542,0.001910
3883.8860,0.001472
3884.8179,-0.000004
3885.7497,0.000268
3886.6815,0.001135
3887.6134,0.001059
3888.5452,0.000900
3889.4770,0.000773
3890.4089,0.000795
3891.3407,0.000944
3892.2725,0.001143
3893.2044,0.001487
3894.1362,0.002474
3895.0680,0.001904
3895.9999,0.000885
3896.9317,0.001468
3897.8635,0.001294
3898.7954,0.001239
3899.7272,0.001533
3900.6590,0.001141
3901.5909,0.000537
3902.5227,0.000376
3903.4546,0.001302
3904.3864,0.001739
3905.3182,0.001013
3906.2501,0.001034
3907.1819,0.000178
3908.1137,-0.000835
3909.0456,-0.000247
3909.9774,0.000262
3910.9092,0.001129
3911.8411,0.001095
3912.7729,0.001123
3913.7047,0.001353
3914.6366,0.001136
3915.5684,0.000695
3916.5002,0.001236
3917.4321,0.002547
3918.3639,0.002883
3919.2957,0.002223
3920.2276,0.001843
3921.1594,0.000768
3922.0912,0.000706
3923.0231,0.000651
3923.9549,0.000609
3924.8867,0.001480
3925.8186,0.001854
3926.7504,0.001626
3927.6822,0.001210
3928.6141,0.001056
3929.5459,0.001177
3930.4777,0.001113
3931.4096,0.001056
3932.3414,0.000512
3933.2733,0.000705
3934.2051,0.000915
3935.1369,0.001645
3936.0688,0.001758
3937.0006,0.001781
3937.9324,0.001668
3938.8643,0.001563
3939.7961,0.002435
3940.7279,0.001939
3941.6598,0.001433
3942.5916,0.001385
3943.5234,0.002257
3944.4553,0.002026
3945.3871,0.001583
3946.3189,0.001914
3947.2508,0.001439
3948.1826,0.001899
3949.1144,0.002477
3950.0463,0.002290
3950.9781,0.002258
3951.9099,0.001639
3952.8418,0.001783
3953.7736,0.002402
3954.7054,0.001772
3955.6373,0.001015
3956.5691,0.001195
3957.5009,0.001750
3958.4328,0.001461
3959.3646,0.000361
3960.2965,0.000477
3961.2283,0.002016
3962.1601,0.002274
3963.0920,0.001839
3964.0238,0.001874
3964.9556,0.001570
3965.8875,0.001310
3966.8193,0.001110
3967.7511,0.000808
3968.6830,0.001562
3969.6148,0.001561
3970.5466,0.001969
3971.4785,0.003069
3972.4103,0.003246
3973.3421,0.002745
3974.2740,0.001460
3975.2058,0.001077
3976.1376,0.000810
3977.0695,0.000352
3978.0013,0.001653
3978.9331,0.002485
3979.8650,0.002420
3980.7968,0.002782
3981.7286,0.002503
3982.6605,0.002365
3983.5923,0.002185
3984.5241,0.002010
3985.4560,0.001799
3986.3878,0.001600
3987.3197,0.001892
3988.2515,0.001912
3989.1833,0.001557
3990.1152,0.001714
3991.0470,0.001659
3991.9788,0.001149
3992.9107,0.000751
3993.8425,0.000681
3994.7743,0.001660
3995.7062,0.002574
3996.6380,0.002547
3997.5698,0.002186
3998.5017,0.002110
3999.4335,0.001366
4000.3653,0.001385
