Wavenumber,Intensity
650.4205,0.386410
651.3523,0.392178
652.2841,0.393747
653.2160,0.406547
654.1478,0.410910
655.0796,0.391888
656.0115,0.367007
656.9433,0.369301
657.8751,0.381197
658.8070,0.383173
659.7388,0.378619
660.6706,0.378100
661.6025,0.378299
662.5343,0.381521
663.4661,0.376629
664.3980,0.369209
665.3298,0.364309
666.2616,0.364205
667.1935,0.357336
668.1253,0.368634
669.0571,0.391206
669.9890,0.377726
670.9208,0.365913
671.8526,0.370831
672.7845,0.370751
673.7163,0.358186
674.6481,0.354264
675.5800,0.358173
676.5118,0.354599
677.4437,0.351089
678.3755,0.348446
679.3073,0.349668
680.2392,0.353036
681.1710,0.354495
682.1028,0.351981
683.0347,0.349779
683.9665,0.341931
684.8983,0.340725
685.8302,0.345063
686.7620,0.343867
687.6938,0.338001
688.6257,0.336924
689.5575,0.337123
690.4893,0.338588
691.4212,0.336266
692.3530,0.332342
693.2848,0.333066
694.2167,0.334467
695.1485,0.331987
696.0803,0.330104
697.0122,0.326070
697.9440,0.322353
698.8758,0.322636
699.8077,0.325465
700.7395,0.326417
701.6713,0.321112
702.6032,0.316332
703.5350,0.322066
704.4669,0.321142
705.3987,0.317473
706.3305,0.315589
707.2624,0.315445
708.1942,0.313848
709.1260,0.311825
710.0579,0.309572
710.9897,0.310379
711.9215,0.313208
712.8534,0.311789
713.7852,0.306243
714.7170,0.302459
715.6489,0.298068
716.5807,0.297857
717.5125,0.299645
718.4444,0.300863
719.3762,0.298739
720.3080,0.298213
721.2399,0.296723
722.1717,0.293176
723.1035,0.290886
724.0354,0.292368
724.9672,0.291271
725.8990,0.290612
726.8309,0.289398
727.7627,0.286512
728.6945,0.282408
729.6264,0.281954
730.5582,0.282932
731.4901,0.282681
732.4219,0.279222
733.3537,0.278214
734.2856,0.280010
735.2174,0.278116
736.1492,0.273037
737.0811,0.270355
738.0129,0.270210
738.9447,0.270089
739.8766,0.268427
740.8084,0.268036
741.7402,0.265445
742.6721,0.263705
743.6039,0.263022
744.5357,0.262691
745.4676,0.262136
746.3994,0.260242
747.3312,0.258305
748.2631,0.258007
749.1949,0.257050
750.1267,0.254154
751.0586,0.251432
751.9904,0.250358
752.9222,0.250382
753.8541,0.251129
754.7859,0.251706
755.7177,0.250870
756.6496,0.247169
757.5814,0.244087
758.5132,0.242348
759.4451,0.241131
760.3769,0.240633
761.3088,0.238367
762.2406,0.238911
763.1724,0.237964
764.1043,0.232673
765.0361,0.231399
765.9679,0.231898
766.8998,0.230598
767.8316,0.228962
768.7634,0.228726
769.6953,0.228785
770.6271,0.227923
771.5589,0.224844
772.4908,0.225426
773.4226,0.225306
774.3544,0.222511
775.2863,0.219620
776.2181,0.219326
777.1499,0.218862
778.0818,0.216989
779.0136,0.215391
779.9454,0.213575
780.8773,0.211357
781.8091,0.210774
782.7409,0.210310
783.6728,0.209345
784.6046,0.208123
785.5364,0.207192
786.4683,0.206014
787.4001,0.205092
788.3320,0.204615
789.2638,0.202951
790.1956,0.200280
791.1275,0.199674
792.0593,0.198680
792.9911,0.196923
793.9230,0.195842
794.8548,0.194254
795.7866,0.193323
796.7185,0.193924
797.6503,0.192858
798.5821,0.191336
799.5140,0.190121
800.4458,0.188127
801.3776,0.186012
802.3095,0.185985
803.2413,0.185494
804.1731,0.184136
805.1050,0.183134
806.0368,0.183628
806.9686,0.182182
807.9005,0.179209
808.8323,0.177700
809.7641,0.176880
810.6960,0.174729
811.6278,0.172659
812.5596,0.171930
813.4915,0.171281
814.4233,0.169645
815.3552,0.168517
816.2870,0.166547
817.2188,0.164754
818.1507,0.164616
819.0825,0.163748
820.0143,0.161777
820.9462,0.160836
821.8780,0.159648
822.8098,0.157733
823.7417,0.156813
824.6735,0.155864
825.6053,0.155197
826.5372,0.154604
827.4690,0.153740
828.4008,0.152577
829.3327,0.151025
830.2645,0.149951
831.1963,0.149202
832.1282,0.148634
833.0600,0.147425
833.9918,0.145608
834.9237,0.143899
835.8555,0.142798
836.7873,0.141991
837.7192,0.141685
838.6510,0.141102
839.5828,0.139699
840.5147,0.138473
841.4465,0.138074
842.3784,0.136884
843.3102,0.135639
844.2420,0.134993
845.1739,0.134758
846.1057,0.133710
847.0375,0.132212
847.9694,0.130902
848.9012,0.130395
849.8330,0.129122
850.7649,0.128116
851.6967,0.128700
852.6285,0.128574
853.5604,0.127114
854.4922,0.126473
855.4240,0.126007
856.3559,0.124953
857.2877,0.124056
858.2195,0.124303
859.1514,0.123755
860.0832,0.122836
861.0150,0.122383
861.9469,0.122847
862.8787,0.123040
863.8105,0.122645
864.7424,0.122474
865.6742,0.123030
866.6060,0.124137
867.5379,0.125410
868.4697,0.126404
869.4016,0.127747
870.3334,0.130412
871.2652,0.133713
872.1971,0.137318
873.1289,0.141506
874.0607,0.146056
874.9926,0.150168
875.9244,0.153815
876.8562,0.156668
877.7881,0.157279
878.7199,0.156533
879.6517,0.153755
880.5836,0.149134
881.5154,0.143101
882.4472,0.137136
883.3791,0.130582
884.3109,0.123623
885.2427,0.117749
886.1746,0.112755
887.1064,0.108291
888.0382,0.104671
888.9701,0.101581
889.9019,0.098941
890.8337,0.096288
891.7656,0.093985
892.6974,0.092750
893.6292,0.091590
894.5611,0.089897
895.4929,0.088657
896.4247,0.087662
897.3566,0.086627
898.2884,0.086227
899.2203,0.085867
900.1521,0.084250
901.0839,0.082615
902.0158,0.081962
902.9476,0.081374
903.8794,0.080627
904.8113,0.080314
905.7431,0.079662
906.6749,0.078620
907.6068,0.077818
908.5386,0.077392
909.4704,0.076903
910.4023,0.076489
911.3341,0.075791
912.2659,0.074950
913.1978,0.074013
914.1296,0.073469
915.0614,0.073424
915.9933,0.072743
916.9251,0.072396
917.8569,0.072253
918.7888,0.071266
919.7206,0.070499
920.6524,0.070591
921.5843,0.070688
922.5161,0.070182
923.4479,0.069348
924.3798,0.068660
925.3116,0.068069
926.2435,0.067769
927.1753,0.067697
928.1071,0.067466
929.0390,0.066882
929.9708,0.066471
930.9026,0.066312
931.8345,0.065773
932.7663,0.065527
933.6981,0.065214
934.6300,0.064855
935.5618,0.064232
936.4936,0.064001
937.4255,0.063925
938.3573,0.063478
939.2891,0.063059
940.2210,0.062852
941.1528,0.062755
942.0846,0.062349
943.0165,0.061660
943.9483,0.061409
944.8801,0.061252
945.8120,0.061203
946.7438,0.060865
947.6756,0.060390
948.6075,0.060051
949.5393,0.059896
950.4711,0.059796
951.4030,0.059421
952.3348,0.059060
953.2667,0.058826
954.1985,0.058820
955.1303,0.058827
956.0622,0.058575
956.9940,0.058377
957.9258,0.057842
958.8577,0.057533
959.7895,0.057227
960.7213,0.057111
961.6532,0.057378
962.5850,0.056952
963.5168,0.056626
964.4487,0.056760
965.3805,0.056686
966.3123,0.056692
967.2442,0.056573
968.1760,0.056139
969.1078,0.055734
970.0397,0.055698
970.9715,0.055801
971.9033,0.055776
972.8352,0.055536
973.7670,0.055584
974.6988,0.055494
975.6307,0.055096
976.5625,0.055121
977.4943,0.055059
978.4262,0.054817
979.3580,0.054816
980.2899,0.054589
981.2217,0.054435
982.1535,0.054832
983.0854,0.054883
984.0172,0.054424
984.9490,0.054383
985.8809,0.054523
986.8127,0.054589
987.7445,0.054617
988.6764,0.054373
989.6082,0.054268
990.5400,0.054532
991.4719,0.054606
992.4037,0.054623
993.3355,0.054941
994.2674,0.055118
995.1992,0.054847
996.1310,0.054762
997.0629,0.054925
997.9947,0.055028
998.9265,0.055329
999.8584,0.055754
1000.7902,0.055911
1001.7220,0.055817
1002.6539,0.055833
1003.5857,0.056045
1004.5175,0.056362
1005.4494,0.056693
1006.3812,0.057100
1007.3131,0.057318
1008.2449,0.057734
1009.1767,0.058335
1010.1086,0.058601
1011.0404,0.058995
1011.9722,0.059686
1012.9041,0.060308
1013.8359,0.060929
1014.7677,0.061396
1015.6996,0.062238
1016.6314,0.063185
1017.5632,0.064062
1018.4951,0.065019
1019.4269,0.066112
1020.3587,0.067200
1021.2906,0.068730
1022.2224,0.070512
1023.1542,0.072133
1024.0861,0.074185
1025.0179,0.076742
1025.9497,0.078990
1026.8816,0.081308
1027.8134,0.084419
1028.7452,0.087837
1029.6771,0.091534
1030.6089,0.095993
1031.5407,0.101067
1032.4726,0.107195
1033.4044,0.113991
1034.3362,0.121895
1035.2681,0.131165
1036.1999,0.141332
1037.1318,0.152916
1038.0636,0.165694
1038.9954,0.179067
1039.9273,0.192517
1040.8591,0.205494
1041.7909,0.216856
1042.7228,0.225651
1043.6546,0.231069
1044.5864,0.232318
1045.5183,0.229028
1046.4501,0.221703
1047.3819,0.210743
1048.3138,0.198032
1049.2456,0.184070
1050.1774,0.169265
1051.1093,0.154863
1052.0411,0.141022
1052.9729,0.128105
1053.9048,0.116934
1054.8366,0.107307
1055.7684,0.098946
1056.7003,0.091528
1057.6321,0.085481
1058.5639,0.080714
1059.4958,0.076805
1060.4276,0.073763
1061.3594,0.071445
1062.2913,0.069881
1063.2231,0.068715
1064.1550,0.067765
1065.0868,0.067147
1066.0186,0.066960
1066.9505,0.067012
1067.8823,0.067192
1068.8141,0.067836
1069.7460,0.068935
1070.6778,0.070107
1071.6096,0.071436
1072.5415,0.073253
1073.4733,0.075089
1074.4051,0.076895
1075.3370,0.079199
1076.2688,0.081673
1077.2006,0.083984
1078.1325,0.086351
1079.0643,0.089070
1079.9961,0.092050
1080.9280,0.094625
1081.8598,0.097017
1082.7916,0.099062
1083.7235,0.100572
1084.6553,0.101291
1085.5871,0.101439
1086.5190,0.101138
1087.4508,0.100077
1088.3826,0.098060
1089.3145,0.095389
1090.2463,0.092028
1091.1782,0.088347
1092.1100,0.084640
1093.0418,0.080769
1093.9737,0.076978
1094.9055,0.073266
1095.8373,0.069750
1096.7692,0.066545
1097.7010,0.063460
1098.6328,0.061025
1099.5647,0.059036
1100.4965,0.056942
1101.4283,0.055141
1102.3602,0.053720
1103.2920,0.052497
1104.2238,0.051530
1105.1557,0.050659
1106.0875,0.049939
1107.0193,0.049436
1107.9512,0.048823
1108.8830,0.047919
1109.8148,0.047142
1110.7467,0.046677
1111.6785,0.046425
1112.6103,0.046234
1113.5422,0.045970
1114.4740,0.045875
1115.4058,0.045878
1116.3377,0.045820
1117.2695,0.045832
1118.2014,0.045609
1119.1332,0.045234
1120.0650,0.045254
1120.9969,0.045471
1121.9287,0.045690
1122.8605,0.045680
1123.7924,0.045468
1124.7242,0.045432
1125.6560,0.045458
1126.5879,0.045148
1127.5197,0.044928
1128.4515,0.044874
1129.3834,0.044732
1130.3152,0.044770
1131.2470,0.044629
1132.1789,0.044407
1133.1107,0.044322
1134.0425,0.044440
1134.9744,0.044274
1135.9062,0.043948
1136.8380,0.043824
1137.7699,0.043921
1138.7017,0.043882
1139.6335,0.043621
1140.5654,0.043461
1141.4972,0.043346
1142.4290,0.043461
1143.3609,0.043341
1144.2927,0.043245
1145.2246,0.043228
1146.1564,0.043122
1147.0882,0.043001
1148.0201,0.043038
1148.9519,0.043158
1149.8837,0.043321
1150.8156,0.043417
1151.7474,0.043328
1152.6792,0.043182
1153.6111,0.042967
1154.5429,0.042835
1155.4747,0.042981
1156.4066,0.043132
1157.3384,0.042753
1158.2702,0.042583
1159.2021,0.042683
1160.1339,0.042415
1161.0657,0.042303
1161.9976,0.042293
1162.9294,0.041851
1163.8612,0.041392
1164.7931,0.041402
1165.7249,0.041410
1166.6567,0.041139
1167.5886,0.040954
1168.5204,0.041242
1169.4522,0.041317
1170.3841,0.040977
1171.3159,0.040844
1172.2477,0.040842
1173.1796,0.040779
1174.1114,0.040823
1175.0433,0.040790
1175.9751,0.040735
1176.9069,0.040875
1177.8388,0.040863
1178.7706,0.040630
1179.7024,0.040634
1180.6343,0.040735
1181.5661,0.040691
1182.4979,0.040592
1183.4298,0.040462
1184.3616,0.040160
1185.2934,0.040150
1186.2253,0.040396
1187.1571,0.040569
1188.0889,0.040658
1189.0208,0.040709
1189.9526,0.040697
1190.8844,0.040666
1191.8163,0.040584
1192.7481,0.040640
1193.6799,0.040840
1194.6118,0.040902
1195.5436,0.040876
1196.4754,0.041007
1197.4073,0.040939
1198.3391,0.040659
1199.2709,0.040654
1200.2028,0.040895
1201.1346,0.040998
1202.0665,0.041027
1202.9983,0.040886
1203.9301,0.040818
1204.8620,0.040812
1205.7938,0.040900
1206.7256,0.040951
1207.6575,0.041087
1208.5893,0.041143
1209.5211,0.040991
1210.4530,0.041203
1211.3848,0.041413
1212.3166,0.041311
1213.2485,0.041200
1214.1803,0.041313
1215.1121,0.041336
1216.0440,0.041480
1216.9758,0.041534
1217.9076,0.041504
1218.8395,0.041676
1219.7713,0.041719
1220.7031,0.041636
1221.6350,0.041678
1222.5668,0.041584
1223.4986,0.041590
1224.4305,0.041788
1225.3623,0.041946
1226.2941,0.042119
1227.2260,0.042176
1228.1578,0.041993
1229.0897,0.041965
1230.0215,0.041971
1230.9533,0.042062
1231.8852,0.042279
1232.8170,0.042393
1233.7488,0.042341
1234.6807,0.042288
1235.6125,0.042481
1236.5443,0.042697
1237.4762,0.042562
1238.4080,0.042626
1239.3398,0.042869
1240.2717,0.043084
1241.2035,0.043276
1242.1353,0.043393
1243.0672,0.043349
1243.9990,0.043469
1244.9308,0.043489
1245.8627,0.043393
1246.7945,0.043626
1247.7263,0.043911
1248.6582,0.044140
1249.5900,0.044214
1250.5218,0.044190
1251.4537,0.044274
1252.3855,0.044726
1253.3173,0.045112
1254.2492,0.045255
1255.1810,0.045350
1256.1129,0.045596
1257.0447,0.046049
1257.9765,0.046348
1258.9084,0.046647
1259.8402,0.046978
1260.7720,0.047257
1261.7039,0.047755
1262.6357,0.048108
1263.5675,0.048393
1264.4994,0.049056
1265.4312,0.049640
1266.3630,0.049989
1267.2949,0.050408
1268.2267,0.050966
1269.1585,0.051474
1270.0904,0.051998
1271.0222,0.052737
1271.9540,0.053174
1272.8859,0.053230
1273.8177,0.053283
1274.7495,0.053270
1275.6814,0.053062
1276.6132,0.052930
1277.5450,0.053032
1278.4769,0.052785
1279.4087,0.052310
1280.3405,0.052027
1281.2724,0.051515
1282.2042,0.050858
1283.1361,0.050440
1284.0679,0.050016
1284.9997,0.049582
1285.9316,0.049556
1286.8634,0.049644
1287.7952,0.049774
1288.7271,0.050031
1289.6589,0.049822
1290.5907,0.049393
1291.5226,0.049443
1292.4544,0.049593
1293.3862,0.049578
1294.3181,0.049467
1295.2499,0.049463
1296.1817,0.049877
1297.1136,0.050453
1298.0454,0.050642
1298.9772,0.050541
1299.9091,0.050705
1300.8409,0.051129
1301.7727,0.051243
1302.7046,0.051398
1303.6364,0.051675
1304.5682,0.051760
1305.5001,0.051885
1306.4319,0.052232
1307.3637,0.052620
1308.2956,0.052908
1309.2274,0.053286
1310.1592,0.053404
1311.0911,0.053243
1312.0229,0.053303
1312.9548,0.053810
1313.8866,0.054327
1314.8184,0.054524
1315.7503,0.054538
1316.6821,0.054524
1317.6139,0.054820
1318.5458,0.055194
1319.4776,0.055384
1320.4094,0.055528
1321.3413,0.055615
1322.2731,0.055623
1323.2049,0.055507
1324.1368,0.055557
1325.0686,0.055549
1326.0004,0.055614
1326.9323,0.055579
1327.8641,0.055234
1328.7959,0.055108
1329.7278,0.055075
1330.6596,0.055131
1331.5914,0.055097
1332.5233,0.054883
1333.4551,0.054675
1334.3869,0.054139
1335.3188,0.053488
1336.2506,0.053186
1337.1824,0.053147
1338.1143,0.052953
1339.0461,0.052693
1339.9780,0.052816
1340.9098,0.053153
1341.8416,0.053137
1342.7735,0.052452
1343.7053,0.051793
1344.6371,0.051490
1345.5690,0.051263
1346.5008,0.050819
1347.4326,0.050519
1348.3645,0.050467
1349.2963,0.050220
1350.2281,0.049913
1351.1600,0.049838
1352.0918,0.049957
1353.0236,0.049826
1353.9555,0.049404
1354.8873,0.049117
1355.8191,0.049195
1356.7510,0.049270
1357.6828,0.049077
1358.6146,0.048979
1359.5465,0.048784
1360.4783,0.048560
1361.4101,0.048901
1362.3420,0.049339
1363.2738,0.049907
1364.2056,0.051141
1365.1375,0.051348
1366.0693,0.050634
1367.0012,0.050552
1367.9330,0.051022
1368.8648,0.051720
1369.7967,0.052698
1370.7285,0.053146
1371.6603,0.053410
1372.5922,0.054196
1373.5240,0.055472
1374.4558,0.057479
1375.3877,0.059719
1376.3195,0.060880
1377.2513,0.061054
1378.1832,0.061236
1379.1150,0.061972
1380.0468,0.062617
1380.9787,0.062991
1381.9105,0.063278
1382.8423,0.063472
1383.7742,0.063570
1384.7060,0.063378
1385.6378,0.063191
1386.5697,0.063375
1387.5015,0.063838
1388.4333,0.064568
1389.3652,0.064477
1390.2970,0.063186
1391.2288,0.061869
1392.1607,0.060916
1393.0925,0.060191
1394.0244,0.059829
1394.9562,0.060235
1395.8880,0.061677
1396.8199,0.061849
1397.7517,0.060764
1398.6835,0.060479
1399.6154,0.061700
1400.5472,0.062998
1401.4790,0.062376
1402.4109,0.061452
1403.3427,0.061251
1404.2745,0.061228
1405.2064,0.061866
1406.1382,0.063354
1407.0700,0.063324
1408.0019,0.062459
1408.9337,0.062318
1409.8655,0.062427
1410.7974,0.062600
1411.7292,0.062908
1412.6610,0.063076
1413.5929,0.062829
1414.5247,0.062442
1415.4565,0.062125
1416.3884,0.062021
1417.3202,0.061875
1418.2520,0.061839
1419.1839,0.062741
1420.1157,0.064558
1421.0476,0.064859
1421.9794,0.062896
1422.9112,0.061593
1423.8431,0.061476
1424.7749,0.062057
1425.7067,0.061934
1426.6386,0.060591
1427.5704,0.059664
1428.5022,0.059458
1429.4341,0.059238
1430.3659,0.059174
1431.2977,0.059412
1432.2296,0.058745
1433.1614,0.057388
1434.0932,0.056418
1435.0251,0.056000
1435.9569,0.055660
1436.8887,0.056219
1437.8206,0.058378
1438.7524,0.058001
1439.6842,0.056077
1440.6161,0.055325
1441.5479,0.055238
1442.4797,0.055066
1443.4116,0.055150
1444.3434,0.055610
1445.2752,0.055920
1446.2071,0.056269
1447.1389,0.056748
1448.0707,0.057787
1449.0026,0.060079
1449.9344,0.061331
1450.8663,0.060720
1451.7981,0.060296
1452.7299,0.060612
1453.6618,0.060613
1454.5936,0.059706
1455.5254,0.058658
1456.4573,0.058144
1457.3891,0.059424
1458.3209,0.061226
1459.2528,0.059395
1460.1846,0.056667
1461.1164,0.054334
1462.0483,0.052407
1462.9801,0.051095
1463.9119,0.049845
1464.8438,0.048962
1465.7756,0.049200
1466.7074,0.049040
1467.6393,0.047841
1468.5711,0.046693
1469.5029,0.045809
1470.4348,0.045020
1471.3666,0.044300
1472.2984,0.044376
1473.2303,0.045896
1474.1621,0.047534
1475.0939,0.047420
1476.0258,0.046396
1476.9576,0.046224
1477.8895,0.046912
1478.8213,0.046743
1479.7531,0.046256
1480.6850,0.046150
1481.6168,0.046362
1482.5486,0.046690
1483.4805,0.046700
1484.4123,0.046086
1485.3441,0.045351
1486.2760,0.045193
1487.2078,0.045289
1488.1396,0.045702
1489.0715,0.046206
1490.0033,0.045929
1490.9351,0.046221
1491.8670,0.046627
1492.7988,0.045288
1493.7306,0.043501
1494.6625,0.042301
1495.5943,0.041512
1496.5261,0.041453
1497.4580,0.042811
1498.3898,0.043137
1499.3216,0.042403
1500.2535,0.042551
1501.1853,0.042350
1502.1171,0.041183
1503.0490,0.040711
1503.9808,0.040412
1504.9127,0.039153
1505.8445,0.038397
1506.7763,0.040200
1507.7082,0.045147
1508.6400,0.046257
1509.5718,0.044269
1510.5037,0.043268
1511.4355,0.042581
1512.3673,0.041769
1513.2992,0.041720
1514.2310,0.041660
1515.1628,0.040884
1516.0947,0.040826
1517.0265,0.041554
1517.9583,0.042296
1518.8902,0.042432
1519.8220,0.041593
1520.7538,0.041021
1521.6857,0.041991
1522.6175,0.043797
1523.5493,0.043632
1524.4812,0.042526
1525.4130,0.042024
1526.3448,0.042502
1527.2767,0.043118
1528.2085,0.042962
1529.1403,0.043032
1530.0722,0.043043
1531.0040,0.042335
1531.9359,0.041789
1532.8677,0.042426
1533.7995,0.043603
1534.7314,0.044484
1535.6632,0.044574
1536.5950,0.043402
1537.5269,0.042293
1538.4587,0.041458
1539.3905,0.041442
1540.3224,0.044223
1541.2542,0.046683
1542.1860,0.045725
1543.1179,0.045691
1544.0497,0.046098
1544.9815,0.045483
1545.9134,0.045236
1546.8452,0.045806
1547.7770,0.045360
1548.7089,0.044352
1549.6407,0.044312
1550.5725,0.045449
1551.5044,0.046680
1552.4362,0.046234
1553.3680,0.045113
1554.2999,0.044484
1555.2317,0.045233
1556.1635,0.045982
1557.0954,0.045174
1558.0272,0.044880
1558.9591,0.047539
1559.8909,0.053568
1560.8227,0.055223
1561.7546,0.053035
1562.6864,0.050319
1563.6182,0.048877
1564.5501,0.048556
1565.4819,0.048802
1566.4137,0.049540
1567.3456,0.050020
1568.2774,0.050004
1569.2092,0.050293
1570.1411,0.052125
1571.0729,0.054377
1572.0047,0.053608
1572.9366,0.052180
1573.8684,0.051912
1574.8002,0.052426
1575.7321,0.053191
1576.6639,0.054883
1577.5957,0.058246
1578.5276,0.059006
1579.4594,0.057609
1580.3912,0.057166
1581.3231,0.058018
1582.2549,0.058901
1583.1867,0.059342
1584.1186,0.059815
1585.0504,0.060444
1585.9822,0.061438
1586.9141,0.062366
1587.8459,0.063069
1588.7778,0.063784
1589.7096,0.064699
1590.6414,0.065655
1591.5733,0.066638
1592.5051,0.067630
1593.4369,0.068473
1594.3688,0.069450
1595.3006,0.070767
1596.2324,0.072088
1597.1643,0.073357
1598.0961,0.074628
1599.0279,0.075190
1599.9598,0.076346
1600.8916,0.078190
1601.8234,0.079646
1602.7553,0.081093
1603.6871,0.082276
1604.6189,0.084052
1605.5508,0.086150
1606.4826,0.087076
1607.4144,0.088428
1608.3463,0.090688
1609.2781,0.092425
1610.2099,0.094252
1611.1418,0.096641
1612.0736,0.098173
1613.0054,0.099130
1613.9373,0.100709
1614.8691,0.102247
1615.8010,0.103804
1616.7328,0.107237
1617.6646,0.114325
1618.5965,0.119496
1619.5283,0.117532
1620.4601,0.115950
1621.3920,0.116935
1622.3238,0.119090
1623.2556,0.121283
1624.1875,0.125557
1625.1193,0.129983
1626.0511,0.130835
1626.9830,0.131247
1627.9148,0.133277
1628.8466,0.136086
1629.7785,0.138178
1630.7103,0.138110
1631.6421,0.137473
1632.5740,0.137369
1633.5058,0.137707
1634.4376,0.137653
1635.3695,0.139666
1636.3013,0.147359
1637.2331,0.153233
1638.1650,0.150517
1639.0968,0.147973
1640.0286,0.146686
1640.9605,0.145725
1641.8923,0.144499
1642.8242,0.143081
1643.7560,0.142209
1644.6878,0.140992
1645.6197,0.139815
1646.5515,0.140969
1647.4833,0.144150
1648.4152,0.144871
1649.3470,0.142519
1650.2788,0.138355
1651.2107,0.134523
1652.1425,0.132813
1653.0743,0.134546
1654.0062,0.143694
1654.9380,0.146967
1655.8698,0.138930
1656.8017,0.132731
1657.7335,0.129468
1658.6653,0.127276
1659.5972,0.124993
1660.5290,0.122718
1661.4608,0.120768
1662.3927,0.119761
1663.3245,0.119744
1664.2563,0.119151
1665.1882,0.116925
1666.1200,0.114349
1667.0518,0.111586
1667.9837,0.108975
1668.9155,0.107729
1669.8474,0.107675
1670.7792,0.107241
1671.7110,0.105237
1672.6429,0.102885
1673.5747,0.100627
1674.5065,0.098464
1675.4384,0.097000
1676.3702,0.096666
1677.3020,0.095148
1678.2339,0.091754
1679.1657,0.089621
1680.0975,0.087749
1681.0294,0.085141
1681.9612,0.083418
1682.8930,0.082421
1683.8249,0.081007
1684.7567,0.080512
1685.6885,0.081596
1686.6204,0.079601
1687.5522,0.076049
1688.4840,0.073312
1689.4159,0.071614
1690.3477,0.070722
1691.2795,0.069543
1692.2114,0.067818
1693.1432,0.065540
1694.0750,0.063313
1695.0069,0.061440
1695.9387,0.060235
1696.8706,0.060861
1697.8024,0.060513
1698.7342,0.057671
1699.6661,0.055230
1700.5979,0.054006
1701.5297,0.054173
1702.4616,0.054141
1703.3934,0.052392
1704.3252,0.050693
1705.2571,0.049292
1706.1889,0.048070
1707.1207,0.047055
1708.0526,0.046359
1708.9844,0.045106
1709.9162,0.043762
1710.8481,0.042960
1711.7799,0.042394
1712.7117,0.041493
1713.6436,0.040031
1714.5754,0.038897
1715.5072,0.038274
1716.4391,0.037633
1717.3709,0.037273
1718.3027,0.036942
1719.2346,0.037736
1720.1664,0.037793
1721.0982,0.035889
1722.0301,0.034007
1722.9619,0.032980
1723.8937,0.032498
1724.8256,0.032178
1725.7574,0.031461
1726.6893,0.030641
1727.6211,0.030167
1728.5529,0.029552
1729.4848,0.029028
1730.4166,0.028654
1731.3484,0.028085
1732.2803,0.027625
1733.2121,0.026791
1734.1439,0.026546
1735.0758,0.027103
1736.0076,0.027612
1736.9394,0.026836
1737.8713,0.025395
1738.8031,0.024451
1739.7349,0.024010
1740.6668,0.023951
1741.5986,0.024344
1742.5304,0.024126
1743.4623,0.023544
1744.3941,0.022981
1745.3259,0.022573
1746.2578,0.021740
1747.1896,0.021584
1748.1214,0.022003
1749.0533,0.021640
1749.9851,0.021159
1750.9169,0.020776
1751.8488,0.020663
1752.7806,0.021416
1753.7125,0.021201
1754.6443,0.020275
1755.5761,0.019334
1756.5080,0.019008
1757.4398,0.018842
1758.3716,0.018996
1759.3035,0.018918
1760.2353,0.018353
1761.1671,0.018129
1762.0990,0.018015
1763.0308,0.018151
1763.9626,0.018430
1764.8945,0.018065
1765.8263,0.017577
1766.7581,0.017176
1767.6900,0.016625
1768.6218,0.016096
1769.5536,0.016104
1770.4855,0.016444
1771.4173,0.016150
1772.3491,0.015910
1773.2810,0.016130
1774.2128,0.016108
1775.1446,0.015942
1776.0765,0.015566
1777.0083,0.015284
1777.9401,0.015472
1778.8720,0.015341
1779.8038,0.014485
1780.7357,0.014190
1781.6675,0.014296
1782.5993,0.014445
1783.5312,0.014926
1784.4630,0.014695
1785.3948,0.014103
1786.3267,0.014297
1787.2585,0.014647
1788.1903,0.014299
1789.1222,0.013913
1790.0540,0.013835
1790.9858,0.013967
1791.9177,0.013545
1792.8495,0.012502
1793.7813,0.012693
1794.7132,0.013791
1795.6450,0.013362
1796.5768,0.012899
1797.5087,0.013151
1798.4405,0.013325
1799.3723,0.012767
1800.3042,0.012323
1801.2360,0.012615
1802.1678,0.012534
1803.0997,0.012391
1804.0315,0.012159
1804.9633,0.011996
1805.8952,0.012384
1806.8270,0.012749
1807.7589,0.012479
1808.6907,0.012394
1809.6225,0.012035
1810.5544,0.011661
1811.4862,0.011889
1812.4180,0.011813
1813.3499,0.011323
1814.2817,0.011749
1815.2135,0.012319
1816.1454,0.011754
1817.0772,0.011117
1818.0090,0.011254
1818.9409,0.011439
1819.8727,0.011024
1820.8045,0.010521
1821.7364,0.010866
1822.6682,0.011428
1823.6000,0.011481
1824.5319,0.010713
1825.4637,0.010397
1826.3955,0.010820
1827.3274,0.011080
1828.2592,0.011087
1829.1910,0.010563
1830.1229,0.010364
1831.0547,0.010779
1831.9865,0.011096
1832.9184,0.010945
1833.8502,0.010694
1834.7821,0.010879
1835.7139,0.011186
1836.6457,0.011004
1837.5776,0.010503
1838.5094,0.010344
1839.4412,0.010504
1840.3731,0.010508
1841.3049,0.010471
1842.2367,0.010052
1843.1686,0.009244
1844.1004,0.009054
1845.0322,0.010099
1845.9641,0.010534
1846.8959,0.010582
1847.8277,0.010133
1848.7596,0.010152
1849.6914,0.010143
1850.6232,0.009307
1851.5551,0.009122
1852.4869,0.009429
1853.4187,0.009462
1854.3506,0.009505
1855.2824,0.009600
1856.2142,0.009626
1857.1461,0.009517
1858.0779,0.009529
1859.0097,0.009228
1859.9416,0.008666
1860.8734,0.009732
1861.8052,0.010753
1862.7371,0.009975
1863.6689,0.009991
1864.6008,0.010549
1865.5326,0.009833
1866.4644,0.009383
1867.3963,0.009232
1868.3281,0.009191
1869.2599,0.009910
1870.1918,0.010158
1871.1236,0.010169
1872.0554,0.010094
1872.9873,0.009843
1873.9191,0.009311
1874.8509,0.008893
1875.7828,0.008821
1876.7146,0.008142
1877.6464,0.008406
1878.5783,0.008798
1879.5101,0.008076
1880.4419,0.008474
1881.3738,0.008860
1882.3056,0.009648
1883.2374,0.010266
1884.1693,0.009356
1885.1011,0.008549
1886.0329,0.008242
1886.9648,0.009101
1887.8966,0.010241
1888.8284,0.009857
1889.7603,0.009232
1890.6921,0.009278
1891.6240,0.009001
1892.5558,0.009330
1893.4876,0.009677
1894.4195,0.009475
1895.3513,0.009127
1896.2831,0.008675
1897.2150,0.008546
1898.1468,0.008548
1899.0786,0.009084
1900.0105,0.009322
1900.9423,0.008873
1901.8741,0.009059
1902.8060,0.009490
1903.7378,0.009639
1904.6696,0.009012
1905.6015,0.008677
1906.5333,0.008918
1907.4651,0.008536
1908.3970,0.008823
1909.3288,0.008646
1910.2606,0.008895
1911.1925,0.009372
1912.1243,0.009821
1913.0561,0.010245
1913.9880,0.010526
1914.9198,0.010443
1915.8516,0.010211
1916.7835,0.009011
1917.7153,0.008931
1918.6472,0.010663
1919.5790,0.010982
1920.5108,0.009132
1921.4427,0.008240
1922.3745,0.007545
1923.3063,0.007649
1924.2382,0.009385
1925.1700,0.009993
1926.1018,0.009446
1927.0337,0.008455
1927.9655,0.008608
1928.8973,0.009577
1929.8292,0.008205
1930.7610,0.007205
1931.6928,0.008393
1932.6247,0.008550
1933.5565,0.008064
1934.4883,0.008534
1935.4202,0.007657
1936.3520,0.007586
1937.2838,0.008782
1938.2157,0.008183
1939.1475,0.008174
1940.0793,0.007829
1941.0112,0.008585
1941.9430,0.009979
1942.8748,0.009023
1943.8067,0.007349
1944.7385,0.007509
1945.6704,0.007555
1946.6022,0.007400
1947.5340,0.007942
1948.4659,0.007902
1949.3977,0.007224
1950.3295,0.006649
1951.2614,0.006828
1952.1932,0.007802
1953.1250,0.007423
1954.0569,0.005412
1954.9887,0.005234
1955.9205,0.004550
1956.8524,0.003548
1957.7842,0.005780
1958.7160,0.007113
1959.6479,0.005645
1960.5797,0.003012
1961.5115,0.003785
1962.4434,0.006811
1963.3752,0.005895
1964.3070,0.006359
1965.2389,0.008653
1966.1707,0.006472
1967.1025,0.006250
1968.0344,0.007095
1968.9662,0.005376
1969.8980,0.005833
1970.8299,0.004171
1971.7617,0.002105
1972.6936,0.003175
1973.6254,0.004935
1974.5572,0.003484
1975.4891,0.000185
1976.4209,0.001998
1977.3527,0.002930
1978.2846,0.002097
1979.2164,0.004229
1980.1482,0.004354
1981.0801,0.003551
1982.0119,0.004188
1982.9437,0.005891
1983.8756,0.008405
1984.8074,0.009810
1985.7392,0.006812
1986.6711,0.003913
1987.6029,0.004275
1988.5347,0.005388
1989.4666,0.004799
1990.3984,0.004871
1991.3302,0.005420
1992.2621,0.004193
1993.1939,0.002032
1994.1257,0.001092
1995.0576,0.003664
1995.9894,0.004758
1996.9212,0.006818
1997.8531,0.006127
1998.7849,0.005681
1999.7167,0.005881
2000.6486,0.007705
2001.5804,0.005760
2002.5123,0.002859
2003.4441,0.002594
2004.3759,0.002505
2005.3078,0.005819
2006.2396,0.007102
2007.1714,0.006200
2008.1033,0.007153
2009.0351,0.005463
2009.9669,0.006335
2010.8988,0.005746
2011.8306,0.006183
2012.7624,0.009158
2013.6943,0.008297
2014.6261,0.005362
2015.5579,0.004683
2016.4898,0.005206
2017.4216,0.008779
2018.3534,0.009206
2019.2853,0.006370
2020.2171,0.005651
2021.1489,0.005715
2022.0808,0.006638
2023.0126,0.005354
2023.9444,0.002148
2024.8763,0.003877
2025.8081,0.007783
2026.7399,0.007855
2027.6718,0.005537
2028.6036,0.005401
2029.5355,0.005514
2030.4673,0.004305
2031.3991,0.002667
2032.3310,0.001038
2033.2628,0.001265
2034.1946,0.003893
2035.1265,0.003997
2036.0583,0.003974
2036.9901,0.006094
2037.9220,0.007292
2038.8538,0.007830
2039.7856,0.009627
2040.7175,0.007979
2041.6493,0.006213
2042.5811,0.005005
2043.5130,0.006822
2044.4448,0.008020
2045.3766,0.007000
2046.3085,0.006149
2047.2403,0.008515
2048.1721,0.012470
2049.1040,0.012257
2050.0358,0.010014
2050.9676,0.010354
2051.8995,0.012137
2052.8313,0.010448
2053.7631,0.009166
2054.6950,0.010749
2055.6268,0.010916
2056.5587,0.011090
2057.4905,0.010655
2058.4223,0.010288
2059.3542,0.010939
2060.2860,0.010717
2061.2178,0.011524
2062.1497,0.011411
2063.0815,0.010021
2064.0133,0.010754
2064.9452,0.011189
2065.8770,0.010996
2066.8088,0.010960
2067.7407,0.011203
2068.6725,0.011524
2069.6043,0.011446
2070.5362,0.011500
2071.4680,0.012161
2072.3998,0.012474
2073.3317,0.014118
2074.2635,0.014123
2075.1953,0.012314
2076.1272,0.013256
2077.0590,0.014283
2077.9908,0.013149
2078.9227,0.012632
2079.8545,0.013215
2080.7863,0.013699
2081.7182,0.011429
2082.6500,0.011164
2083.5819,0.012947
2084.5137,0.013628
2085.4455,0.013032
2086.3774,0.011776
2087.3092,0.012235
2088.2410,0.013504
2089.1729,0.013089
2090.1047,0.012995
2091.0365,0.014394
2091.9684,0.013385
2092.9002,0.012911
2093.8320,0.012919
2094.7639,0.011210
2095.6957,0.011130
2096.6275,0.011742
2097.5594,0.012661
2098.4912,0.012875
2099.4230,0.012209
2100.3549,0.011484
2101.2867,0.012066
2102.2185,0.012966
2103.1504,0.013233
2104.0822,0.013817
2105.0140,0.013847
2105.9459,0.013924
2106.8777,0.013810
2107.8095,0.013888
2108.7414,0.014125
2109.6732,0.013351
2110.6051,0.014319
2111.5369,0.015991
2112.4687,0.015041
2113.4006,0.013742
2114.3324,0.013970
2115.2642,0.013821
2116.1961,0.012652
2117.1279,0.013221
2118.0597,0.013128
2118.9916,0.012732
2119.9234,0.013587
2120.8552,0.014351
2121.7871,0.013901
2122.7189,0.014440
2123.6507,0.014402
2124.5826,0.013646
2125.5144,0.013597
2126.4462,0.015274
2127.3781,0.014959
2128.3099,0.012177
2129.2417,0.011496
2130.1736,0.011586
2131.1054,0.012586
2132.0372,0.013534
2132.9691,0.012293
2133.9009,0.012823
2134.8327,0.015626
2135.7646,0.017291
2136.6964,0.014946
2137.6282,0.012952
2138.5601,0.013306
2139.4919,0.013202
2140.4238,0.012068
2141.3556,0.012638
2142.2874,0.012262
2143.2193,0.011380
2144.1511,0.011038
2145.0829,0.009506
2146.0148,0.008865
2146.9466,0.008256
2147.8784,0.008553
2148.8103,0.010284
2149.7421,0.010788
2150.6739,0.010118
2151.6058,0.009567
2152.5376,0.009508
2153.4694,0.009900
2154.4013,0.009791
2155.3331,0.010097
2156.2649,0.007178
2157.1968,0.003358
2158.1286,0.003370
2159.0604,0.004592
2159.9923,0.004237
2160.9241,0.003904
2161.8559,0.005410
2162.7878,0.008068
2163.7196,0.008027
2164.6514,0.005175
2165.5833,0.005645
2166.5151,0.008990
2167.4470,0.009203
2168.3788,0.007504
2169.3106,0.009714
2170.2425,0.012537
2171.1743,0.008739
2172.1061,0.002421
2173.0380,0.004144
2173.9698,0.009523
2174.9016,0.010293
2175.8335,0.007351
2176.7653,0.005729
2177.6971,0.008310
2178.6290,0.009070
2179.5608,0.007086
2180.4926,0.005499
2181.4245,0.005468
2182.3563,0.005591
2183.2881,0.006285
2184.2200,0.009556
2185.1518,0.011731
2186.0836,0.010104
2187.0155,0.010469
2187.9473,0.009620
2188.8791,0.006127
2189.8110,0.006792
2190.7428,0.007419
2191.6746,0.004985
2192.6065,0.005878
2193.5383,0.010325
2194.4702,0.011839
2195.4020,0.011151
2196.3338,0.010949
2197.2657,0.010997
2198.1975,0.010239
2199.1293,0.009133
2200.0612,0.009255
2200.9930,0.007530
2201.9248,0.006917
2202.8567,0.005920
2203.7885,0.006268
2204.7203,0.008190
2205.6522,0.008851
2206.5840,0.007725
2207.5158,0.007123
2208.4477,0.008323
2209.3795,0.009548
2210.3113,0.008963
2211.2432,0.009002
2212.1750,0.010385
2213.1068,0.011396
2214.0387,0.010686
2214.9705,0.010087
2215.9023,0.010251
2216.8342,0.010589
2217.7660,0.009922
2218.6978,0.007923
2219.6297,0.008476
2220.5615,0.009168
2221.4934,0.008952
2222.4252,0.009434
2223.3570,0.008884
2224.2889,0.006595
2225.2207,0.005982
2226.1525,0.006580
2227.0844,0.006887
2228.0162,0.007755
2228.9480,0.010118
2229.8799,0.010789
2230.8117,0.009671
2231.7435,0.010022
2232.6754,0.010535
2233.6072,0.009595
2234.5390,0.009384
2235.4709,0.010535
2236.4027,0.010718
2237.3345,0.010902
2238.2664,0.011288
2239.1982,0.010625
2240.1300,0.009540
2241.0619,0.009445
2241.9937,0.010710
2242.9255,0.010105
2243.8574,0.008196
2244.7892,0.009113
2245.7210,0.010844
2246.6529,0.011019
2247.5847,0.010968
2248.5166,0.009670
2249.4484,0.007186
2250.3802,0.006790
2251.3121,0.008118
2252.2439,0.008433
2253.1757,0.007464
2254.1076,0.007861
2255.0394,0.008465
2255.9712,0.009200
2256.9031,0.009684
2257.8349,0.009449
2258.7667,0.009940
2259.6986,0.009605
2260.6304,0.008657
2261.5622,0.009440
2262.4941,0.010904
2263.4259,0.011478
2264.3577,0.010324
2265.2896,0.008803
2266.2214,0.008327
2267.1532,0.008530
2268.0851,0.008795
2269.0169,0.009074
2269.9487,0.009377
2270.8806,0.009401
2271.8124,0.009629
2272.7442,0.008698
2273.6761,0.008104
2274.6079,0.009272
2275.5397,0.009371
2276.4716,0.008830
2277.4034,0.009571
2278.3353,0.010474
2279.2671,0.009856
2280.1989,0.008474
2281.1308,0.007922
2282.0626,0.007755
2282.9944,0.008557
2283.9263,0.009935
2284.8581,0.010774
2285.7899,0.010503
2286.7218,0.009187
2287.6536,0.008724
2288.5854,0.008881
2289.5173,0.008775
2290.4491,0.009498
2291.3809,0.010470
2292.3128,0.010247
2293.2446,0.009734
2294.1764,0.009745
2295.1083,0.009740
2296.0401,0.009468
2296.9719,0.009497
2297.9038,0.009394
2298.8356,0.009239
2299.7674,0.009588
2300.6993,0.009525
2301.6311,0.009542
2302.5629,0.009854
2303.4948,0.010180
2304.4266,0.010223
2305.3585,0.009095
2306.2903,0.008530
2307.2221,0.009062
2308.1540,0.009094
2309.0858,0.009791
2310.0176,0.010393
2310.9495,0.010197
2311.8813,0.009832
2312.8131,0.009670
2313.7450,0.009550
2314.6768,0.008990
2315.6086,0.008706
2316.5405,0.008742
2317.4723,0.008917
2318.4041,0.009159
2319.3360,0.009322
2320.2678,0.009141
2321.1996,0.008567
2322.1315,0.008744
2323.0633,0.009189
2323.9951,0.009696
2324.9270,0.009917
2325.8588,0.009366
2326.7906,0.009268
2327.7225,0.009717
2328.6543,0.009702
2329.5861,0.009690
2330.5180,0.009202
2331.4498,0.008541
2332.3817,0.009274
2333.3135,0.009901
2334.2453,0.008652
2335.1772,0.007191
2336.1090,0.007217
2337.0408,0.008074
2337.9727,0.009174
2338.9045,0.009406
2339.8363,0.008634
2340.7682,0.008252
2341.7000,0.008477
2342.6318,0.008130
2343.5637,0.007424
2344.4955,0.007949
2345.4273,0.009054
2346.3592,0.008770
2347.2910,0.008081
2348.2228,0.008301
2349.1547,0.008495
2350.0865,0.008945
2351.0183,0.009528
2351.9502,0.009347
2352.8820,0.008970
2353.8138,0.008415
2354.7457,0.007688
2355.6775,0.008010
2356.6093,0.008540
2357.5412,0.008133
2358.4730,0.008061
2359.4049,0.008799
2360.3367,0.008513
2361.2685,0.007205
2362.2004,0.006722
2363.1322,0.006619
2364.0640,0.005429
2364.9959,0.005430
2365.9277,0.007626
2366.8595,0.008558
2367.7914,0.007390
2368.7232,0.007351
2369.6550,0.007544
2370.5869,0.006543
2371.5187,0.007052
2372.4505,0.008379
2373.3824,0.008497
2374.3142,0.007329
2375.2460,0.006603
2376.1779,0.006753
2377.1097,0.007629
2378.0415,0.008455
2378.9734,0.007842
2379.9052,0.007228
2380.8370,0.007478
2381.7689,0.007572
2382.7007,0.007374
2383.6325,0.007355
2384.5644,0.007778
2385.4962,0.008047
2386.4281,0.007538
2387.3599,0.007096
2388.2917,0.006821
2389.2236,0.006565
2390.1554,0.006895
2391.0872,0.007159
2392.0191,0.006907
2392.9509,0.007125
2393.8827,0.007459
2394.8146,0.007468
2395.7464,0.007796
2396.6782,0.007533
2397.6101,0.006636
2398.5419,0.006820
2399.4737,0.007168
2400.4056,0.006314
2401.3374,0.005955
2402.2692,0.006740
2403.2011,0.006920
2404.1329,0.007199
2405.0647,0.007644
2405.9966,0.007078
2406.9284,0.006605
2407.8602,0.006746
2408.7921,0.006809
2409.7239,0.006078
2410.6557,0.005385
2411.5876,0.005817
2412.5194,0.006477
2413.4512,0.006302
2414.3831,0.006004
2415.3149,0.006204
2416.2468,0.006339
2417.1786,0.006302
2418.1104,0.006789
2419.0423,0.007179
2419.9741,0.006964
2420.9059,0.007006
2421.8378,0.006847
2422.7696,0.005999
2423.7014,0.005660
2424.6333,0.005568
2425.5651,0.005294
2426.4969,0.005522
2427.4288,0.005847
2428.3606,0.005972
2429.2924,0.005656
2430.2243,0.005322
2431.1561,0.005468
2432.0879,0.005500
2433.0198,0.005975
2433.9516,0.006514
2434.8834,0.006064
2435.8153,0.005365
2436.7471,0.005065
2437.6789,0.005465
2438.6108,0.005927
2439.5426,0.005713
2440.4744,0.005753
2441.4063,0.006266
2442.3381,0.006324
2443.2700,0.005414
2444.2018,0.004779
2445.1336,0.005281
2446.0655,0.005065
2446.9973,0.004616
2447.9291,0.004991
2448.8610,0.004845
2449.7928,0.004572
2450.7246,0.005056
2451.6565,0.005975
2452.5883,0.006655
2453.5201,0.006658
2454.4520,0.006029
2455.3838,0.005682
2456.3156,0.005400
2457.2475,0.004435
2458.1793,0.004185
2459.1111,0.005164
2460.0430,0.005639
2460.9748,0.005155
2461.9066,0.005366
2462.8385,0.005740
2463.7703,0.005112
2464.7021,0.005043
2465.6340,0.005450
2466.5658,0.005167
2467.4976,0.004877
2468.4295,0.004492
2469.3613,0.004533
2470.2932,0.005192
2471.2250,0.005417
2472.1568,0.005508
2473.0887,0.005554
2474.0205,0.005405
2474.9523,0.005819
2475.8842,0.005233
2476.8160,0.004169
2477.7478,0.004301
2478.6797,0.004723
2479.6115,0.004505
2480.5433,0.003944
2481.4752,0.004319
2482.4070,0.005423
2483.3388,0.005250
2484.2707,0.004908
2485.2025,0.005524
2486.1343,0.005807
2487.0662,0.005386
2487.9980,0.005367
2488.9298,0.006139
2489.8617,0.006567
2490.7935,0.005466
2491.7253,0.004399
2492.6572,0.004847
2493.5890,0.005272
2494.5208,0.005507
2495.4527,0.005981
2496.3845,0.005640
2497.3164,0.004730
2498.2482,0.005189
2499.1800,0.006325
2500.1119,0.006669
2501.0437,0.006346
2501.9755,0.006141
2502.9074,0.006060
2503.8392,0.005643
2504.7710,0.005800
2505.7029,0.006363
2506.6347,0.006156
2507.5665,0.005455
2508.4984,0.004510
2509.4302,0.004324
2510.3620,0.004552
2511.2939,0.004091
2512.2257,0.003682
2513.1575,0.004371
2514.0894,0.005035
2515.0212,0.005278
2515.9530,0.005687
2516.8849,0.005586
2517.8167,0.005293
2518.7485,0.005161
2519.6804,0.005059
2520.6122,0.005314
2521.5440,0.005045
2522.4759,0.004369
2523.4077,0.005152
2524.3396,0.005644
2525.2714,0.005557
2526.2032,0.005521
2527.1351,0.005784
2528.0669,0.006165
2528.9987,0.005671
2529.9306,0.004967
2530.8624,0.005397
2531.7942,0.005644
2532.7261,0.004985
2533.6579,0.004834
2534.5897,0.004419
2535.5216,0.004112
2536.4534,0.004415
2537.3852,0.005207
2538.3171,0.005332
2539.2489,0.004560
2540.1807,0.003725
2541.1126,0.003668
2542.0444,0.004746
2542.9762,0.005797
2543.9081,0.005367
2544.8399,0.004398
2545.7717,0.004047
2546.7036,0.004938
2547.6354,0.005824
2548.5672,0.005535
2549.4991,0.005212
2550.4309,0.005008
2551.3627,0.003900
2552.2946,0.003689
2553.2264,0.004420
2554.1583,0.004382
2555.0901,0.004561
2556.0219,0.005784
2556.9538,0.006053
2557.8856,0.004911
2558.8174,0.003997
2559.7493,0.004018
2560.6811,0.004713
2561.6129,0.005651
2562.5448,0.005348
2563.4766,0.004624
2564.4084,0.004981
2565.3403,0.005558
2566.2721,0.004359
2567.2039,0.003598
2568.1358,0.004224
2569.0676,0.004236
2569.9994,0.003829
2570.9313,0.003983
2571.8631,0.004236
2572.7949,0.004518
2573.7268,0.005373
2574.6586,0.005531
2575.5904,0.004391
2576.5223,0.003776
2577.4541,0.005498
2578.3859,0.006076
2579.3178,0.004962
2580.2496,0.005555
2581.1815,0.005663
2582.1133,0.004549
2583.0451,0.003822
2583.9770,0.004182
2584.9088,0.005082
2585.8406,0.005740
2586.7725,0.005598
2587.7043,0.004071
2588.6361,0.003862
2589.5680,0.005212
2590.4998,0.005398
2591.4316,0.005114
2592.3635,0.004593
2593.2953,0.003919
2594.2271,0.004559
2595.1590,0.005386
2596.0908,0.004720
2597.0226,0.004223
2597.9545,0.004076
2598.8863,0.003736
2599.8181,0.004017
2600.7500,0.004374
2601.6818,0.004753
2602.6136,0.005706
2603.5455,0.006006
2604.4773,0.005090
2605.4091,0.004844
2606.3410,0.005282
2607.2728,0.005337
2608.2047,0.005306
2609.1365,0.004516
2610.0683,0.004556
2611.0002,0.005383
2611.9320,0.005083
2612.8638,0.004377
2613.7957,0.004218
2614.7275,0.004679
2615.6593,0.005066
2616.5912,0.005154
2617.5230,0.005479
2618.4548,0.005685
2619.3867,0.005820
2620.3185,0.005873
2621.2503,0.004901
2622.1822,0.004245
2623.1140,0.004740
2624.0458,0.005163
2624.9777,0.005341
2625.9095,0.005096
2626.8413,0.005032
2627.7732,0.005345
2628.7050,0.005318
2629.6368,0.005717
2630.5687,0.005622
2631.5005,0.004972
2632.4323,0.004874
2633.3642,0.005301
2634.2960,0.005578
2635.2279,0.005530
2636.1597,0.005711
2637.0915,0.005643
2638.0234,0.005726
2638.9552,0.006201
2639.8870,0.006144
2640.8189,0.005902
2641.7507,0.005787
2642.6825,0.005649
2643.6144,0.005358
2644.5462,0.005325
2645.4780,0.005861
2646.4099,0.006279
2647.3417,0.006245
2648.2735,0.006332
2649.2054,0.005689
2650.1372,0.005608
2651.0690,0.005936
2652.0009,0.005886
2652.9327,0.005967
2653.8645,0.006394
2654.7964,0.006709
2655.7282,0.006781
2656.6600,0.006707
2657.5919,0.006715
2658.5237,0.006670
2659.4555,0.007016
2660.3874,0.007205
2661.3192,0.006904
2662.2511,0.006196
2663.1829,0.006226
2664.1147,0.006831
2665.0466,0.006797
2665.9784,0.006651
2666.9102,0.006692
2667.8421,0.006826
2668.7739,0.006876
2669.7057,0.006963
2670.6376,0.007036
2671.5694,0.006711
2672.5012,0.006903
2673.4331,0.006744
2674.3649,0.006316
2675.2967,0.006311
2676.2286,0.006782
2677.1604,0.007121
2678.0922,0.007519
2679.0241,0.007601
2679.9559,0.007232
2680.8877,0.007346
2681.8196,0.007482
2682.7514,0.007302
2683.6832,0.007536
2684.6151,0.007513
2685.5469,0.007464
2686.4787,0.007578
2687.4106,0.007485
2688.3424,0.007278
2689.2742,0.007409
2690.2061,0.007770
2691.1379,0.007844
2692.0698,0.007819
2693.0016,0.007964
2693.9334,0.007545
2694.8653,0.007544
2695.7971,0.007638
2696.7289,0.007765
2697.6608,0.008132
2698.5926,0.008397
2699.5244,0.008272
2700.4563,0.008193
2701.3881,0.008268
2702.3199,0.008275
2703.2518,0.008408
2704.1836,0.008708
2705.1154,0.008972
2706.0473,0.008939
2706.9791,0.008765
2707.9109,0.008513
2708.8428,0.008863
2709.7746,0.009585
2710.7064,0.009734
2711.6383,0.009025
2712.5701,0.008861
2713.5019,0.008900
2714.4338,0.008677
2715.3656,0.009042
2716.2974,0.009447
2717.2293,0.009335
2718.1611,0.009366
2719.0930,0.009215
2720.0248,0.009092
2720.9566,0.008850
2721.8885,0.008968
2722.8203,0.009245
2723.7521,0.009325
2724.6840,0.009455
2725.6158,0.009522
2726.5476,0.009889
2727.4795,0.010218
2728.4113,0.010407
2729.3431,0.010908
2730.2750,0.011197
2731.2068,0.010678
2732.1386,0.009932
2733.0705,0.010023
2734.0023,0.010301
2734.9341,0.010225
2735.8660,0.010403
2736.7978,0.010391
2737.7296,0.010387
2738.6615,0.010527
2739.5933,0.010472
2740.5251,0.010236
2741.4570,0.010123
2742.3888,0.010429
2743.3206,0.010986
2744.2525,0.010866
2745.1843,0.010836
2746.1162,0.010925
2747.0480,0.011176
2747.9798,0.011009
2748.9117,0.010682
2749.8435,0.010970
2750.7753,0.011442
2751.7072,0.011356
2752.6390,0.011365
2753.5708,0.011461
2754.5027,0.011583
2755.4345,0.011507
2756.3663,0.011908
2757.2982,0.012259
2758.2300,0.011779
2759.1618,0.011414
2760.0937,0.011525
2761.0255,0.011994
2761.9573,0.012579
2762.8892,0.012413
2763.8210,0.012045
2764.7528,0.011962
2765.6847,0.011972
2766.6165,0.012554
2767.5483,0.012332
2768.4802,0.011471
2769.4120,0.011428
2770.3438,0.011382
2771.2757,0.011384
2772.2075,0.011744
2773.1394,0.012077
2774.0712,0.012463
2775.0030,0.012729
2775.9349,0.012300
2776.8667,0.011731
2777.7985,0.011923
2778.7304,0.012448
2779.6622,0.013054
2780.5940,0.013308
2781.5259,0.013129
2782.4577,0.012926
2783.3895,0.013060
2784.3214,0.013223
2785.2532,0.012942
2786.1850,0.012613
2787.1169,0.013036
2788.0487,0.013520
2788.9805,0.013344
2789.9124,0.012947
2790.8442,0.012646
2791.7760,0.012971
2792.7079,0.013766
2793.6397,0.013998
2794.5715,0.014142
2795.5034,0.014418
2796.4352,0.014531
2797.3670,0.014850
2798.2989,0.015122
2799.2307,0.015110
2800.1626,0.015401
2801.0944,0.015232
2802.0262,0.015268
2802.9581,0.015377
2803.8899,0.015820
2804.8217,0.016124
2805.7536,0.016358
2806.6854,0.016524
2807.6172,0.016396
2808.5491,0.016686
2809.4809,0.017034
2810.4127,0.016971
2811.3446,0.016295
2812.2764,0.016192
2813.2082,0.016942
2814.1401,0.017520
2815.0719,0.017915
2816.0037,0.018416
2816.9356,0.018746
2817.8674,0.018821
2818.7992,0.018693
2819.7311,0.018512
2820.6629,0.018457
2821.5947,0.018418
2822.5266,0.018929
2823.4584,0.019251
2824.3902,0.018903
2825.3221,0.019092
2826.2539,0.019575
2827.1857,0.019733
2828.1176,0.019904
2829.0494,0.020181
2829.9813,0.020184
2830.9131,0.020262
2831.8449,0.020143
2832.7768,0.020518
2833.7086,0.021153
2834.6404,0.021463
2835.5723,0.021471
2836.5041,0.021602
2837.4359,0.021641
2838.3678,0.021525
2839.2996,0.021984
2840.2314,0.022730
2841.1633,0.022017
2842.0951,0.021816
2843.0269,0.022742
2843.9588,0.023248
2844.8906,0.023473
2845.8224,0.023579
2846.7543,0.023336
2847.6861,0.022880
2848.6179,0.022935
2849.5498,0.023688
2850.4816,0.024400
2851.4134,0.024725
2852.3453,0.025072
2853.2771,0.025660
2854.2089,0.025588
2855.1408,0.025304
2856.0726,0.025619
2857.0045,0.026053
2857.9363,0.026080
2858.8681,0.026491
2859.8000,0.027225
2860.7318,0.027846
2861.6636,0.027829
2862.5955,0.027953
2863.5273,0.028844
2864.4591,0.029279
2865.3910,0.029366
2866.3228,0.029268
2867.2546,0.030098
2868.1865,0.030855
2869.1183,0.031149
2870.0501,0.031887
2870.9820,0.033112
2871.9138,0.033805
2872.8456,0.033606
2873.7775,0.033910
2874.7093,0.034462
2875.6411,0.034594
2876.5730,0.035330
2877.5048,0.036611
2878.4366,0.037391
2879.3685,0.037251
2880.3003,0.037313
2881.2321,0.038002
2882.1640,0.038296
2883.0958,0.039426
2884.0277,0.039813
2884.9595,0.039109
2885.8913,0.039599
2886.8232,0.040841
2887.7550,0.041691
2888.6868,0.042281
2889.6187,0.042148
2890.5505,0.042022
2891.4823,0.042280
2892.4142,0.042282
2893.3460,0.042684
2894.2778,0.044035
2895.2097,0.044423
2896.1415,0.044204
2897.0733,0.044916
2898.0052,0.045375
2898.9370,0.045174
2899.8688,0.045428
2900.8007,0.045775
2901.7325,0.046259
2902.6643,0.046720
2903.5962,0.047103
2904.5280,0.047691
2905.4598,0.047368
2906.3917,0.046938
2907.3235,0.046537
2908.2553,0.046625
2909.1872,0.046981
2910.1190,0.046486
2911.0509,0.046274
2911.9827,0.046217
2912.9145,0.045611
2913.8464,0.044446
2914.7782,0.043716
2915.7100,0.043550
2916.6419,0.044063
2917.5737,0.044199
2918.5055,0.043776
2919.4374,0.043696
2920.3692,0.044079
2921.3010,0.044344
2922.2329,0.044797
2923.1647,0.045498
2924.0965,0.045328
2925.0284,0.045381
2925.9602,0.045875
2926.8920,0.045713
2927.8239,0.046042
2928.7557,0.046550
2929.6875,0.047032
2930.6194,0.046901
2931.5512,0.046966
2932.4830,0.047633
2933.4149,0.048329
2934.3467,0.048703
2935.2785,0.048988
2936.2104,0.048863
2937.1422,0.048224
2938.0741,0.047919
2939.0059,0.048255
2939.9377,0.049143
2940.8696,0.049633
2941.8014,0.048613
2942.7332,0.048799
2943.6651,0.049208
2944.5969,0.049770
2945.5287,0.049678
2946.4606,0.049418
2947.3924,0.049627
2948.3242,0.049585
2949.2561,0.049201
2950.1879,0.050036
2951.1197,0.050773
2952.0516,0.049935
2952.9834,0.049061
2953.9152,0.049228
2954.8471,0.050377
2955.7789,0.051279
2956.7107,0.051533
2957.6426,0.052043
2958.5744,0.052652
2959.5062,0.052998
2960.4381,0.053538
2961.3699,0.054683
2962.3017,0.054698
2963.2336,0.055548
2964.1654,0.057443
2965.0972,0.059123
2966.0291,0.060984
2966.9609,0.062484
2967.8928,0.063757
2968.8246,0.065848
2969.7564,0.067979
2970.6883,0.070381
2971.6201,0.073313
2972.5519,0.075527
2973.4838,0.077668
2974.4156,0.079731
2975.3474,0.081582
2976.2793,0.084336
2977.2111,0.086136
2978.1429,0.088092
2979.0748,0.089494
2980.0066,0.090183
2980.9384,0.090278
2981.8703,0.089882
2982.8021,0.089145
2983.7339,0.088465
2984.6658,0.087228
2985.5976,0.085595
2986.5294,0.083654
2987.4613,0.081608
2988.3931,0.079597
2989.3249,0.077362
2990.2568,0.074611
2991.1886,0.072256
2992.1204,0.071182
2993.0523,0.069326
2993.9841,0.066727
2994.9160,0.065309
2995.8478,0.064583
2996.7796,0.063501
2997.7115,0.062415
2998.6433,0.061107
2999.5751,0.059914
3000.5070,0.059336
3001.4388,0.059626
3002.3706,0.059495
3003.3025,0.058615
3004.2343,0.058200
3005.1661,0.058400
3006.0980,0.058868
3007.0298,0.058775
3007.9616,0.058525
3008.8935,0.058757
3009.8253,0.058869
3010.7571,0.059032
3011.6890,0.059608
3012.6208,0.059347
3013.5526,0.058697
3014.4845,0.058936
3015.4163,0.059900
3016.3481,0.060154
3017.2800,0.061048
3018.2118,0.061415
3019.1436,0.061831
3020.0755,0.063005
3021.0073,0.063443
3021.9392,0.062311
3022.8710,0.062849
3023.8028,0.064268
3024.7347,0.064712
3025.6665,0.064446
3026.5983,0.064806
3027.5302,0.065423
3028.4620,0.065714
3029.3938,0.066699
3030.3257,0.067453
3031.2575,0.067205
3032.1893,0.067883
3033.1212,0.069172
3034.0530,0.069373
3034.9848,0.068827
3035.9167,0.069159
3036.8485,0.070255
3037.7803,0.071016
3038.7122,0.071621
3039.6440,0.072908
3040.5758,0.072990
3041.5077,0.073190
3042.4395,0.074456
3043.3713,0.075190
3044.3032,0.074991
3045.2350,0.076482
3046.1668,0.077226
3047.0987,0.077434
3048.0305,0.078090
3048.9624,0.078724
3049.8942,0.079695
3050.8260,0.080844
3051.7579,0.081451
3052.6897,0.082239
3053.6215,0.082525
3054.5534,0.082313
3055.4852,0.082873
3056.4170,0.084003
3057.3489,0.085107
3058.2807,0.086271
3059.2125,0.087179
3060.1444,0.087528
3061.0762,0.087228
3062.0080,0.087749
3062.9399,0.088720
3063.8717,0.089644
3064.8035,0.090515
3065.7354,0.092186
3066.6672,0.092720
3067.5990,0.093719
3068.5309,0.095057
3069.4627,0.095781
3070.3945,0.096252
3071.3264,0.096699
3072.2582,0.097255
3073.1900,0.098572
3074.1219,0.099814
3075.0537,0.100401
3075.9856,0.101228
3076.9174,0.102682
3077.8492,0.103938
3078.7811,0.105617
3079.7129,0.106420
3080.6447,0.106699
3081.5766,0.106552
3082.5084,0.107154
3083.4402,0.108202
3084.3721,0.108626
3085.3039,0.109636
3086.2357,0.111859
3087.1676,0.113264
3088.0994,0.113286
3089.0312,0.113813
3089.9631,0.114313
3090.8949,0.115411
3091.8267,0.117437
3092.7586,0.117562
3093.6904,0.117640
3094.6222,0.118948
3095.5541,0.119906
3096.4859,0.120679
3097.4177,0.122540
3098.3496,0.124374
3099.2814,0.124834
3100.2132,0.124987
3101.1451,0.126466
3102.0769,0.128118
3103.0087,0.129244
3103.9406,0.130305
3104.8724,0.131183
3105.8043,0.132679
3106.7361,0.134583
3107.6679,0.135085
3108.5998,0.135117
3109.5316,0.136638
3110.4634,0.138128
3111.3953,0.138197
3112.3271,0.139408
3113.2589,0.140538
3114.1908,0.141623
3115.1226,0.143770
3116.0544,0.145428
3116.9863,0.145909
3117.9181,0.146863
3118.8499,0.147462
3119.7818,0.149121
3120.7136,0.150988
3121.6454,0.151528
3122.5773,0.152123
3123.5091,0.153693
3124.4409,0.154105
3125.3728,0.154774
3126.3046,0.157002
3127.2364,0.159639
3128.1683,0.160919
3129.1001,0.161712
3130.0319,0.162451
3130.9638,0.162844
3131.8956,0.163736
3132.8275,0.165545
3133.7593,0.166816
3134.6911,0.167967
3135.6230,0.169590
3136.5548,0.171321
3137.4866,0.172918
3138.4185,0.175201
3139.3503,0.176376
3140.2821,0.176706
3141.2140,0.177098
3142.1458,0.177500
3143.0776,0.178259
3144.0095,0.180416
3144.9413,0.182879
3145.8731,0.184315
3146.8050,0.185035
3147.7368,0.186511
3148.6686,0.189293
3149.6005,0.190982
3150.5323,0.191993
3151.4641,0.193221
3152.3960,0.193275
3153.3278,0.194165
3154.2596,0.195423
3155.1915,0.196467
3156.1233,0.196966
3157.0551,0.198518
3157.9870,0.200302
3158.9188,0.201754
3159.8507,0.203957
3160.7825,0.205600
3161.7143,0.206003
3162.6462,0.206988
3163.5780,0.207852
3164.5098,0.208976
3165.4417,0.211556
3166.3735,0.213953
3167.3053,0.213234
3168.2372,0.213807
3169.1690,0.216266
3170.1008,0.217686
3171.0327,0.218251
3171.9645,0.220736
3172.8963,0.222931
3173.8282,0.223655
3174.7600,0.224146
3175.6918,0.224887
3176.6237,0.225283
3177.5555,0.227220
3178.4873,0.229967
3179.4192,0.231571
3180.3510,0.231038
3181.2828,0.231582
3182.2147,0.233912
3183.1465,0.235156
3184.0783,0.235922
3185.0102,0.237239
3185.9420,0.238681
3186.8739,0.240890
3187.8057,0.240905
3188.7375,0.241503
3189.6694,0.244064
3190.6012,0.246411
3191.5330,0.246781
3192.4649,0.246092
3193.3967,0.246145
3194.3285,0.247393
3195.2604,0.249690
3196.1922,0.251287
3197.1240,0.252221
3198.0559,0.255651
3198.9877,0.257580
3199.9195,0.257276
3200.8514,0.257390
3201.7832,0.259542
3202.7150,0.260616
3203.6469,0.261764
3204.5787,0.262252
3205.5105,0.261619
3206.4424,0.261944
3207.3742,0.263149
3208.3060,0.263128
3209.2379,0.264339
3210.1697,0.266607
3211.1015,0.268772
3212.0334,0.267620
3212.9652,0.268092
3213.8971,0.271035
3214.8289,0.272992
3215.7607,0.273414
3216.6926,0.273020
3217.6244,0.273210
3218.5562,0.274118
3219.4881,0.274792
3220.4199,0.276525
3221.3517,0.278991
3222.2836,0.280566
3223.2154,0.280248
3224.1472,0.281028
3225.0791,0.281275
3226.0109,0.280152
3226.9427,0.280656
3227.8746,0.282340
3228.8064,0.282250
3229.7382,0.282757
3230.6701,0.283246
3231.6019,0.283510
3232.5337,0.284032
3233.4656,0.284883
3234.3974,0.284781
3235.3292,0.285235
3236.2611,0.285701
3237.1929,0.285946
3238.1247,0.286544
3239.0566,0.288910
3239.9884,0.290662
3240.9202,0.290831
3241.8521,0.290724
3242.7839,0.290969
3243.7158,0.290182
3244.6476,0.290324
3245.5794,0.290635
3246.5113,0.291605
3247.4431,0.291612
3248.3749,0.291868
3249.3068,0.294440
3250.2386,0.294770
3251.1704,0.292712
3252.1023,0.292596
3253.0341,0.293090
3253.9659,0.293551
3254.8978,0.295177
3255.8296,0.295788
3256.7614,0.295696
3257.6933,0.294968
3258.6251,0.294081
3259.5569,0.295614
3260.4888,0.296235
3261.4206,0.296701
3262.3524,0.296553
3263.2843,0.295758
3264.2161,0.295529
3265.1479,0.296583
3266.0798,0.296259
3267.0116,0.295199
3267.9434,0.295953
3268.8753,0.296294
3269.8071,0.296495
3270.7390,0.297506
3271.6708,0.297286
3272.6026,0.297448
3273.5345,0.297180
3274.4663,0.295729
3275.3981,0.294638
3276.3300,0.295101
3277.2618,0.296614
3278.1936,0.296674
3279.1255,0.294418
3280.0573,0.294660
3280.9891,0.297808
3281.9210,0.300064
3282.8528,0.299159
3283.7846,0.299276
3284.7165,0.300414
3285.6483,0.300928
3286.5801,0.300031
3287.5120,0.297344
3288.4438,0.297362
3289.3756,0.300169
3290.3075,0.299863
3291.2393,0.299068
3292.1711,0.300308
3293.1030,0.299981
3294.0348,0.298069
3294.9666,0.298349
3295.8985,0.298787
3296.8303,0.296878
3297.7622,0.296872
3298.6940,0.298533
3299.6258,0.299617
3300.5577,0.299580
3301.4895,0.297140
3302.4213,0.297116
3303.3532,0.299287
3304.2850,0.300383
3305.2168,0.299602
3306.1487,0.298227
3307.0805,0.299385
3308.0123,0.301679
3308.9442,0.300406
3309.8760,0.299247
3310.8078,0.299364
3311.7397,0.299098
3312.6715,0.298605
3313.6033,0.298162
3314.5352,0.299734
3315.4670,0.301365
3316.3988,0.299357
3317.3307,0.296963
3318.2625,0.298323
3319.1943,0.300513
3320.1262,0.299731
3321.0580,0.299044
3321.9898,0.299462
3322.9217,0.299806
3323.8535,0.300662
3324.7854,0.300308
3325.7172,0.299948
3326.6490,0.301665
3327.5809,0.302136
3328.5127,0.301342
3329.4445,0.302922
3330.3764,0.302904
3331.3082,0.299873
3332.2400,0.299034
3333.1719,0.300511
3334.1037,0.301167
3335.0355,0.299241
3335.9674,0.297574
3336.8992,0.298989
3337.8310,0.301350
3338.7629,0.301190
3339.6947,0.300185
3340.6265,0.301228
3341.5584,0.303536
3342.4902,0.303016
3343.4220,0.300431
3344.3539,0.299621
3345.2857,0.299251
3346.2175,0.298901
3347.1494,0.298570
3348.0812,0.298690
3349.0130,0.301199
3349.9449,0.303090
3350.8767,0.301874
3351.8086,0.300665
3352.7404,0.301297
3353.6722,0.300672
3354.6041,0.298632
3355.5359,0.297717
3356.4677,0.297155
3357.3996,0.297645
3358.3314,0.299938
3359.2632,0.300729
3360.1951,0.298678
3361.1269,0.298834
3362.0587,0.299531
3362.9906,0.298809
3363.9224,0.299236
3364.8542,0.298506
3365.7861,0.297903
3366.7179,0.298941
3367.6497,0.300987
3368.5816,0.300293
3369.5134,0.295329
3370.4452,0.293933
3371.3771,0.295303
3372.3089,0.293256
3373.2407,0.290219
3374.1726,0.291391
3375.1044,0.293394
3376.0362,0.293607
3376.9681,0.293227
3377.8999,0.291401
3378.8317,0.290330
3379.7636,0.290648
3380.6954,0.291710
3381.6273,0.295002
3382.5591,0.295448
3383.4909,0.291804
3384.4228,0.288681
3385.3546,0.287848
3386.2864,0.288104
3387.2183,0.290894
3388.1501,0.291652
3389.0819,0.287447
3390.0138,0.285310
3390.9456,0.286510
3391.8774,0.286479
3392.8093,0.286429
3393.7411,0.286397
3394.6729,0.285972
3395.6048,0.284414
3396.5366,0.283724
3397.4684,0.281825
3398.4003,0.280678
3399.3321,0.283586
3400.2639,0.283460
3401.1958,0.279636
3402.1276,0.278341
3403.0594,0.277073
3403.9913,0.275453
3404.9231,0.275007
3405.8549,0.274411
3406.7868,0.273250
3407.7186,0.273335
3408.6505,0.273849
3409.5823,0.272462
3410.5141,0.270719
3411.4460,0.270294
3412.3778,0.268691
3413.3096,0.267105
3414.2415,0.268812
3415.1733,0.271162
3416.1051,0.269176
3417.0370,0.265093
3417.9688,0.262441
3418.9006,0.262257
3419.8325,0.261386
3420.7643,0.260227
3421.6961,0.258925
3422.6280,0.258530
3423.5598,0.259665
3424.4916,0.259242
3425.4235,0.257502
3426.3553,0.256610
3427.2871,0.256093
3428.2190,0.257579
3429.1508,0.257551
3430.0826,0.254218
3431.0145,0.251483
3431.9463,0.250718
3432.8781,0.248585
3433.8100,0.246090
3434.7418,0.243797
3435.6737,0.242538
3436.6055,0.241448
3437.5373,0.241743
3438.4692,0.241027
3439.4010,0.238638
3440.3328,0.236780
3441.2647,0.236001
3442.1965,0.235769
3443.1283,0.235920
3444.0602,0.234163
3444.9920,0.232651
3445.9238,0.234144
3446.8557,0.236309
3447.7875,0.234868
3448.7193,0.231530
3449.6512,0.229069
3450.5830,0.228619
3451.5148,0.228486
3452.4467,0.228486
3453.3785,0.227702
3454.3103,0.227339
3455.2422,0.224684
3456.1740,0.223486
3457.1058,0.224035
3458.0377,0.220853
3458.9695,0.216946
3459.9013,0.216026
3460.8332,0.216214
3461.7650,0.216582
3462.6969,0.214484
3463.6287,0.212105
3464.5605,0.211658
3465.4924,0.211951
3466.4242,0.210574
3467.3560,0.208677
3468.2879,0.209616
3469.2197,0.208679
3470.1515,0.206203
3471.0834,0.205925
3472.0152,0.202884
3472.9470,0.199560
3473.8789,0.199223
3474.8107,0.199490
3475.7425,0.199453
3476.6744,0.200400
3477.6062,0.198283
3478.5380,0.194358
3479.4699,0.192904
3480.4017,0.195118
3481.3335,0.195171
3482.2654,0.190930
3483.1972,0.188366
3484.1290,0.189763
3485.0609,0.190106
3485.9927,0.188861
3486.9245,0.189014
3487.8564,0.190081
3488.7882,0.186803
3489.7201,0.183258
3490.6519,0.182029
3491.5837,0.181003
3492.5156,0.179557
3493.4474,0.179514
3494.3792,0.178697
3495.3111,0.178607
3496.2429,0.178828
3497.1747,0.178242
3498.1066,0.176243
3499.0384,0.174649
3499.9702,0.175592
3500.9021,0.175795
3501.8339,0.172435
3502.7657,0.169233
3503.6976,0.167166
3504.6294,0.167359
3505.5612,0.166600
3506.4931,0.164786
3507.4249,0.164574
3508.3567,0.164473
3509.2886,0.164027
3510.2204,0.162890
3511.1522,0.160590
3512.0841,0.160951
3513.0159,0.161388
3513.9477,0.158902
3514.8796,0.157043
3515.8114,0.156056
3516.7432,0.155077
3517.6751,0.155798
3518.6069,0.154474
3519.5388,0.151729
3520.4706,0.149612
3521.4024,0.150956
3522.3343,0.152449
3523.2661,0.149500
3524.1979,0.145733
3525.1298,0.145576
3526.0616,0.144597
3526.9934,0.142835
3527.9253,0.144102
3528.8571,0.145340
3529.7889,0.141992
3530.7208,0.139284
3531.6526,0.138805
3532.5844,0.139136
3533.5163,0.137766
3534.4481,0.137127
3535.3799,0.137360
3536.3118,0.135840
3537.2436,0.133718
3538.1754,0.134212
3539.1073,0.133170
3540.0391,0.132321
3540.9709,0.130896
3541.9028,0.128136
3542.8346,0.126398
3543.7664,0.126078
3544.6983,0.126612
3545.6301,0.126042
3546.5620,0.125315
3547.4938,0.124832
3548.4256,0.122712
3549.3575,0.120870
3550.2893,0.118969
3551.2211,0.118355
3552.1530,0.118166
3553.0848,0.117667
3554.0166,0.117539
3554.9485,0.116634
3555.8803,0.114646
3556.8121,0.111318
3557.7440,0.110491
3558.6758,0.111820
3559.6076,0.111176
3560.5395,0.110301
3561.4713,0.107778
3562.4031,0.105269
3563.3350,0.105512
3564.2668,0.106832
3565.1986,0.105676
3566.1305,0.104982
3567.0623,0.105673
3567.9941,0.106436
3568.9260,0.105600
3569.8578,0.103087
3570.7896,0.102219
3571.7215,0.102518
3572.6533,0.100509
3573.5852,0.098824
3574.5170,0.099490
3575.4488,0.098043
3576.3807,0.094155
3577.3125,0.094187
3578.2443,0.094275
3579.1762,0.093628
3580.1080,0.092261
3581.0398,0.091465
3581.9717,0.090261
3582.9035,0.087048
3583.8353,0.087674
3584.7672,0.089640
3585.6990,0.088070
3586.6308,0.085804
3587.5627,0.083215
3588.4945,0.082748
3589.4263,0.084230
3590.3582,0.083685
3591.2900,0.081702
3592.2218,0.081232
3593.1537,0.080665
3594.0855,0.080585
3595.0173,0.079431
3595.9492,0.079026
3596.8810,0.079156
3597.8128,0.078113
3598.7447,0.077556
3599.6765,0.075967
3600.6084,0.074431
3601.5402,0.074276
3602.4720,0.074015
3603.4039,0.072827
3604.3357,0.072306
3605.2675,0.070644
3606.1994,0.069546
3607.1312,0.069534
3608.0630,0.068750
3608.9949,0.067723
3609.9267,0.066851
3610.8585,0.068265
3611.7904,0.068465
3612.7222,0.067305
3613.6540,0.065365
3614.5859,0.064581
3615.5177,0.064043
3616.4495,0.063463
3617.3814,0.063476
3618.3132,0.061365
3619.2450,0.060450
3620.1769,0.060651
3621.1087,0.059697
3622.0405,0.060615
3622.9724,0.062553
3623.9042,0.060540
3624.8360,0.057408
3625.7679,0.056014
3626.6997,0.055962
3627.6316,0.055656
3628.5634,0.053466
3629.4952,0.052852
3630.4271,0.054164
3631.3589,0.053853
3632.2907,0.051840
3633.2226,0.052568
3634.1544,0.053154
3635.0862,0.051918
3636.0181,0.049279
3636.9499,0.049130
3637.8817,0.049084
3638.8136,0.047062
3639.7454,0.045677
3640.6772,0.046055
3641.6091,0.046526
3642.5409,0.046188
3643.4727,0.044887
3644.4046,0.043764
3645.3364,0.043036
3646.2682,0.042618
3647.2001,0.042178
3648.1319,0.042124
3649.0637,0.040628
3649.9956,0.038421
3650.9274,0.036972
3651.8592,0.037027
3652.7911,0.036042
3653.7229,0.035047
3654.6547,0.036047
3655.5866,0.035428
3656.5184,0.033524
3657.4503,0.032303
3658.3821,0.032648
3659.3139,0.033300
3660.2458,0.031604
3661.1776,0.030967
3662.1094,0.029920
3663.0413,0.029491
3663.9731,0.030117
3664.9049,0.029160
3665.8368,0.027482
3666.7686,0.027599
3667.7004,0.027115
3668.6323,0.025650
3669.5641,0.024383
3670.4959,0.023188
3671.4278,0.023309
3672.3596,0.022919
3673.2914,0.020901
3674.2233,0.019935
3675.1551,0.019815
3676.0869,0.019549
3677.0188,0.018817
3677.9506,0.017584
3678.8824,0.017331
3679.8143,0.018077
3680.7461,0.016601
3681.6779,0.015683
3682.6098,0.015049
3683.5416,0.014529
3684.4735,0.014470
3685.4053,0.014740
3686.3371,0.014042
3687.2690,0.012762
3688.2008,0.012690
3689.1326,0.012062
3690.0645,0.010381
3690.9963,0.010021
3691.9281,0.011399
3692.8600,0.013349
3693.7918,0.011478
3694.7236,0.009894
3695.6555,0.010766
3696.5873,0.011168
3697.5191,0.008955
3698.4510,0.008633
3699.3828,0.008945
3700.3146,0.007861
3701.2465,0.007888
3702.1783,0.008322
3703.1101,0.007437
3704.0420,0.006196
3704.9738,0.006395
3705.9056,0.007524
3706.8375,0.007013
3707.7693,0.005392
3708.7011,0.005611
3709.6330,0.006914
3710.5648,0.007427
3711.4967,0.005719
3712.4285,0.004474
3713.3603,0.005361
3714.2922,0.005507
3715.2240,0.003903
3716.1558,0.002737
3717.0877,0.003642
3718.0195,0.004664
3718.9513,0.003886
3719.8832,0.002990
3720.8150,0.003445
3721.7468,0.004673
3722.6787,0.005225
3723.6105,0.004272
3724.5423,0.003046
3725.4742,0.002557
3726.4060,0.003013
3727.3378,0.004521
3728.2697,0.004487
3729.2015,0.004179
3730.1333,0.003708
3731.0652,0.003414
3731.9970,0.003237
3732.9288,0.002663
3733.8607,0.001883
3734.7925,0.002005
3735.7243,0.001515
3736.6562,0.000353
3737.5880,-0.000292
3738.5199,-0.000855
3739.4517,0.000865
3740.3835,0.001791
3741.3154,0.001329
3742.2472,0.001303
3743.1790,0.001316
3744.1109,0.000702
3745.0427,0.001143
3745.9745,0.002088
3746.9064,0.001257
3747.8382,0.001767
3748.7700,0.003789
3749.7019,0.002776
3750.6337,-0.000066
3751.5655,-0.000496
3752.4974,0.001787
3753.4292,0.000728
3754.3610,-0.001213
3755.2929,0.000976
3756.2247,0.003134
3757.1565,0.001775
3758.0884,0.001022
3759.0202,0.001645
3759.9520,0.002600
3760.8839,0.002983
3761.8157,0.002559
3762.7475,0.002048
3763.6794,0.001770
3764.6112,0.001383
3765.5431,0.001491
3766.4749,0.002370
3767.4067,0.001941
3768.3386,0.001814
3769.2704,0.002015
3770.2022,0.002140
3771.1341,0.002752
3772.0659,0.002567
3772.9977,0.001676
3773.9296,0.001577
3774.8614,0.001710
3775.7932,0.001536
3776.7251,0.000963
3777.6569,0.000716
3778.5887,0.000663
3779.5206,0.000725
3780.4524,0.001975
3781.3842,0.002379
3782.3161,0.001396
3783.2479,0.003064
3784.1797,0.003251
3785.1116,0.000947
3786.0434,0.000449
3786.9752,0.000780
3787.9071,0.000473
3788.8389,0.000805
3789.7707,0.001446
3790.7026,0.001754
3791.6344,0.001816
3792.5662,0.001421
3793.4981,0.001912
3794.4299,0.002230
3795.3618,0.000901
3796.2936,-0.000046
3797.2254,0.000209
3798.1573,0.000800
3799.0891,0.001501
3800.0209,0.002397
3800.9528,0.002741
3801.8846,0.002724
3802.8164,0.001450
3803.7483,-0.000844
3804.6801,0.000322
3805.6119,0.001287
3806.5438,0.001525
3807.4756,0.002061
3808.4074,0.001289
3809.3393,0.000187
3810.2711,0.000660
3811.2029,0.001888
3812.1348,0.000999
3813.0666,0.000160
3813.9984,0.000888
3814.9303,0.000897
3815.8621,0.000274
3816.7939,-0.000594
3817.7258,0.000544
3818.6576,0.002272
3819.5894,0.002621
3820.5213,0.000732
3821.4531,-0.001151
3822.3850,-0.000898
3823.3168,-0.000302
3824.2486,0.000657
3825.1805,0.001264
3826.1123,0.001353
3827.0441,0.001234
3827.9760,0.000798
3828.9078,0.000840
3829.8396,0.001071
3830.7715,0.001630
3831.7033,0.001263
3832.6351,0.000902
3833.5670,0.000446
3834.4988,-0.000651
3835.4306,0.000654
3836.3625,0.002377
3837.2943,0.001788
3838.2261,0.000102
3839.1580,-0.000601
3840.0898,-0.000761
3841.0216,-0.000712
3841.9535,0.001339
3842.8853,0.001575
3843.8171,-0.000243
3844.7490,0.000669
3845.6808,0.001437
3846.6126,0.000576
3847.5445,0.001295
3848.4763,0.002411
3849.4082,0.001154
3850.3400,0.000447
3851.2718,0.000684
3852.2037,0.000908
3853.1355,0.000949
3854.0673,0.000310
3854.9992,0.000317
3855.9310,0.002030
3856.8628,0.000740
3857.7947,-0.000973
3858.7265,0.000249
3859.6583,0.001119
3860.5902,0.001228
3861.5220,0.001208
3862.4538,0.001376
3863.3857,0.000260
3864.3175,-0.000028
3865.2493,0.000079
3866.1812,0.000682
3867.1130,0.001297
3868.0448,0.000095
3868.9767,-0.000444
3869.9085,-0.000025
3870.8403,0.000728
3871.7722,0.000685
3872.7040,0.000368
3873.6358,0.000423
3874.5677,0.000456
3875.4995,0.000954
3876.4314,0.000562
3877.3632,-0.000134
3878.2950,-0.000475
3879.2269,0.000514
3880.1587,0.001725
3881.0905,0.001308
3882.0224,0.000191
3882.9542,-0.000356
3883.8860,0.001403
3884.8179,0.003214
3885.7497,0.001873
3886.6815,0.001207
3887.6134,0.000602
3888.5452,-0.000558
3889.4770,0.000398
3890.4089,0.001817
3891.3407,0.001861
3892.2725,0.000954
3893.2044,0.000679
3894.1362,0.001100
3895.0680,0.001244
3895.9999,0.001244
3896.9317,0.000304
3897.8635,0.001131
3898.7954,0.002074
3899.7272,0.001821
3900.6590,0.000860
3901.5909,-0.000268
3902.5227,0.000089
3903.4546,0.001378
3904.3864,0.002127
3905.3182,0.001923
3906.2501,0.001098
3907.1819,0.000726
3908.1137,0.000550
3909.0456,0.001123
3909.9774,0.001388
3910.9092,0.002157
3911.8411,0.002113
3912.7729,0.000684
3913.7047,0.000133
3914.6366,0.000300
3915.5684,0.001206
3916.5002,0.002023
3917.4321,0.001378
3918.3639,0.000196
3919.2957,0.000331
3920.2276,0.000438
3921.1594,0.000011
3922.0912,0.000496
3923.0231,0.000989
3923.9549,0.001237
3924.8867,0.001598
3925.8186,0.002022
3926.7504,0.001748
3927.6822,0.001332
3928.6141,0.001458
3929.5459,0.001350
3930.4777,0.000403
3931.4096,0.000687
3932.3414,0.001485
3933.2733,0.001084
3934.2051,0.000491
3935.1369,0.001475
3936.0688,0.002098
3937.0006,0.002247
3937.9324,0.002071
3938.8643,0.002063
3939.7961,0.001979
3940.7279,0.001336
3941.6598,0.000725
3942.5916,0.000237
3943.5234,-0.000570
3944.4553,0.000066
3945.3871,0.000580
3946.3189,-0.000299
3947.2508,0.000207
3948.1826,0.001567
3949.1144,0.000962
3950.0463,-0.000253
3950.9781,0.000133
3951.9099,0.000424
3952.8418,0.001375
3953.7736,0.002258
3954.7054,0.001361
3955.6373,0.000335
3956.5691,0.000855
3957.5009,0.001255
3958.4328,0.001113
3959.3646,0.001663
3960.2965,0.001189
3961.2283,0.000795
3962.1601,0.001350
3963.0920,0.001458
3964.0238,0.000728
3964.9556,0.000686
3965.8875,0.002187
3966.8193,0.003163
3967.7511,0.002610
3968.6830,0.002084
3969.6148,0.001721
3970.5466,0.000934
3971.4785,0.000302
3972.4103,0.000156
3973.3421,0.000340
3974.2740,0.000850
3975.2058,0.001259
3976.1376,0.000874
3977.0695,0.000875
3978.0013,0.001373
3978.9331,0.001510
3979.8650,0.001543
3980.7968,0.001673
3981.7286,0.001783
3982.6605,0.000921
3983.5923,0.000868
3984.5241,0.001730
3985.4560,0.001865
3986.3878,0.002395
3987.3197,0.002027
3988.2515,0.001114
3989.1833,0.000919
3990.1152,0.001232
3991.0470,0.001467
3991.9788,0.001658
3992.9107,0.001473
3993.8425,0.001060
3994.7743,0.001292
3995.7062,0.001668
3996.6380,0.002145
3997.5698,0.001591
3998.5017,0.000502
3999.4335,-0.000037
4000.3653,-0.000110
