Wavenumber,Intensity
650.4205,0.393166
651.3523,0.389609
652.2841,0.383195
653.2160,0.384737
654.1478,0.398165
655.0796,0.404023
656.0115,0.390325
656.9433,0.375343
657.8751,0.369918
658.8070,0.373307
659.7388,0.370734
660.6706,0.366956
661.6025,0.367049
662.5343,0.374997
663.4661,0.378418
664.3980,0.374686
665.3298,0.369814
666.2616,0.364826
667.1935,0.353174
668.1253,0.341079
669.0571,0.343143
669.9890,0.352515
670.9208,0.352218
671.8526,0.357776
672.7845,0.364238
673.7163,0.361455
674.6481,0.353719
675.5800,0.354478
676.5118,0.356124
677.4437,0.352674
678.3755,0.356200
679.3073,0.359626
680.2392,0.350319
681.1710,0.350249
682.1028,0.353596
683.0347,0.354489
683.9665,0.356492
684.8983,0.356845
685.8302,0.347652
686.7620,0.339942
687.6938,0.340402
688.6257,0.341559
689.5575,0.339774
690.4893,0.334878
691.4212,0.333208
692.3530,0.337405
693.2848,0.335792
694.2167,0.335511
695.1485,0.332327
696.0803,0.329609
697.0122,0.334051
697.9440,0.331812
698.8758,0.321313
699.8077,0.319724
700.7395,0.322702
701.6713,0.324511
702.6032,0.326796
703.5350,0.325846
704.4669,0.321818
705.3987,0.321233
706.3305,0.316062
707.2624,0.312588
708.1942,0.313468
709.1260,0.311934
710.0579,0.311202
710.9897,0.313901
711.9215,0.312722
712.8534,0.311602
713.7852,0.307678
714.7170,0.304500
715.6489,0.303025
716.5807,0.301363
717.5125,0.300799
718.4444,0.300088
719.3762,0.297092
720.3080,0.297203
721.2399,0.298049
722.1717,0.297566
723.1035,0.293209
724.0354,0.291787
724.9672,0.292072
725.8990,0.288885
726.8309,0.286632
727.7627,0.286220
728.6945,0.284813
729.6264,0.283560
730.5582,0.282247
731.4901,0.281144
732.4219,0.280005
733.3537,0.281304
734.2856,0.279230
735.2174,0.275841
736.1492,0.274845
737.0811,0.274588
738.0129,0.271475
738.9447,0.270497
739.8766,0.270605
740.8084,0.268950
741.7402,0.268086
742.6721,0.267407
743.6039,0.265558
744.5357,0.265550
745.4676,0.263243
746.3994,0.259327
747.3312,0.257326
748.2631,0.257392
749.1949,0.257774
750.1267,0.256786
751.0586,0.253692
751.9904,0.252422
752.9222,0.250683
753.8541,0.248871
754.7859,0.248233
755.7177,0.248253
756.6496,0.246888
757.5814,0.245813
758.5132,0.244983
759.4451,0.242466
760.3769,0.239903
761.3088,0.240340
762.2406,0.240157
763.1724,0.239600
764.1043,0.238142
765.0361,0.234758
765.9679,0.232623
766.8998,0.233808
767.8316,0.233694
768.7634,0.230531
769.6953,0.227556
770.6271,0.226736
771.5589,0.226525
772.4908,0.226367
773.4226,0.224809
774.3544,0.221727
775.2863,0.220133
776.2181,0.220717
777.1499,0.220140
778.0818,0.217799
779.0136,0.215639
779.9454,0.215407
780.8773,0.215621
781.8091,0.214721
782.7409,0.212260
783.6728,0.210226
784.6046,0.209209
785.5364,0.208724
786.4683,0.207618
787.4001,0.206383
788.3320,0.204700
789.2638,0.203339
790.1956,0.202559
791.1275,0.201239
792.0593,0.199272
792.9911,0.199199
793.9230,0.198001
794.8548,0.196427
795.7866,0.195011
796.7185,0.193648
797.6503,0.192485
798.5821,0.191161
799.5140,0.190453
800.4458,0.189844
801.3776,0.188020
802.3095,0.187211
803.2413,0.186467
804.1731,0.184706
805.1050,0.183580
806.0368,0.182113
806.9686,0.180478
807.9005,0.180614
808.8323,0.179374
809.7641,0.177477
810.6960,0.176465
811.6278,0.175817
812.5596,0.173555
813.4915,0.170582
814.4233,0.169595
815.3552,0.168997
816.2870,0.168506
817.2188,0.167170
818.1507,0.164766
819.0825,0.162705
820.0143,0.162016
820.9462,0.161481
821.8780,0.160058
822.8098,0.158025
823.7417,0.157563
824.6735,0.158022
825.6053,0.156069
826.5372,0.153777
827.4690,0.152670
828.4008,0.152077
829.3327,0.151283
830.2645,0.150701
831.1963,0.150309
832.1282,0.148731
833.0600,0.147317
833.9918,0.146203
834.9237,0.144737
835.8555,0.143017
836.7873,0.141652
837.7192,0.141692
838.6510,0.141608
839.5828,0.140439
840.5147,0.139274
841.4465,0.138422
842.3784,0.137442
843.3102,0.136917
844.2420,0.136406
845.1739,0.135552
846.1057,0.133879
847.0375,0.132695
847.9694,0.132096
848.9012,0.131527
849.8330,0.130565
850.7649,0.130176
851.6967,0.129449
852.6285,0.128321
853.5604,0.127238
854.4922,0.125723
855.4240,0.124733
856.3559,0.124957
857.2877,0.125481
858.2195,0.124977
859.1514,0.124080
860.0832,0.123395
861.0150,0.122935
861.9469,0.122755
862.8787,0.122334
863.8105,0.122530
864.7424,0.122921
865.6742,0.123711
866.6060,0.124188
867.5379,0.125330
868.4697,0.127345
869.4016,0.128765
870.3334,0.129968
871.2652,0.131804
872.1971,0.135562
873.1289,0.139899
874.0607,0.143572
874.9926,0.147774
875.9244,0.152205
876.8562,0.154358
877.7881,0.154769
878.7199,0.153790
879.6517,0.150963
880.5836,0.146750
881.5154,0.141457
882.4472,0.134950
883.3791,0.128003
884.3109,0.121864
885.2427,0.116860
886.1746,0.112120
887.1064,0.107736
888.0382,0.103965
888.9701,0.100895
889.9019,0.098879
890.8337,0.096740
891.7656,0.094283
892.6974,0.092360
893.6292,0.091188
894.5611,0.090260
895.4929,0.089189
896.4247,0.088019
897.3566,0.087034
898.2884,0.085859
899.2203,0.085100
900.1521,0.084341
901.0839,0.083014
902.0158,0.082027
902.9476,0.081650
903.8794,0.081360
904.8113,0.080574
905.7431,0.079763
906.6749,0.079256
907.6068,0.078416
908.5386,0.077768
909.4704,0.077280
910.4023,0.076476
911.3341,0.075421
912.2659,0.074976
913.1978,0.075248
914.1296,0.074758
915.0614,0.073772
915.9933,0.073272
916.9251,0.073006
917.8569,0.072547
918.7888,0.072205
919.7206,0.072133
920.6524,0.071593
921.5843,0.070749
922.5161,0.070562
923.4479,0.070107
924.3798,0.069213
925.3116,0.068415
926.2435,0.067823
927.1753,0.067658
928.1071,0.067955
929.0390,0.067746
929.9708,0.066724
930.9026,0.065953
931.8345,0.065723
932.7663,0.065334
933.6981,0.065092
934.6300,0.065206
935.5618,0.064928
936.4936,0.064173
937.4255,0.063678
938.3573,0.063721
939.2891,0.063707
940.2210,0.063476
941.1528,0.063319
942.0846,0.062944
943.0165,0.062076
943.9483,0.061522
944.8801,0.061327
945.8120,0.061057
946.7438,0.061091
947.6756,0.060921
948.6075,0.060351
949.5393,0.060161
950.4711,0.060216
951.4030,0.059891
952.3348,0.059108
953.2667,0.058846
954.1985,0.058858
955.1303,0.058727
956.0622,0.058701
956.9940,0.058786
957.9258,0.058782
958.8577,0.058456
959.7895,0.058300
960.7213,0.058262
961.6532,0.057949
962.5850,0.057446
963.5168,0.057294
964.4487,0.056839
965.3805,0.056414
966.3123,0.056580
967.2442,0.056408
968.1760,0.056076
969.1078,0.055908
970.0397,0.056072
970.9715,0.056315
971.9033,0.056179
972.8352,0.055939
973.7670,0.055683
974.6988,0.055749
975.6307,0.055540
976.5625,0.055067
977.4943,0.055010
978.4262,0.054768
979.3580,0.054784
980.2899,0.055030
981.2217,0.054932
982.1535,0.054774
983.0854,0.054860
984.0172,0.054846
984.9490,0.054804
985.8809,0.054691
986.8127,0.054719
987.7445,0.054886
988.6764,0.054696
989.6082,0.054662
990.5400,0.054686
991.4719,0.054699
992.4037,0.054853
993.3355,0.055013
994.2674,0.055143
995.1992,0.055217
996.1310,0.055212
997.0629,0.055162
997.9947,0.055145
998.9265,0.055377
999.8584,0.055582
1000.7902,0.055593
1001.7220,0.055787
1002.6539,0.055939
1003.5857,0.056300
1004.5175,0.056477
1005.4494,0.056535
1006.3812,0.056897
1007.3131,0.057221
1008.2449,0.057522
1009.1767,0.057940
1010.1086,0.058354
1011.0404,0.058680
1011.9722,0.059153
1012.9041,0.059637
1013.8359,0.060270
1014.7677,0.061316
1015.6996,0.062115
1016.6314,0.062468
1017.5632,0.063263
1018.4951,0.064421
1019.4269,0.065413
1020.3587,0.066535
1021.2906,0.067948
1022.2224,0.069600
1023.1542,0.071440
1024.0861,0.073345
1025.0179,0.075141
1025.9497,0.077361
1026.8816,0.079946
1027.8134,0.082738
1028.7452,0.085923
1029.6771,0.089756
1030.6089,0.093967
1031.5407,0.098519
1032.4726,0.103871
1033.4044,0.110599
1034.3362,0.118277
1035.2681,0.126861
1036.1999,0.136581
1037.1318,0.147318
1038.0636,0.159465
1038.9954,0.172372
1039.9273,0.185078
1040.8591,0.197396
1041.7909,0.208699
1042.7228,0.217259
1043.6546,0.222187
1044.5864,0.223479
1045.5183,0.220577
1046.4501,0.213474
1047.3819,0.203061
1048.3138,0.190705
1049.2456,0.177416
1050.1774,0.163190
1051.1093,0.148988
1052.0411,0.135954
1052.9729,0.124060
1053.9048,0.113379
1054.8366,0.103831
1055.7684,0.095515
1056.7003,0.088834
1057.6321,0.083384
1058.5639,0.078733
1059.4958,0.075072
1060.4276,0.072266
1061.3594,0.070174
1062.2913,0.068476
1063.2231,0.067240
1064.1550,0.066628
1065.0868,0.066231
1066.0186,0.066105
1066.9505,0.066344
1067.8823,0.066823
1068.8141,0.067438
1069.7460,0.067842
1070.6778,0.068605
1071.6096,0.070281
1072.5415,0.071939
1073.4733,0.073366
1074.4051,0.075102
1075.3370,0.077019
1076.2688,0.079323
1077.2006,0.081980
1078.1325,0.084478
1079.0643,0.087125
1079.9961,0.089857
1080.9280,0.092017
1081.8598,0.094100
1082.7916,0.096205
1083.7235,0.097727
1084.6553,0.098442
1085.5871,0.098900
1086.5190,0.098373
1087.4508,0.096777
1088.3826,0.095190
1089.3145,0.092957
1090.2463,0.089738
1091.1782,0.086113
1092.1100,0.082378
1093.0418,0.078512
1093.9737,0.074856
1094.9055,0.071609
1095.8373,0.068309
1096.7692,0.065230
1097.7010,0.062634
1098.6328,0.060215
1099.5647,0.058212
1100.4965,0.056387
1101.4283,0.054592
1102.3602,0.053240
1103.2920,0.052186
1104.2238,0.051155
1105.1557,0.050211
1106.0875,0.049289
1107.0193,0.048621
1107.9512,0.048244
1108.8830,0.047814
1109.8148,0.047362
1110.7467,0.047090
1111.6785,0.046869
1112.6103,0.046379
1113.5422,0.045937
1114.4740,0.045860
1115.4058,0.045894
1116.3377,0.045768
1117.2695,0.045656
1118.2014,0.045688
1119.1332,0.045601
1120.0650,0.045492
1120.9969,0.045370
1121.9287,0.045410
1122.8605,0.045554
1123.7924,0.045399
1124.7242,0.045160
1125.6560,0.045170
1126.5879,0.045317
1127.5197,0.045299
1128.4515,0.045025
1129.3834,0.044732
1130.3152,0.044811
1131.2470,0.044797
1132.1789,0.044746
1133.1107,0.044763
1134.0425,0.044536
1134.9744,0.044309
1135.9062,0.044304
1136.8380,0.044056
1137.7699,0.043950
1138.7017,0.043971
1139.6335,0.043576
1140.5654,0.043428
1141.4972,0.043390
1142.4290,0.043142
1143.3609,0.042913
1144.2927,0.042851
1145.2246,0.043110
1146.1564,0.043265
1147.0882,0.042985
1148.0201,0.042868
1148.9519,0.043155
1149.8837,0.043143
1150.8156,0.043096
1151.7474,0.043319
1152.6792,0.043363
1153.6111,0.043293
1154.5429,0.043242
1155.4747,0.042960
1156.4066,0.042781
1157.3384,0.042968
1158.2702,0.042899
1159.2021,0.042598
1160.1339,0.042433
1161.0657,0.042377
1161.9976,0.042192
1162.9294,0.041975
1163.8612,0.042032
1164.7931,0.041708
1165.7249,0.041468
1166.6567,0.041510
1167.5886,0.041493
1168.5204,0.041462
1169.4522,0.041262
1170.3841,0.040969
1171.3159,0.041019
1172.2477,0.041071
1173.1796,0.040981
1174.1114,0.040731
1175.0433,0.040772
1175.9751,0.040905
1176.9069,0.040930
1177.8388,0.040940
1178.7706,0.040891
1179.7024,0.040769
1180.6343,0.040735
1181.5661,0.040762
1182.4979,0.040826
1183.4298,0.040796
1184.3616,0.040853
1185.2934,0.040876
1186.2253,0.040672
1187.1571,0.040633
1188.0889,0.040648
1189.0208,0.040808
1189.9526,0.041033
1190.8844,0.041071
1191.8163,0.040851
1192.7481,0.040766
1193.6799,0.040961
1194.6118,0.040923
1195.5436,0.040601
1196.4754,0.040493
1197.4073,0.040774
1198.3391,0.040995
1199.2709,0.040838
1200.2028,0.040958
1201.1346,0.041188
1202.0665,0.041038
1202.9983,0.040953
1203.9301,0.041187
1204.8620,0.041325
1205.7938,0.041299
1206.7256,0.041324
1207.6575,0.041389
1208.5893,0.041307
1209.5211,0.041409
1210.4530,0.041483
1211.3848,0.041491
1212.3166,0.041413
1213.2485,0.041255
1214.1803,0.041353
1215.1121,0.041441
1216.0440,0.041468
1216.9758,0.041603
1217.9076,0.041745
1218.8395,0.041617
1219.7713,0.041613
1220.7031,0.041825
1221.6350,0.041887
1222.5668,0.041812
1223.4986,0.041886
1224.4305,0.042033
1225.3623,0.042165
1226.2941,0.042215
1227.2260,0.042180
1228.1578,0.042253
1229.0897,0.042356
1230.0215,0.042374
1230.9533,0.042425
1231.8852,0.042528
1232.8170,0.042736
1233.7488,0.042728
1234.6807,0.042646
1235.6125,0.042508
1236.5443,0.042242
1237.4762,0.042593
1238.4080,0.043022
1239.3398,0.043018
1240.2717,0.043000
1241.2035,0.043076
1242.1353,0.043222
1243.0672,0.043307
1243.9990,0.043287
1244.9308,0.043440
1245.8627,0.043754
1246.7945,0.043777
1247.7263,0.043664
1248.6582,0.043888
1249.5900,0.044296
1250.5218,0.044628
1251.4537,0.044689
1252.3855,0.044822
1253.3173,0.045208
1254.2492,0.045535
1255.1810,0.045654
1256.1129,0.045779
1257.0447,0.045959
1257.9765,0.046110
1258.9084,0.046550
1259.8402,0.047013
1260.7720,0.047444
1261.7039,0.047906
1262.6357,0.048052
1263.5675,0.048335
1264.4994,0.048764
1265.4312,0.049269
1266.3630,0.049849
1267.2949,0.050400
1268.2267,0.050797
1269.1585,0.051277
1270.0904,0.051730
1271.0222,0.052112
1271.9540,0.052542
1272.8859,0.052816
1273.8177,0.053050
1274.7495,0.053218
1275.6814,0.053131
1276.6132,0.052907
1277.5450,0.052571
1278.4769,0.052196
1279.4087,0.051617
1280.3405,0.051296
1281.2724,0.051240
1282.2042,0.050850
1283.1361,0.050409
1284.0679,0.050235
1284.9997,0.049871
1285.9316,0.049604
1286.8634,0.049529
1287.7952,0.049479
1288.7271,0.049600
1289.6589,0.049768
1290.5907,0.049872
1291.5226,0.049631
1292.4544,0.049189
1293.3862,0.049287
1294.3181,0.049594
1295.2499,0.049906
1296.1817,0.050134
1297.1136,0.050184
1298.0454,0.050186
1298.9772,0.050263
1299.9091,0.050427
1300.8409,0.050815
1301.7727,0.051223
1302.7046,0.051144
1303.6364,0.051185
1304.5682,0.051575
1305.5001,0.051864
1306.4319,0.052156
1307.3637,0.052407
1308.2956,0.052531
1309.2274,0.052734
1310.1592,0.052823
1311.0911,0.052824
1312.0229,0.053083
1312.9548,0.053536
1313.8866,0.053850
1314.8184,0.054040
1315.7503,0.054201
1316.6821,0.054294
1317.6139,0.054340
1318.5458,0.054352
1319.4776,0.054877
1320.4094,0.055110
1321.3413,0.055011
1322.2731,0.055084
1323.2049,0.054916
1324.1368,0.054929
1325.0686,0.054970
1326.0004,0.054847
1326.9323,0.054765
1327.8641,0.054988
1328.7959,0.055161
1329.7278,0.054920
1330.6596,0.054772
1331.5914,0.054744
1332.5233,0.054436
1333.4551,0.054089
1334.3869,0.053844
1335.3188,0.053419
1336.2506,0.052846
1337.1824,0.052634
1338.1143,0.052436
1339.0461,0.052407
1339.9780,0.052703
1340.9098,0.052924
1341.8416,0.052504
1342.7735,0.051706
1343.7053,0.051335
1344.6371,0.051159
1345.5690,0.050675
1346.5008,0.050083
1347.4326,0.049896
1348.3645,0.049840
1349.2963,0.049948
1350.2281,0.050130
1351.1600,0.049932
1352.0918,0.049596
1353.0236,0.049509
1353.9555,0.049292
1354.8873,0.049152
1355.8191,0.049220
1356.7510,0.049254
1357.6828,0.049146
1358.6146,0.048880
1359.5465,0.048575
1360.4783,0.048504
1361.4101,0.049171
1362.3420,0.049820
1363.2738,0.050185
1364.2056,0.050286
1365.1375,0.049787
1366.0693,0.050130
1367.0012,0.050615
1367.9330,0.051187
1368.8648,0.051771
1369.7967,0.052104
1370.7285,0.052453
1371.6603,0.053035
1372.5922,0.053904
1373.5240,0.055326
1374.4558,0.057176
1375.3877,0.058684
1376.3195,0.059616
1377.2513,0.060050
1378.1832,0.060569
1379.1150,0.061364
1380.0468,0.061931
1380.9787,0.062265
1381.9105,0.062242
1382.8423,0.062192
1383.7742,0.062260
1384.7060,0.062547
1385.6378,0.062824
1386.5697,0.063189
1387.5015,0.063528
1388.4333,0.063631
1389.3652,0.062701
1390.2970,0.061867
1391.2288,0.061449
1392.1607,0.060869
1393.0925,0.060386
1394.0244,0.060210
1394.9562,0.060526
1395.8880,0.060730
1396.8199,0.060388
1397.7517,0.060516
1398.6835,0.060965
1399.6154,0.061564
1400.5472,0.061336
1401.4790,0.060368
1402.4109,0.060070
1403.3427,0.060176
1404.2745,0.060445
1405.2064,0.061379
1406.1382,0.062302
1407.0700,0.061997
1408.0019,0.061640
1408.9337,0.061649
1409.8655,0.061799
1410.7974,0.062068
1411.7292,0.062363
1412.6610,0.062403
1413.5929,0.062173
1414.5247,0.062012
1415.4565,0.061623
1416.3884,0.061090
1417.3202,0.061115
1418.2520,0.062042
1419.1839,0.063000
1420.1157,0.064021
1421.0476,0.063084
1421.9794,0.061534
1422.9112,0.060935
1423.8431,0.060974
1424.7749,0.061567
1425.7067,0.060708
1426.6386,0.059617
1427.5704,0.059470
1428.5022,0.059186
1429.4341,0.058479
1430.3659,0.058244
1431.2977,0.058038
1432.2296,0.057352
1433.1614,0.056741
1434.0932,0.056001
1435.0251,0.055400
1435.9569,0.055094
1436.8887,0.055830
1437.8206,0.056831
1438.7524,0.055725
1439.6842,0.054889
1440.6161,0.054797
1441.5479,0.054738
1442.4797,0.054656
1443.4116,0.054683
1444.3434,0.054938
1445.2752,0.055468
1446.2071,0.056189
1447.1389,0.057192
1448.0707,0.058509
1449.0026,0.059595
1449.9344,0.059669
1450.8663,0.059516
1451.7981,0.059566
1452.7299,0.059816
1453.6618,0.059507
1454.5936,0.058780
1455.5254,0.058833
1456.4573,0.059219
1457.3891,0.059499
1458.3209,0.059096
1459.2528,0.058041
1460.1846,0.055845
1461.1164,0.053018
1462.0483,0.051412
1462.9801,0.050893
1463.9119,0.050258
1464.8438,0.049718
1465.7756,0.049743
1466.7074,0.048345
1467.6393,0.047165
1468.5711,0.046933
1469.5029,0.046241
1470.4348,0.045330
1471.3666,0.045277
1472.2984,0.046360
1473.2303,0.047480
1474.1621,0.047240
1475.0939,0.046018
1476.0258,0.045347
1476.9576,0.046032
1477.8895,0.046253
1478.8213,0.045999
1479.7531,0.045979
1480.6850,0.046108
1481.6168,0.046597
1482.5486,0.046861
1483.4805,0.046570
1484.4123,0.046145
1485.3441,0.045831
1486.2760,0.045769
1487.2078,0.045668
1488.1396,0.045661
1489.0715,0.045372
1490.0033,0.045387
1490.9351,0.045643
1491.8670,0.044989
1492.7988,0.043809
1493.7306,0.042976
1494.6625,0.042360
1495.5943,0.042276
1496.5261,0.042975
1497.4580,0.043176
1498.3898,0.042303
1499.3216,0.042538
1500.2535,0.042524
1501.1853,0.041657
1502.1171,0.041314
1503.0490,0.041366
1503.9808,0.041239
1504.9127,0.040940
1505.8445,0.041595
1506.7763,0.043624
1507.7082,0.044926
1508.6400,0.044093
1509.5718,0.042760
1510.5037,0.042381
1511.4355,0.042192
1512.3673,0.041877
1513.2992,0.042008
1514.2310,0.041568
1515.1628,0.041716
1516.0947,0.042613
1517.0265,0.042839
1517.9583,0.042984
1518.8902,0.042033
1519.8220,0.041164
1520.7538,0.042110
1521.6857,0.043561
1522.6175,0.043343
1523.5493,0.042512
1524.4812,0.042204
1525.4130,0.042764
1526.3448,0.043586
1527.2767,0.043321
1528.2085,0.043449
1529.1403,0.043565
1530.0722,0.042630
1531.0040,0.041924
1531.9359,0.042600
1532.8677,0.043235
1533.7995,0.043987
1534.7314,0.044728
1535.6632,0.043436
1536.5950,0.042507
1537.5269,0.042299
1538.4587,0.042739
1539.3905,0.044328
1540.3224,0.045728
1541.2542,0.044618
1542.1860,0.044841
1543.1179,0.046192
1544.0497,0.045685
1544.9815,0.044896
1545.9134,0.045667
1546.8452,0.045874
1547.7770,0.045093
1548.7089,0.044865
1549.6407,0.045260
1550.5725,0.046321
1551.5044,0.046611
1552.4362,0.045746
1553.3680,0.045440
1554.2999,0.045866
1555.2317,0.047298
1556.1635,0.047184
1557.0954,0.045835
1558.0272,0.047377
1558.9591,0.051280
1559.8909,0.052953
1560.8227,0.052993
1561.7546,0.051039
1562.6864,0.049259
1563.6182,0.049203
1564.5501,0.049994
1565.4819,0.050875
1566.4137,0.051006
1567.3456,0.050609
1568.2774,0.050561
1569.2092,0.051587
1570.1411,0.053572
1571.0729,0.054351
1572.0047,0.053445
1572.9366,0.053068
1573.8684,0.053046
1574.8002,0.053380
1575.7321,0.054505
1576.6639,0.056960
1577.5957,0.059325
1578.5276,0.058703
1579.4594,0.057947
1580.3912,0.058266
1581.3231,0.058845
1582.2549,0.059369
1583.1867,0.060158
1584.1186,0.061093
1585.0504,0.062051
1585.9822,0.062631
1586.9141,0.063331
1587.8459,0.064260
1588.7778,0.064758
1589.7096,0.065563
1590.6414,0.067123
1591.5733,0.068125
1592.5051,0.068738
1593.4369,0.069770
1594.3688,0.070992
1595.3006,0.072223
1596.2324,0.073238
1597.1643,0.074379
1598.0961,0.075881
1599.0279,0.077145
1599.9598,0.078034
1600.8916,0.078930
1601.8234,0.080686
1602.7553,0.082848
1603.6871,0.084723
1604.6189,0.086020
1605.5508,0.087052
1606.4826,0.088721
1607.4144,0.090807
1608.3463,0.092745
1609.2781,0.094783
1610.2099,0.097118
1611.1418,0.098995
1612.0736,0.100454
1613.0054,0.101873
1613.9373,0.102661
1614.8691,0.103419
1615.8010,0.105481
1616.7328,0.110222
1617.6646,0.116871
1618.5965,0.119526
1619.5283,0.117828
1620.4601,0.118239
1621.3920,0.120720
1622.3238,0.122733
1623.2556,0.124658
1624.1875,0.128841
1625.1193,0.133059
1626.0511,0.133418
1626.9830,0.133250
1627.9148,0.134989
1628.8466,0.137875
1629.7785,0.139728
1630.7103,0.139609
1631.6421,0.139493
1632.5740,0.139188
1633.5058,0.138979
1634.4376,0.139426
1635.3695,0.142758
1636.3013,0.150321
1637.2331,0.153981
1638.1650,0.151126
1639.0968,0.149124
1640.0286,0.147137
1640.9605,0.146489
1641.8923,0.146537
1642.8242,0.145289
1643.7560,0.144015
1644.6878,0.143286
1645.6197,0.142621
1646.5515,0.144075
1647.4833,0.146531
1648.4152,0.145476
1649.3470,0.142667
1650.2788,0.139669
1651.2107,0.136940
1652.1425,0.136186
1653.0743,0.139073
1654.0062,0.145316
1654.9380,0.144398
1655.8698,0.138617
1656.8017,0.134156
1657.7335,0.131202
1658.6653,0.128762
1659.5972,0.126795
1660.5290,0.125160
1661.4608,0.123323
1662.3927,0.121897
1663.3245,0.121246
1664.2563,0.120042
1665.1882,0.117239
1666.1200,0.114594
1667.0518,0.112500
1667.9837,0.110704
1668.9155,0.109485
1669.8474,0.109124
1670.7792,0.107600
1671.7110,0.105392
1672.6429,0.103687
1673.5747,0.100984
1674.5065,0.099236
1675.4384,0.098720
1676.3702,0.097772
1677.3020,0.094350
1678.2339,0.091483
1679.1657,0.089731
1680.0975,0.088191
1681.0294,0.086808
1681.9612,0.084991
1682.8930,0.083264
1683.8249,0.082652
1684.7567,0.082832
1685.6885,0.080983
1686.6204,0.077049
1687.5522,0.074896
1688.4840,0.073820
1689.4159,0.072675
1690.3477,0.071071
1691.2795,0.069535
1692.2114,0.067617
1693.1432,0.065920
1694.0750,0.064657
1695.0069,0.063261
1695.9387,0.062500
1696.8706,0.061986
1697.8024,0.059030
1698.7342,0.056787
1699.6661,0.056042
1700.5979,0.056339
1701.5297,0.055078
1702.4616,0.051282
1703.3934,0.050212
1704.3252,0.050112
1705.2571,0.050036
1706.1889,0.049038
1707.1207,0.047356
1708.0526,0.046041
1708.9844,0.044772
1709.9162,0.043989
1710.8481,0.043662
1711.7799,0.042653
1712.7117,0.041393
1713.6436,0.040617
1714.5754,0.039957
1715.5072,0.039558
1716.4391,0.038548
1717.3709,0.036953
1718.3027,0.036866
1719.2346,0.036242
1720.1664,0.034117
1721.0982,0.033204
1722.0301,0.033595
1722.9619,0.033520
1723.8937,0.033137
1724.8256,0.032562
1725.7574,0.031619
1726.6893,0.030876
1727.6211,0.030321
1728.5529,0.030187
1729.4848,0.030012
1730.4166,0.029775
1731.3484,0.029102
1732.2803,0.028215
1733.2121,0.027689
1734.1439,0.027680
1735.0758,0.027745
1736.0076,0.025813
1736.9394,0.024210
1737.8713,0.024506
1738.8031,0.024808
1739.7349,0.024888
1740.6668,0.024708
1741.5986,0.023484
1742.5304,0.022703
1743.4623,0.023296
1744.3941,0.023660
1745.3259,0.022586
1746.2578,0.021837
1747.1896,0.021820
1748.1214,0.021736
1749.0533,0.021457
1749.9851,0.020964
1750.9169,0.020472
1751.8488,0.019941
1752.7806,0.018795
1753.7125,0.018747
1754.6443,0.019279
1755.5761,0.019216
1756.5080,0.019493
1757.4398,0.019826
1758.3716,0.019172
1759.3035,0.018815
1760.2353,0.018853
1761.1671,0.018497
1762.0990,0.018848
1763.0308,0.018877
1763.9626,0.017264
1764.8945,0.016711
1765.8263,0.017139
1766.7581,0.017262
1767.6900,0.017160
1768.6218,0.017352
1769.5536,0.017127
1770.4855,0.016161
1771.4173,0.015749
1772.3491,0.015856
1773.2810,0.015890
1774.2128,0.015709
1775.1446,0.015258
1776.0765,0.014776
1777.0083,0.014903
1777.9401,0.014940
1778.8720,0.015042
1779.8038,0.015520
1780.7357,0.015164
1781.6675,0.014679
1782.5993,0.014180
1783.5312,0.013927
1784.4630,0.014421
1785.3948,0.014900
1786.3267,0.014475
1787.2585,0.014306
1788.1903,0.014355
1789.1222,0.014181
1790.0540,0.014024
1790.9858,0.013937
1791.9177,0.014034
1792.8495,0.013847
1793.7813,0.013654
1794.7132,0.012782
1795.6450,0.012303
1796.5768,0.012735
1797.5087,0.012884
1798.4405,0.012813
1799.3723,0.012711
1800.3042,0.012570
1801.2360,0.012362
1802.1678,0.012165
1803.0997,0.012223
1804.0315,0.012021
1804.9633,0.011857
1805.8952,0.012056
1806.8270,0.012027
1807.7589,0.012226
1808.6907,0.012228
1809.6225,0.012193
1810.5544,0.012622
1811.4862,0.012761
1812.4180,0.012409
1813.3499,0.011788
1814.2817,0.011003
1815.2135,0.011116
1816.1454,0.011055
1817.0772,0.011168
1818.0090,0.011865
1818.9409,0.011748
1819.8727,0.011229
1820.8045,0.011421
1821.7364,0.011232
1822.6682,0.010890
1823.6000,0.011185
1824.5319,0.011297
1825.4637,0.011598
1826.3955,0.011774
1827.3274,0.010521
1828.2592,0.009606
1829.1910,0.009993
1830.1229,0.010921
1831.0547,0.010716
1831.9865,0.009978
1832.9184,0.009831
1833.8502,0.010094
1834.7821,0.010130
1835.7139,0.010016
1836.6457,0.010093
1837.5776,0.010219
1838.5094,0.010215
1839.4412,0.010302
1840.3731,0.010273
1841.3049,0.010128
1842.2367,0.010519
1843.1686,0.010580
1844.1004,0.010165
1845.0322,0.010551
1845.9641,0.010487
1846.8959,0.009734
1847.8277,0.009969
1848.7596,0.009180
1849.6914,0.008238
1850.6232,0.008474
1851.5551,0.009119
1852.4869,0.009880
1853.4187,0.010135
1854.3506,0.009631
1855.2824,0.009522
1856.2142,0.009363
1857.1461,0.009744
1858.0779,0.010086
1859.0097,0.009634
1859.9416,0.009362
1860.8734,0.009208
1861.8052,0.009435
1862.7371,0.008825
1863.6689,0.008432
1864.6008,0.009077
1865.5326,0.010219
1866.4644,0.010290
1867.3963,0.009428
1868.3281,0.009273
1869.2599,0.009630
1870.1918,0.008537
1871.1236,0.007061
1872.0554,0.007068
1872.9873,0.008003
1873.9191,0.008734
1874.8509,0.009208
1875.7828,0.009130
1876.7146,0.009011
1877.6464,0.008215
1878.5783,0.007736
1879.5101,0.008803
1880.4419,0.008858
1881.3738,0.008776
1882.3056,0.009582
1883.2374,0.009199
1884.1693,0.008142
1885.1011,0.008425
1886.0329,0.008922
1886.9648,0.009230
1887.8966,0.009200
1888.8284,0.009408
1889.7603,0.009918
1890.6921,0.009142
1891.6240,0.008280
1892.5558,0.007893
1893.4876,0.007624
1894.4195,0.007923
1895.3513,0.009032
1896.2831,0.008925
1897.2150,0.008607
1898.1468,0.009610
1899.0786,0.010287
1900.0105,0.009507
1900.9423,0.008425
1901.8741,0.007455
1902.8060,0.008852
1903.7378,0.009403
1904.6696,0.008861
1905.6015,0.008719
1906.5333,0.008143
1907.4651,0.008493
1908.3970,0.008931
1909.3288,0.008722
1910.2606,0.010004
1911.1925,0.010612
1912.1243,0.010267
1913.0561,0.008978
1913.9880,0.008736
1914.9198,0.009488
1915.8516,0.009711
1916.7835,0.009881
1917.7153,0.009478
1918.6472,0.008223
1919.5790,0.007872
1920.5108,0.007806
1921.4427,0.008199
1922.3745,0.009283
1923.3063,0.008353
1924.2382,0.007921
1925.1700,0.008226
1926.1018,0.009026
1927.0337,0.008614
1927.9655,0.006047
1928.8973,0.005763
1929.8292,0.007439
1930.7610,0.008738
1931.6928,0.010156
1932.6247,0.008565
1933.5565,0.006329
1934.4883,0.007599
1935.4202,0.009098
1936.3520,0.007980
1937.2838,0.007099
1938.2157,0.007666
1939.1475,0.008795
1940.0793,0.009403
1941.0112,0.008570
1941.9430,0.007229
1942.8748,0.008252
1943.8067,0.009195
1944.7385,0.007545
1945.6704,0.005636
1946.6022,0.006797
1947.5340,0.007541
1948.4659,0.006511
1949.3977,0.005845
1950.3295,0.005423
1951.2614,0.006439
1952.1932,0.008377
1953.1250,0.007516
1954.0569,0.006722
1954.9887,0.006440
1955.9205,0.005741
1956.8524,0.005550
1957.7842,0.005876
1958.7160,0.005150
1959.6479,0.006768
1960.5797,0.007251
1961.5115,0.002304
1962.4434,0.001498
1963.3752,0.004405
1964.3070,0.006308
1965.2389,0.007035
1966.1707,0.006354
1967.1025,0.002849
1968.0344,0.001629
1968.9662,0.002558
1969.8980,0.003791
1970.8299,0.004270
1971.7617,0.005283
1972.6936,0.003348
1973.6254,0.005900
1974.5572,0.005332
1975.4891,0.001803
1976.4209,0.004407
1977.3527,0.004708
1978.2846,0.001438
1979.2164,-0.000028
1980.1482,0.003508
1981.0801,0.005871
1982.0119,0.004674
1982.9437,0.004690
1983.8756,0.003816
1984.8074,0.003954
1985.7392,0.003574
1986.6711,0.005270
1987.6029,0.006044
1988.5347,0.004054
1989.4666,0.006032
1990.3984,0.007179
1991.3302,0.005812
1992.2621,0.005043
1993.1939,0.007352
1994.1257,0.007692
1995.0576,0.005873
1995.9894,0.005260
1996.9212,0.006945
1997.8531,0.008236
1998.7849,0.007088
1999.7167,0.005557
2000.6486,0.004951
2001.5804,0.006361
2002.5123,0.007663
2003.4441,0.009596
2004.3759,0.010532
2005.3078,0.008837
2006.2396,0.006802
2007.1714,0.007381
2008.1033,0.008157
2009.0351,0.004628
2009.9669,0.002785
2010.8988,0.004623
2011.8306,0.005486
2012.7624,0.004061
2013.6943,0.003466
2014.6261,0.004290
2015.5579,0.003740
2016.4898,0.001871
2017.4216,0.003834
2018.3534,0.002927
2019.2853,0.000881
2020.2171,0.004961
2021.1489,0.009751
2022.0808,0.008648
2023.0126,0.005722
2023.9444,0.006656
2024.8763,0.006504
2025.8081,0.003071
2026.7399,0.005516
2027.6718,0.008867
2028.6036,0.006353
2029.5355,0.008631
2030.4673,0.009049
2031.3991,0.006257
2032.3310,0.006166
2033.2628,0.002822
2034.1946,0.002306
2035.1265,0.003595
2036.0583,0.005180
2036.9901,0.008598
2037.9220,0.005882
2038.8538,-0.000562
2039.7856,0.002313
2040.7175,0.007091
2041.6493,0.008843
2042.5811,0.007577
2043.5130,0.005345
2044.4448,0.006250
2045.3766,0.005887
2046.3085,0.006601
2047.2403,0.008107
2048.1721,0.009295
2049.1040,0.006970
2050.0358,0.005105
2050.9676,0.006855
2051.8995,0.008279
2052.8313,0.008793
2053.7631,0.008757
2054.6950,0.011191
2055.6268,0.011437
2056.5587,0.009210
2057.4905,0.009455
2058.4223,0.011205
2059.3542,0.012758
2060.2860,0.013092
2061.2178,0.011801
2062.1497,0.009949
2063.0815,0.009273
2064.0133,0.010405
2064.9452,0.012084
2065.8770,0.012741
2066.8088,0.012266
2067.7407,0.011628
2068.6725,0.009744
2069.6043,0.008630
2070.5362,0.010331
2071.4680,0.012621
2072.3998,0.013178
2073.3317,0.013224
2074.2635,0.013128
2075.1953,0.013611
2076.1272,0.012808
2077.0590,0.011696
2077.9908,0.012988
2078.9227,0.013166
2079.8545,0.012831
2080.7863,0.013759
2081.7182,0.014925
2082.6500,0.014773
2083.5819,0.012019
2084.5137,0.011422
2085.4455,0.012282
2086.3774,0.012993
2087.3092,0.012702
2088.2410,0.012476
2089.1729,0.012296
2090.1047,0.012534
2091.0365,0.012870
2091.9684,0.012616
2092.9002,0.013090
2093.8320,0.013947
2094.7639,0.015077
2095.6957,0.015135
2096.6275,0.013119
2097.5594,0.011519
2098.4912,0.011102
2099.4230,0.011569
2100.3549,0.012993
2101.2867,0.015262
2102.2185,0.016099
2103.1504,0.014544
2104.0822,0.012966
2105.0140,0.013568
2105.9459,0.014673
2106.8777,0.014150
2107.8095,0.013983
2108.7414,0.013413
2109.6732,0.013218
2110.6051,0.013288
2111.5369,0.013674
2112.4687,0.015059
2113.4006,0.015103
2114.3324,0.013576
2115.2642,0.012520
2116.1961,0.012716
2117.1279,0.012605
2118.0597,0.012179
2118.9916,0.013207
2119.9234,0.013537
2120.8552,0.013811
2121.7871,0.015410
2122.7189,0.015247
2123.6507,0.014964
2124.5826,0.015606
2125.5144,0.015345
2126.4462,0.015978
2127.3781,0.015988
2128.3099,0.014536
2129.2417,0.013141
2130.1736,0.012596
2131.1054,0.012784
2132.0372,0.013807
2132.9691,0.014014
2133.9009,0.014779
2134.8327,0.014999
2135.7646,0.014000
2136.6964,0.012753
2137.6282,0.012419
2138.5601,0.012637
2139.4919,0.012862
2140.4238,0.010911
2141.3556,0.009766
2142.2874,0.009906
2143.2193,0.010696
2144.1511,0.010138
2145.0829,0.009514
2146.0148,0.011409
2146.9466,0.013666
2147.8784,0.012299
2148.8103,0.010205
2149.7421,0.009355
2150.6739,0.009497
2151.6058,0.014164
2152.5376,0.014044
2153.4694,0.009066
2154.4013,0.006331
2155.3331,0.006910
2156.2649,0.010304
2157.1968,0.010016
2158.1286,0.004594
2159.0604,0.003018
2159.9923,0.007279
2160.9241,0.005698
2161.8559,0.003059
2162.7878,0.003772
2163.7196,0.007237
2164.6514,0.008487
2165.5833,0.005884
2166.5151,0.005651
2167.4470,0.003393
2168.3788,0.001350
2169.3106,0.005076
2170.2425,0.008375
2171.1743,0.008405
2172.1061,0.007414
2173.0380,0.006395
2173.9698,0.006940
2174.9016,0.011427
2175.8335,0.014594
2176.7653,0.011890
2177.6971,0.006527
2178.6290,0.004764
2179.5608,0.006389
2180.4926,0.005093
2181.4245,0.000861
2182.3563,0.002391
2183.2881,0.006865
2184.2200,0.008090
2185.1518,0.008562
2186.0836,0.007835
2187.0155,0.005925
2187.9473,0.007020
2188.8791,0.006832
2189.8110,0.005143
2190.7428,0.004918
2191.6746,0.007280
2192.6065,0.008983
2193.5383,0.007396
2194.4702,0.008979
2195.4020,0.014192
2196.3338,0.013064
2197.2657,0.007472
2198.1975,0.007575
2199.1293,0.010317
2200.0612,0.010289
2200.9930,0.009239
2201.9248,0.008128
2202.8567,0.007041
2203.7885,0.006416
2204.7203,0.006980
2205.6522,0.006697
2206.5840,0.007098
2207.5158,0.008819
2208.4477,0.007909
2209.3795,0.006591
2210.3113,0.008022
2211.2432,0.009221
2212.1750,0.009027
2213.1068,0.008458
2214.0387,0.007511
2214.9705,0.008621
2215.9023,0.010081
2216.8342,0.008612
2217.7660,0.008024
2218.6978,0.009111
2219.6297,0.008928
2220.5615,0.008923
2221.4934,0.010631
2222.4252,0.011797
2223.3570,0.010504
2224.2889,0.006978
2225.2207,0.006636
2226.1525,0.008417
2227.0844,0.009058
2228.0162,0.008411
2228.9480,0.007372
2229.8799,0.009033
2230.8117,0.010157
2231.7435,0.009704
2232.6754,0.009233
2233.6072,0.007562
2234.5390,0.007291
2235.4709,0.008513
2236.4027,0.010287
2237.3345,0.011724
2238.2664,0.010101
2239.1982,0.008348
2240.1300,0.008931
2241.0619,0.008848
2241.9937,0.007989
2242.9255,0.008062
2243.8574,0.008219
2244.7892,0.008750
2245.7210,0.009952
2246.6529,0.009887
2247.5847,0.010935
2248.5166,0.011254
2249.4484,0.010339
2250.3802,0.010510
2251.3121,0.010354
2252.2439,0.009644
2253.1757,0.009863
2254.1076,0.010727
2255.0394,0.010700
2255.9712,0.009543
2256.9031,0.008733
2257.8349,0.009394
2258.7667,0.009835
2259.6986,0.009793
2260.6304,0.008986
2261.5622,0.008785
2262.4941,0.009046
2263.4259,0.008274
2264.3577,0.008506
2265.2896,0.009315
2266.2214,0.009006
2267.1532,0.008947
2268.0851,0.009954
2269.0169,0.009927
2269.9487,0.009267
2270.8806,0.010523
2271.8124,0.011187
2272.7442,0.009632
2273.6761,0.009158
2274.6079,0.009566
2275.5397,0.008748
2276.4716,0.007605
2277.4034,0.007943
2278.3353,0.009061
2279.2671,0.009902
2280.1989,0.010476
2281.1308,0.009415
2282.0626,0.008468
2282.9944,0.008149
2283.9263,0.008793
2284.8581,0.009543
2285.7899,0.009386
2286.7218,0.008913
2287.6536,0.009283
2288.5854,0.010101
2289.5173,0.010353
2290.4491,0.010452
2291.3809,0.010358
2292.3128,0.010208
2293.2446,0.010846
2294.1764,0.010884
2295.1083,0.010183
2296.0401,0.010205
2296.9719,0.009955
2297.9038,0.009068
2298.8356,0.008196
2299.7674,0.008243
2300.6993,0.009241
2301.6311,0.009523
2302.5629,0.009020
2303.4948,0.008898
2304.4266,0.008905
2305.3585,0.008519
2306.2903,0.008447
2307.2221,0.008473
2308.1540,0.008321
2309.0858,0.008601
2310.0176,0.009813
2310.9495,0.010404
2311.8813,0.009289
2312.8131,0.008385
2313.7450,0.008223
2314.6768,0.009108
2315.6086,0.009874
2316.5405,0.010210
2317.4723,0.009975
2318.4041,0.009265
2319.3360,0.008723
2320.2678,0.008367
2321.1996,0.008649
2322.1315,0.009272
2323.0633,0.009531
2323.9951,0.009848
2324.9270,0.010282
2325.8588,0.009513
2326.7906,0.009012
2327.7225,0.008909
2328.6543,0.008810
2329.5861,0.008258
2330.5180,0.008005
2331.4498,0.008156
2332.3817,0.008624
2333.3135,0.008712
2334.2453,0.008901
2335.1772,0.008397
2336.1090,0.008058
2337.0408,0.008375
2337.9727,0.008038
2338.9045,0.007844
2339.8363,0.008392
2340.7682,0.008704
2341.7000,0.008875
2342.6318,0.007976
2343.5637,0.007384
2344.4955,0.007674
2345.4273,0.008316
2346.3592,0.008635
2347.2910,0.008538
2348.2228,0.007809
2349.1547,0.007703
2350.0865,0.008910
2351.0183,0.009535
2351.9502,0.008642
2352.8820,0.007674
2353.8138,0.007649
2354.7457,0.008031
2355.6775,0.008103
2356.6093,0.008266
2357.5412,0.008104
2358.4730,0.007510
2359.4049,0.007578
2360.3367,0.007828
2361.2685,0.007501
2362.2004,0.007204
2363.1322,0.006312
2364.0640,0.006248
2364.9959,0.007528
2365.9277,0.007778
2366.8595,0.006776
2367.7914,0.006165
2368.7232,0.006205
2369.6550,0.006238
2370.5869,0.006792
2371.5187,0.007731
2372.4505,0.006924
2373.3824,0.005157
2374.3142,0.005307
2375.2460,0.007303
2376.1779,0.007850
2377.1097,0.007162
2378.0415,0.007056
2378.9734,0.007772
2379.9052,0.007684
2380.8370,0.006944
2381.7689,0.006948
2382.7007,0.007389
2383.6325,0.007612
2384.5644,0.007687
2385.4962,0.007289
2386.4281,0.007312
2387.3599,0.007631
2388.2917,0.007025
2389.2236,0.006529
2390.1554,0.006379
2391.0872,0.006196
2392.0191,0.006937
2392.9509,0.007591
2393.8827,0.007422
2394.8146,0.006907
2395.7464,0.006547
2396.6782,0.006638
2397.6101,0.006848
2398.5419,0.006833
2399.4737,0.007350
2400.4056,0.007385
2401.3374,0.006433
2402.2692,0.005521
2403.2011,0.005970
2404.1329,0.006958
2405.0647,0.006889
2405.9966,0.006407
2406.9284,0.006647
2407.8602,0.006921
2408.7921,0.006404
2409.7239,0.006483
2410.6557,0.006952
2411.5876,0.006580
2412.5194,0.006345
2413.4512,0.006667
2414.3831,0.007370
2415.3149,0.006933
2416.2468,0.005846
2417.1786,0.005638
2418.1104,0.005578
2419.0423,0.005542
2419.9741,0.005559
2420.9059,0.005085
2421.8378,0.005711
2422.7696,0.006471
2423.7014,0.006049
2424.6333,0.005815
2425.5651,0.005233
2426.4969,0.004430
2427.4288,0.005376
2428.3606,0.006532
2429.2924,0.006332
2430.2243,0.006728
2431.1561,0.007178
2432.0879,0.006263
2433.0198,0.005942
2433.9516,0.006173
2434.8834,0.005649
2435.8153,0.005248
2436.7471,0.005527
2437.6789,0.005746
2438.6108,0.005713
2439.5426,0.005283
2440.4744,0.005092
2441.4063,0.005266
2442.3381,0.005496
2443.2700,0.005509
2444.2018,0.005529
2445.1336,0.005743
2446.0655,0.006028
2446.9973,0.005828
2447.9291,0.005013
2448.8610,0.005231
2449.7928,0.006340
2450.7246,0.005626
2451.6565,0.005034
2452.5883,0.005412
2453.5201,0.005397
2454.4520,0.005276
2455.3838,0.005225
2456.3156,0.004892
2457.2475,0.004667
2458.1793,0.004820
2459.1111,0.004897
2460.0430,0.004688
2460.9748,0.004788
2461.9066,0.004864
2462.8385,0.004621
2463.7703,0.004237
2464.7021,0.003973
2465.6340,0.004777
2466.5658,0.005099
2467.4976,0.004339
2468.4295,0.004115
2469.3613,0.004663
2470.2932,0.005954
2471.2250,0.005629
2472.1568,0.004306
2473.0887,0.004748
2474.0205,0.006120
2474.9523,0.005864
2475.8842,0.004836
2476.8160,0.004577
2477.7478,0.004344
2478.6797,0.004291
2479.6115,0.004863
2480.5433,0.004924
2481.4752,0.004878
2482.4070,0.005467
2483.3388,0.005407
2484.2707,0.005322
2485.2025,0.005903
2486.1343,0.005443
2487.0662,0.004958
2487.9980,0.005083
2488.9298,0.004344
2489.8617,0.004216
2490.7935,0.005614
2491.7253,0.006113
2492.6572,0.005169
2493.5890,0.004539
2494.5208,0.004452
2495.4527,0.003848
2496.3845,0.003671
2497.3164,0.004450
2498.2482,0.005137
2499.1800,0.004871
2500.1119,0.004927
2501.0437,0.005811
2501.9755,0.006359
2502.9074,0.006285
2503.8392,0.005841
2504.7710,0.005097
2505.7029,0.005100
2506.6347,0.005193
2507.5665,0.004896
2508.4984,0.004926
2509.4302,0.004887
2510.3620,0.004853
2511.2939,0.004904
2512.2257,0.004557
2513.1575,0.004757
2514.0894,0.005340
2515.0212,0.005303
2515.9530,0.005148
2516.8849,0.005714
2517.8167,0.006061
2518.7485,0.005907
2519.6804,0.005662
2520.6122,0.005199
2521.5440,0.004908
2522.4759,0.004874
2523.4077,0.004844
2524.3396,0.004957
2525.2714,0.004399
2526.2032,0.004433
2527.1351,0.004981
2528.0669,0.004672
2528.9987,0.004296
2529.9306,0.004131
2530.8624,0.003886
2531.7942,0.004501
2532.7261,0.004691
2533.6579,0.004396
2534.5897,0.004772
2535.5216,0.004915
2536.4534,0.004164
2537.3852,0.003610
2538.3171,0.004003
2539.2489,0.004722
2540.1807,0.004788
2541.1126,0.005361
2542.0444,0.005313
2542.9762,0.004414
2543.9081,0.004412
2544.8399,0.004465
2545.7717,0.004280
2546.7036,0.004902
2547.6354,0.004906
2548.5672,0.004476
2549.4991,0.004720
2550.4309,0.004514
2551.3627,0.003933
2552.2946,0.004132
2553.2264,0.004730
2554.1583,0.004638
2555.0901,0.004137
2556.0219,0.004059
2556.9538,0.004318
2557.8856,0.004370
2558.8174,0.004369
2559.7493,0.004948
2560.6811,0.005567
2561.6129,0.005212
2562.5448,0.004656
2563.4766,0.005188
2564.4084,0.005311
2565.3403,0.004114
2566.2721,0.003398
2567.2039,0.004086
2568.1358,0.004152
2569.0676,0.003262
2569.9994,0.003010
2570.9313,0.004094
2571.8631,0.004401
2572.7949,0.004082
2573.7268,0.004367
2574.6586,0.004646
2575.5904,0.004907
2576.5223,0.004473
2577.4541,0.003446
2578.3859,0.002993
2579.3178,0.003322
2580.2496,0.004451
2581.1815,0.004796
2582.1133,0.004126
2583.0451,0.004237
2583.9770,0.004523
2584.9088,0.004112
2585.8406,0.003488
2586.7725,0.003260
2587.7043,0.004011
2588.6361,0.004969
2589.5680,0.005607
2590.4998,0.005089
2591.4316,0.003790
2592.3635,0.003772
2593.2953,0.004644
2594.2271,0.004188
2595.1590,0.003233
2596.0908,0.003614
2597.0226,0.004562
2597.9545,0.005233
2598.8863,0.005678
2599.8181,0.005553
2600.7500,0.005671
2601.6818,0.005385
2602.6136,0.005177
2603.5455,0.005452
2604.4773,0.004999
2605.4091,0.003745
2606.3410,0.003234
2607.2728,0.003590
2608.2047,0.004032
2609.1365,0.004046
2610.0683,0.003417
2611.0002,0.003560
2611.9320,0.004907
2612.8638,0.005173
2613.7957,0.004797
2614.7275,0.004538
2615.6593,0.004840
2616.5912,0.005448
2617.5230,0.005027
2618.4548,0.004153
2619.3867,0.004142
2620.3185,0.004679
2621.2503,0.005577
2622.1822,0.005379
2623.1140,0.004954
2624.0458,0.005026
2624.9777,0.004687
2625.9095,0.004820
2626.8413,0.005210
2627.7732,0.005138
2628.7050,0.004988
2629.6368,0.005109
2630.5687,0.005055
2631.5005,0.005049
2632.4323,0.005208
2633.3642,0.005161
2634.2960,0.004863
2635.2279,0.004862
2636.1597,0.005378
2637.0915,0.005497
2638.0234,0.005389
2638.9552,0.005199
2639.8870,0.005196
2640.8189,0.005210
2641.7507,0.005613
2642.6825,0.005851
2643.6144,0.005705
2644.5462,0.005226
2645.4780,0.005192
2646.4099,0.005501
2647.3417,0.005764
2648.2735,0.005884
2649.2054,0.005651
2650.1372,0.005582
2651.0690,0.005474
2652.0009,0.005558
2652.9327,0.006075
2653.8645,0.006189
2654.7964,0.006092
2655.7282,0.005833
2656.6600,0.005473
2657.5919,0.005752
2658.5237,0.006003
2659.4555,0.006025
2660.3874,0.006018
2661.3192,0.005888
2662.2511,0.005978
2663.1829,0.006252
2664.1147,0.006193
2665.0466,0.006182
2665.9784,0.006471
2666.9102,0.006647
2667.8421,0.006257
2668.7739,0.006134
2669.7057,0.006189
2670.6376,0.005886
2671.5694,0.006324
2672.5012,0.007032
2673.4331,0.006984
2674.3649,0.006570
2675.2967,0.006508
2676.2286,0.006532
2677.1604,0.006702
2678.0922,0.006871
2679.0241,0.006754
2679.9559,0.006740
2680.8877,0.006922
2681.8196,0.006824
2682.7514,0.006810
2683.6832,0.006898
2684.6151,0.006914
2685.5469,0.007010
2686.4787,0.007118
2687.4106,0.006779
2688.3424,0.006664
2689.2742,0.006804
2690.2061,0.006722
2691.1379,0.006943
2692.0698,0.007650
2693.0016,0.007714
2693.9334,0.007355
2694.8653,0.007307
2695.7971,0.007422
2696.7289,0.007434
2697.6608,0.007672
2698.5926,0.008033
2699.5244,0.008220
2700.4563,0.008090
2701.3881,0.008207
2702.3199,0.008168
2703.2518,0.007965
2704.1836,0.008006
2705.1154,0.008116
2706.0473,0.008062
2706.9791,0.008056
2707.9109,0.008234
2708.8428,0.008644
2709.7746,0.008442
2710.7064,0.007936
2711.6383,0.008077
2712.5701,0.008614
2713.5019,0.008600
2714.4338,0.008334
2715.3656,0.008408
2716.2974,0.008823
2717.2293,0.009016
2718.1611,0.008749
2719.0930,0.008601
2720.0248,0.008940
2720.9566,0.009320
2721.8885,0.009259
2722.8203,0.009086
2723.7521,0.009100
2724.6840,0.009184
2725.6158,0.009117
2726.5476,0.009163
2727.4795,0.009791
2728.4113,0.009683
2729.3431,0.009470
2730.2750,0.009827
2731.2068,0.010105
2732.1386,0.009893
2733.0705,0.010114
2734.0023,0.010374
2734.9341,0.009844
2735.8660,0.009624
2736.7978,0.010055
2737.7296,0.009995
2738.6615,0.009726
2739.5933,0.009708
2740.5251,0.010405
2741.4570,0.011080
2742.3888,0.010930
2743.3206,0.010456
2744.2525,0.010416
2745.1843,0.010562
2746.1162,0.010749
2747.0480,0.010205
2747.9798,0.010210
2748.9117,0.010347
2749.8435,0.010263
2750.7753,0.010227
2751.7072,0.010569
2752.6390,0.011020
2753.5708,0.011319
2754.5027,0.011203
2755.4345,0.010808
2756.3663,0.010613
2757.2982,0.010931
2758.2300,0.011045
2759.1618,0.011276
2760.0937,0.011226
2761.0255,0.010620
2761.9573,0.010453
2762.8892,0.010731
2763.8210,0.010895
2764.7528,0.011176
2765.6847,0.011374
2766.6165,0.011515
2767.5483,0.011575
2768.4802,0.011426
2769.4120,0.011211
2770.3438,0.011204
2771.2757,0.011204
2772.2075,0.011213
2773.1394,0.011519
2774.0712,0.011717
2775.0030,0.011612
2775.9349,0.011883
2776.8667,0.012314
2777.7985,0.012421
2778.7304,0.012124
2779.6622,0.012012
2780.5940,0.011896
2781.5259,0.011759
2782.4577,0.012043
2783.3895,0.012296
2784.3214,0.012163
2785.2532,0.012287
2786.1850,0.012035
2787.1169,0.012235
2788.0487,0.012784
2788.9805,0.013224
2789.9124,0.013368
2790.8442,0.013362
2791.7760,0.013619
2792.7079,0.013687
2793.6397,0.013870
2794.5715,0.013924
2795.5034,0.013272
2796.4352,0.013336
2797.3670,0.014215
2798.2989,0.014536
2799.2307,0.014230
2800.1626,0.014419
2801.0944,0.014641
2802.0262,0.015058
2802.9581,0.015453
2803.8899,0.015112
2804.8217,0.014918
2805.7536,0.015034
2806.6854,0.015034
2807.6172,0.015315
2808.5491,0.015812
2809.4809,0.016100
2810.4127,0.016226
2811.3446,0.016465
2812.2764,0.016737
2813.2082,0.017338
2814.1401,0.017381
2815.0719,0.017064
2816.0037,0.017388
2816.9356,0.017413
2817.8674,0.017036
2818.7992,0.016900
2819.7311,0.017226
2820.6629,0.017544
2821.5947,0.017386
2822.5266,0.017686
2823.4584,0.018517
2824.3902,0.018894
2825.3221,0.018896
2826.2539,0.018948
2827.1857,0.019263
2828.1176,0.019350
2829.0494,0.019084
2829.9813,0.018814
2830.9131,0.019099
2831.8449,0.019567
2832.7768,0.019601
2833.7086,0.019945
2834.6404,0.020464
2835.5723,0.020430
2836.5041,0.020578
2837.4359,0.020567
2838.3678,0.021066
2839.2996,0.021753
2840.2314,0.022165
2841.1633,0.022063
2842.0951,0.021820
2843.0269,0.021757
2843.9588,0.021885
2844.8906,0.022070
2845.8224,0.022365
2846.7543,0.022291
2847.6861,0.022758
2848.6179,0.023091
2849.5498,0.023792
2850.4816,0.023701
2851.4134,0.023282
2852.3453,0.023833
2853.2771,0.024488
2854.2089,0.024345
2855.1408,0.024307
2856.0726,0.024602
2857.0045,0.025126
2857.9363,0.025668
2858.8681,0.026293
2859.8000,0.026753
2860.7318,0.026886
2861.6636,0.026482
2862.5955,0.026070
2863.5273,0.026670
2864.4591,0.027448
2865.3910,0.027722
2866.3228,0.028206
2867.2546,0.028883
2868.1865,0.029946
2869.1183,0.030691
2870.0501,0.030254
2870.9820,0.030690
2871.9138,0.031425
2872.8456,0.031602
2873.7775,0.032885
2874.7093,0.033736
2875.6411,0.034059
2876.5730,0.033957
2877.5048,0.033817
2878.4366,0.034774
2879.3685,0.035728
2880.3003,0.036351
2881.2321,0.036724
2882.1640,0.036947
2883.0958,0.037400
2884.0277,0.037653
2884.9595,0.037602
2885.8913,0.037595
2886.8232,0.038413
2887.7550,0.039006
2888.6868,0.039626
2889.6187,0.039890
2890.5505,0.039891
2891.4823,0.040101
2892.4142,0.040809
2893.3460,0.041593
2894.2778,0.042472
2895.2097,0.042954
2896.1415,0.043142
2897.0733,0.043367
2898.0052,0.044479
2898.9370,0.045447
2899.8688,0.045266
2900.8007,0.045336
2901.7325,0.045695
2902.6643,0.045348
2903.5962,0.045315
2904.5280,0.045791
2905.4598,0.045836
2906.3917,0.045619
2907.3235,0.045539
2908.2553,0.044973
2909.1872,0.044517
2910.1190,0.044850
2911.0509,0.045021
2911.9827,0.045071
2912.9145,0.044103
2913.8464,0.042853
2914.7782,0.042943
2915.7100,0.043239
2916.6419,0.043335
2917.5737,0.043128
2918.5055,0.042605
2919.4374,0.042531
2920.3692,0.042685
2921.3010,0.042787
2922.2329,0.043235
2923.1647,0.043786
2924.0965,0.043766
2925.0284,0.043712
2925.9602,0.043605
2926.8920,0.044153
2927.8239,0.044700
2928.7557,0.044718
2929.6875,0.044944
2930.6194,0.045950
2931.5512,0.046889
2932.4830,0.046850
2933.4149,0.046252
2934.3467,0.045817
2935.2785,0.045827
2936.2104,0.046422
2937.1422,0.047087
2938.0741,0.047432
2939.0059,0.048053
2939.9377,0.047995
2940.8696,0.047839
2941.8014,0.047509
2942.7332,0.047479
2943.6651,0.047899
2944.5969,0.048075
2945.5287,0.048460
2946.4606,0.048236
2947.3924,0.048239
2948.3242,0.048330
2949.2561,0.048413
2950.1879,0.048998
2951.1197,0.048897
2952.0516,0.049455
2952.9834,0.049886
2953.9152,0.049933
2954.8471,0.050284
2955.7789,0.050762
2956.7107,0.050668
2957.6426,0.051125
2958.5744,0.051559
2959.5062,0.051300
2960.4381,0.051661
2961.3699,0.052514
2962.3017,0.054153
2963.2336,0.055712
2964.1654,0.057185
2965.0972,0.058523
2966.0291,0.059784
2966.9609,0.061302
2967.8928,0.063007
2968.8246,0.064594
2969.7564,0.066340
2970.6883,0.068672
2971.6201,0.071036
2972.5519,0.073170
2973.4838,0.075387
2974.4156,0.077516
2975.3474,0.079803
2976.2793,0.082214
2977.2111,0.083479
2978.1429,0.085808
2979.0748,0.087021
2980.0066,0.087580
2980.9384,0.088679
2981.8703,0.088908
2982.8021,0.088708
2983.7339,0.087648
2984.6658,0.085609
2985.5976,0.083871
2986.5294,0.082632
2987.4613,0.081081
2988.3931,0.079145
2989.3249,0.076842
2990.2568,0.074856
2991.1886,0.072711
2992.1204,0.070446
2993.0523,0.068920
2993.9841,0.066964
2994.9160,0.065605
2995.8478,0.064530
2996.7796,0.062551
2997.7115,0.061312
2998.6433,0.061056
2999.5751,0.060071
3000.5070,0.059640
3001.4388,0.059511
3002.3706,0.059098
3003.3025,0.059014
3004.2343,0.058611
3005.1661,0.058150
3006.0980,0.058246
3007.0298,0.058869
3007.9616,0.059679
3008.8935,0.059729
3009.8253,0.059878
3010.7571,0.059774
3011.6890,0.060025
3012.6208,0.060276
3013.5526,0.060573
3014.4845,0.059888
3015.4163,0.059928
3016.3481,0.060971
3017.2800,0.061507
3018.2118,0.060917
3019.1436,0.061175
3020.0755,0.062470
3021.0073,0.063735
3021.9392,0.064067
3022.8710,0.063795
3023.8028,0.063802
3024.7347,0.064539
3025.6665,0.065058
3026.5983,0.065532
3027.5302,0.066452
3028.4620,0.067593
3029.3938,0.067717
3030.3257,0.067960
3031.2575,0.068253
3032.1893,0.068200
3033.1212,0.068580
3034.0530,0.070299
3034.9848,0.070450
3035.9167,0.070559
3036.8485,0.071199
3037.7803,0.072413
3038.7122,0.074013
3039.6440,0.074920
3040.5758,0.074154
3041.5077,0.074058
3042.4395,0.075318
3043.3713,0.075924
3044.3032,0.076370
3045.2350,0.077695
3046.1668,0.078016
3047.0987,0.078797
3048.0305,0.080172
3048.9624,0.080407
3049.8942,0.080440
3050.8260,0.081131
3051.7579,0.081763
3052.6897,0.082327
3053.6215,0.082999
3054.5534,0.084054
3055.4852,0.084890
3056.4170,0.085507
3057.3489,0.086459
3058.2807,0.086735
3059.2125,0.087349
3060.1444,0.088892
3061.0762,0.089393
3062.0080,0.089834
3062.9399,0.090779
3063.8717,0.091419
3064.8035,0.092488
3065.7354,0.095346
3066.6672,0.097025
3067.5990,0.097103
3068.5309,0.096977
3069.4627,0.097054
3070.3945,0.096958
3071.3264,0.098305
3072.2582,0.100343
3073.1900,0.100982
3074.1219,0.100372
3075.0537,0.101141
3075.9856,0.101900
3076.9174,0.102722
3077.8492,0.104137
3078.7811,0.105414
3079.7129,0.106201
3080.6447,0.107532
3081.5766,0.108757
3082.5084,0.110019
3083.4402,0.110765
3084.3721,0.110580
3085.3039,0.111173
3086.2357,0.113215
3087.1676,0.114266
3088.0994,0.114730
3089.0312,0.116476
3089.9631,0.117046
3090.8949,0.116959
3091.8267,0.118285
3092.7586,0.120294
3093.6904,0.121554
3094.6222,0.122393
3095.5541,0.122569
3096.4859,0.123812
3097.4177,0.125529
3098.3496,0.126081
3099.2814,0.126776
3100.2132,0.127963
3101.1451,0.128141
3102.0769,0.128792
3103.0087,0.130810
3103.9406,0.132161
3104.8724,0.133265
3105.8043,0.134322
3106.7361,0.135847
3107.6679,0.136873
3108.5998,0.137674
3109.5316,0.138607
3110.4634,0.139841
3111.3953,0.141722
3112.3271,0.143018
3113.2589,0.143907
3114.1908,0.145061
3115.1226,0.145365
3116.0544,0.146377
3116.9863,0.149332
3117.9181,0.151012
3118.8499,0.150163
3119.7818,0.150795
3120.7136,0.152327
3121.6454,0.153997
3122.5773,0.155027
3123.5091,0.155674
3124.4409,0.156120
3125.3728,0.158028
3126.3046,0.161372
3127.2364,0.162727
3128.1683,0.162513
3129.1001,0.163779
3130.0319,0.165168
3130.9638,0.166747
3131.8956,0.167867
3132.8275,0.169018
3133.7593,0.170513
3134.6911,0.171561
3135.6230,0.172237
3136.5548,0.173626
3137.4866,0.175150
3138.4185,0.177041
3139.3503,0.178749
3140.2821,0.181020
3141.2140,0.181449
3142.1458,0.181926
3143.0776,0.183033
3144.0095,0.183872
3144.9413,0.184549
3145.8731,0.186454
3146.8050,0.188200
3147.7368,0.190462
3148.6686,0.191774
3149.6005,0.192897
3150.5323,0.194004
3151.4641,0.196050
3152.3960,0.197378
3153.3278,0.197864
3154.2596,0.198868
3155.1915,0.200630
3156.1233,0.201279
3157.0551,0.202042
3157.9870,0.203431
3158.9188,0.204817
3159.8507,0.205628
3160.7825,0.208299
3161.7143,0.209753
3162.6462,0.210631
3163.5780,0.211988
3164.5098,0.213626
3165.4417,0.214866
3166.3735,0.215701
3167.3053,0.217198
3168.2372,0.219464
3169.1690,0.218582
3170.1008,0.220124
3171.0327,0.223071
3171.9645,0.224927
3172.8963,0.225390
3173.8282,0.225867
3174.7600,0.227841
3175.6918,0.230669
3176.6237,0.230487
3177.5555,0.231839
3178.4873,0.233980
3179.4192,0.234861
3180.3510,0.236527
3181.2828,0.237656
3182.2147,0.238439
3183.1465,0.239444
3184.0783,0.239082
3185.0102,0.240980
3185.9420,0.243168
3186.8739,0.243694
3187.8057,0.243366
3188.7375,0.244826
3189.6694,0.246280
3190.6012,0.248279
3191.5330,0.249668
3192.4649,0.250663
3193.3967,0.251187
3194.3285,0.252926
3195.2604,0.253809
3196.1922,0.255701
3197.1240,0.255613
3198.0559,0.255718
3198.9877,0.257271
3199.9195,0.259748
3200.8514,0.263641
3201.7832,0.266170
3202.7150,0.265437
3203.6469,0.266081
3204.5787,0.265259
3205.5105,0.265945
3206.4424,0.268421
3207.3742,0.270805
3208.3060,0.271160
3209.2379,0.270424
3210.1697,0.269870
3211.1015,0.271633
3212.0334,0.272745
3212.9652,0.274796
3213.8971,0.275950
3214.8289,0.275859
3215.7607,0.274093
3216.6926,0.276330
3217.6244,0.278650
3218.5562,0.279253
3219.4881,0.279808
3220.4199,0.282364
3221.3517,0.283525
3222.2836,0.284030
3223.2154,0.282841
3224.1472,0.281843
3225.0791,0.282700
3226.0109,0.283792
3226.9427,0.283604
3227.8746,0.286072
3228.8064,0.287844
3229.7382,0.288167
3230.6701,0.288419
3231.6019,0.287892
3232.5337,0.288921
3233.4656,0.290673
3234.3974,0.290780
3235.3292,0.291670
3236.2611,0.292465
3237.1929,0.292622
3238.1247,0.292354
3239.0566,0.291974
3239.9884,0.291775
3240.9202,0.292054
3241.8521,0.292552
3242.7839,0.294231
3243.7158,0.295723
3244.6476,0.295361
3245.5794,0.293421
3246.5113,0.295361
3247.4431,0.297568
3248.3749,0.297448
3249.3068,0.297190
3250.2386,0.298543
3251.1704,0.297552
3252.1023,0.296670
3253.0341,0.295935
3253.9659,0.297185
3254.8978,0.299591
3255.8296,0.300593
3256.7614,0.297729
3257.6933,0.297431
3258.6251,0.298248
3259.5569,0.297754
3260.4888,0.297528
3261.4206,0.299033
3262.3524,0.300087
3263.2843,0.300170
3264.2161,0.300753
3265.1479,0.300589
3266.0798,0.299698
3267.0116,0.300437
3267.9434,0.300894
3268.8753,0.300417
3269.8071,0.299909
3270.7390,0.301515
3271.6708,0.301341
3272.6026,0.302030
3273.5345,0.301310
3274.4663,0.302130
3275.3981,0.302808
3276.3300,0.300622
3277.2618,0.299725
3278.1936,0.301342
3279.1255,0.301280
3280.0573,0.301093
3280.9891,0.299622
3281.9210,0.299023
3282.8528,0.299815
3283.7846,0.300162
3284.7165,0.300377
3285.6483,0.301308
3286.5801,0.301197
3287.5120,0.301689
3288.4438,0.301032
3289.3756,0.300122
3290.3075,0.300061
3291.2393,0.301008
3292.1711,0.301433
3293.1030,0.302057
3294.0348,0.302067
3294.9666,0.303459
3295.8985,0.304160
3296.8303,0.303215
3297.7622,0.302459
3298.6940,0.302768
3299.6258,0.301712
3300.5577,0.302392
3301.4895,0.303220
3302.4213,0.303213
3303.3532,0.304753
3304.2850,0.306618
3305.2168,0.304912
3306.1487,0.303101
3307.0805,0.300612
3308.0123,0.299405
3308.9442,0.300852
3309.8760,0.302503
3310.8078,0.303195
3311.7397,0.304578
3312.6715,0.304672
3313.6033,0.304341
3314.5352,0.304016
3315.4670,0.304073
3316.3988,0.302195
3317.3307,0.302463
3318.2625,0.303768
3319.1943,0.302479
3320.1262,0.300789
3321.0580,0.302355
3321.9898,0.302942
3322.9217,0.302666
3323.8535,0.304881
3324.7854,0.306514
3325.7172,0.303964
3326.6490,0.303611
3327.5809,0.304083
3328.5127,0.303955
3329.4445,0.303952
3330.3764,0.304834
3331.3082,0.305158
3332.2400,0.305239
3333.1719,0.305154
3334.1037,0.304690
3335.0355,0.304881
3335.9674,0.306342
3336.8992,0.308251
3337.8310,0.309433
3338.7629,0.307825
3339.6947,0.305783
3340.6265,0.302772
3341.5584,0.303644
3342.4902,0.306003
3343.4220,0.305781
3344.3539,0.303924
3345.2857,0.304436
3346.2175,0.305331
3347.1494,0.305897
3348.0812,0.305286
3349.0130,0.303709
3349.9449,0.302406
3350.8767,0.303558
3351.8086,0.304511
3352.7404,0.303910
3353.6722,0.301857
3354.6041,0.301674
3355.5359,0.301997
3356.4677,0.302650
3357.3996,0.303061
3358.3314,0.301886
3359.2632,0.300963
3360.1951,0.299720
3361.1269,0.299601
3362.0587,0.304241
3362.9906,0.307213
3363.9224,0.304053
3364.8542,0.301655
3365.7861,0.305535
3366.7179,0.306981
3367.6497,0.304425
3368.5816,0.300981
3369.5134,0.298759
3370.4452,0.299895
3371.3771,0.300590
3372.3089,0.297547
3373.2407,0.295162
3374.1726,0.294463
3375.1044,0.296356
3376.0362,0.296522
3376.9681,0.295665
3377.8999,0.297016
3378.8317,0.298008
3379.7636,0.297057
3380.6954,0.295596
3381.6273,0.295470
3382.5591,0.294721
3383.4909,0.293573
3384.4228,0.294148
3385.3546,0.293575
3386.2864,0.294091
3387.2183,0.293981
3388.1501,0.292015
3389.0819,0.291639
3390.0138,0.292492
3390.9456,0.291250
3391.8774,0.290772
3392.8093,0.290766
3393.7411,0.289159
3394.6729,0.288219
3395.6048,0.288681
3396.5366,0.286496
3397.4684,0.284404
3398.4003,0.282839
3399.3321,0.282091
3400.2639,0.284112
3401.1958,0.282665
3402.1276,0.278346
3403.0594,0.278940
3403.9913,0.280901
3404.9231,0.281484
3405.8549,0.280186
3406.7868,0.275918
3407.7186,0.270734
3408.6505,0.271830
3409.5823,0.274945
3410.5141,0.275029
3411.4460,0.277163
3412.3778,0.278854
3413.3096,0.273270
3414.2415,0.268266
3415.1733,0.267950
3416.1051,0.269423
3417.0370,0.269565
3417.9688,0.267325
3418.9006,0.264986
3419.8325,0.264571
3420.7643,0.263858
3421.6961,0.262326
3422.6280,0.260831
3423.5598,0.259810
3424.4916,0.258390
3425.4235,0.260415
3426.3553,0.261963
3427.2871,0.258939
3428.2190,0.256917
3429.1508,0.257267
3430.0826,0.256121
3431.0145,0.254024
3431.9463,0.251223
3432.8781,0.249854
3433.8100,0.249008
3434.7418,0.247971
3435.6737,0.248387
3436.6055,0.248558
3437.5373,0.246511
3438.4692,0.244487
3439.4010,0.242788
3440.3328,0.239511
3441.2647,0.236381
3442.1965,0.237551
3443.1283,0.238852
3444.0602,0.236645
3444.9920,0.235343
3445.9238,0.236922
3446.8557,0.237089
3447.7875,0.233468
3448.7193,0.231534
3449.6512,0.232426
3450.5830,0.230273
3451.5148,0.228443
3452.4467,0.227434
3453.3785,0.226167
3454.3103,0.227302
3455.2422,0.229356
3456.1740,0.229002
3457.1058,0.226282
3458.0377,0.223780
3458.9695,0.223637
3459.9013,0.220899
3460.8332,0.217610
3461.7650,0.217602
3462.6969,0.218400
3463.6287,0.216823
3464.5605,0.213516
3465.4924,0.212804
3466.4242,0.213318
3467.3560,0.212673
3468.2879,0.211048
3469.2197,0.209453
3470.1515,0.210713
3471.0834,0.210353
3472.0152,0.207752
3472.9470,0.205557
3473.8789,0.204231
3474.8107,0.202874
3475.7425,0.202113
3476.6744,0.202459
3477.6062,0.199514
3478.5380,0.197650
3479.4699,0.198015
3480.4017,0.195871
3481.3335,0.196101
3482.2654,0.196811
3483.1972,0.194522
3484.1290,0.192223
3485.0609,0.191093
3485.9927,0.190919
3486.9245,0.190476
3487.8564,0.188444
3488.7882,0.188002
3489.7201,0.187742
3490.6519,0.185960
3491.5837,0.182535
3492.5156,0.179748
3493.4474,0.179099
3494.3792,0.179440
3495.3111,0.180436
3496.2429,0.180932
3497.1747,0.179628
3498.1066,0.176106
3499.0384,0.175823
3499.9702,0.177509
3500.9021,0.177564
3501.8339,0.175600
3502.7657,0.172387
3503.6976,0.170986
3504.6294,0.170463
3505.5612,0.168427
3506.4931,0.164655
3507.4249,0.164330
3508.3567,0.166545
3509.2886,0.166954
3510.2204,0.166957
3511.1522,0.167376
3512.0841,0.164949
3513.0159,0.162419
3513.9477,0.161448
3514.8796,0.160016
3515.8114,0.159565
3516.7432,0.158147
3517.6751,0.156299
3518.6069,0.156055
3519.5388,0.154652
3520.4706,0.154044
3521.4024,0.153408
3522.3343,0.151393
3523.2661,0.150980
3524.1979,0.148836
3525.1298,0.146416
3526.0616,0.149037
3526.9934,0.148951
3527.9253,0.144885
3528.8571,0.144063
3529.7889,0.143296
3530.7208,0.142059
3531.6526,0.142907
3532.5844,0.142309
3533.5163,0.140904
3534.4481,0.138682
3535.3799,0.137482
3536.3118,0.139382
3537.2436,0.138662
3538.1754,0.133948
3539.1073,0.131031
3540.0391,0.131863
3540.9709,0.132208
3541.9028,0.130683
3542.8346,0.128585
3543.7664,0.127027
3544.6983,0.128062
3545.6301,0.127650
3546.5620,0.124477
3547.4938,0.124523
3548.4256,0.123445
3549.3575,0.120209
3550.2893,0.121389
3551.2211,0.121689
3552.1530,0.119652
3553.0848,0.120016
3554.0166,0.121460
3554.9485,0.121262
3555.8803,0.117794
3556.8121,0.114365
3557.7440,0.113248
3558.6758,0.112517
3559.6076,0.112048
3560.5395,0.112329
3561.4713,0.111090
3562.4031,0.109528
3563.3350,0.107860
3564.2668,0.104878
3565.1986,0.105257
3566.1305,0.106388
3567.0623,0.104360
3567.9941,0.104630
3568.9260,0.108419
3569.8578,0.108356
3570.7896,0.105894
3571.7215,0.103141
3572.6533,0.101213
3573.5852,0.100533
3574.5170,0.099460
3575.4488,0.098729
3576.3807,0.097499
3577.3125,0.094350
3578.2443,0.091406
3579.1762,0.092126
3580.1080,0.094710
3581.0398,0.093149
3581.9717,0.089999
3582.9035,0.090254
3583.8353,0.090368
3584.7672,0.088547
3585.6990,0.087479
3586.6308,0.086902
3587.5627,0.087687
3588.4945,0.090030
3589.4263,0.089648
3590.3582,0.086410
3591.2900,0.084514
3592.2218,0.084460
3593.1537,0.083718
3594.0855,0.081453
3595.0173,0.080717
3595.9492,0.080616
3596.8810,0.079927
3597.8128,0.081046
3598.7447,0.080420
3599.6765,0.077965
3600.6084,0.077097
3601.5402,0.076628
3602.4720,0.074396
3603.4039,0.073444
3604.3357,0.072293
3605.2675,0.070308
3606.1994,0.070948
3607.1312,0.071095
3608.0630,0.069689
3608.9949,0.068663
3609.9267,0.068844
3610.8585,0.068879
3611.7904,0.069595
3612.7222,0.067999
3613.6540,0.066248
3614.5859,0.067788
3615.5177,0.067076
3616.4495,0.064493
3617.3814,0.063362
3618.3132,0.062890
3619.2450,0.062090
3620.1769,0.060456
3621.1087,0.058549
3622.0405,0.057916
3622.9724,0.056647
3623.9042,0.055388
3624.8360,0.057200
3625.7679,0.058216
3626.6997,0.056965
3627.6316,0.054675
3628.5634,0.053714
3629.4952,0.054469
3630.4271,0.054202
3631.3589,0.052824
3632.2907,0.051327
3633.2226,0.050025
3634.1544,0.050708
3635.0862,0.050779
3636.0181,0.050212
3636.9499,0.050177
3637.8817,0.050647
3638.8136,0.049247
3639.7454,0.047387
3640.6772,0.047094
3641.6091,0.047267
3642.5409,0.046950
3643.4727,0.045855
3644.4046,0.045027
3645.3364,0.044241
3646.2682,0.042215
3647.2001,0.041379
3648.1319,0.041350
3649.0637,0.040055
3649.9956,0.039380
3650.9274,0.038378
3651.8592,0.037375
3652.7911,0.036928
3653.7229,0.035316
3654.6547,0.034186
3655.5866,0.034758
3656.5184,0.034977
3657.4503,0.034292
3658.3821,0.034224
3659.3139,0.033949
3660.2458,0.032479
3661.1776,0.031293
3662.1094,0.029803
3663.0413,0.028788
3663.9731,0.028776
3664.9049,0.029685
3665.8368,0.029913
3666.7686,0.028511
3667.7004,0.026973
3668.6323,0.026410
3669.5641,0.025530
3670.4959,0.024598
3671.4278,0.023880
3672.3596,0.023042
3673.2914,0.023091
3674.2233,0.021154
3675.1551,0.020924
3676.0869,0.022036
3677.0188,0.022062
3677.9506,0.019846
3678.8824,0.016901
3679.8143,0.016249
3680.7461,0.016440
3681.6779,0.016155
3682.6098,0.015452
3683.5416,0.014325
3684.4735,0.014115
3685.4053,0.013053
3686.3371,0.012651
3687.2690,0.013570
3688.2008,0.013709
3689.1326,0.012155
3690.0645,0.011428
3690.9963,0.012132
3691.9281,0.011439
3692.8600,0.009450
3693.7918,0.008917
3694.7236,0.008487
3695.6555,0.008986
3696.5873,0.009800
3697.5191,0.009728
3698.4510,0.009366
3699.3828,0.008825
3700.3146,0.008266
3701.2465,0.009399
3702.1783,0.008367
3703.1101,0.007073
3704.0420,0.006654
3704.9738,0.006245
3705.9056,0.006430
3706.8375,0.006879
3707.7693,0.006201
3708.7011,0.005274
3709.6330,0.004205
3710.5648,0.003560
3711.4967,0.004683
3712.4285,0.004685
3713.3603,0.004828
3714.2922,0.004441
3715.2240,0.002689
3716.1558,0.003118
3717.0877,0.004278
3718.0195,0.004376
3718.9513,0.003813
3719.8832,0.004287
3720.8150,0.005109
3721.7468,0.005064
3722.6787,0.002962
3723.6105,0.002498
3724.5423,0.004644
3725.4742,0.005366
3726.4060,0.004202
3727.3378,0.003735
3728.2697,0.003040
3729.2015,0.002664
3730.1333,0.002740
3731.0652,0.003551
3731.9970,0.003258
3732.9288,0.002234
3733.8607,0.001627
3734.7925,0.000950
3735.7243,-0.000186
3736.6562,-0.000818
3737.5880,-0.000300
3738.5199,0.000533
3739.4517,0.000693
3740.3835,0.000553
3741.3154,-0.000108
3742.2472,-0.000151
3743.1790,0.001266
3744.1109,0.002668
3745.0427,0.002696
3745.9745,0.002311
3746.9064,0.002081
3747.8382,-0.000116
3748.7700,-0.002243
3749.7019,-0.000873
3750.6337,0.000621
3751.5655,0.001806
3752.4974,0.003365
3753.4292,0.002442
3754.3610,0.001652
3755.2929,0.001833
3756.2247,0.002169
3757.1565,0.001917
3758.0884,0.001401
3759.0202,0.001946
3759.9520,0.001012
3760.8839,-0.000874
3761.8157,0.000759
3762.7475,0.001854
3763.6794,0.000680
3764.6112,0.000773
3765.5431,0.001582
3766.4749,0.001345
3767.4067,0.000054
3768.3386,0.000881
3769.2704,0.002181
3770.2022,0.002069
3771.1341,0.002033
3772.0659,0.002544
3772.9977,0.002289
3773.9296,0.001367
3774.8614,0.001163
3775.7932,0.001583
3776.7251,0.001616
3777.6569,0.000904
3778.5887,0.001524
3779.5206,0.001426
3780.4524,0.000775
3781.3842,0.001514
3782.3161,0.001754
3783.2479,0.001828
3784.1797,0.001084
3785.1116,0.000793
3786.0434,0.002054
3786.9752,0.002662
3787.9071,0.001422
3788.8389,0.000454
3789.7707,0.000296
3790.7026,0.000906
3791.6344,0.001411
3792.5662,0.001171
3793.4981,0.001000
3794.4299,0.000834
3795.3618,0.000621
3796.2936,0.000974
3797.2254,0.000727
3798.1573,0.001703
3799.0891,0.002087
3800.0209,0.000475
3800.9528,0.000455
3801.8846,0.000898
3802.8164,0.000234
3803.7483,-0.000290
3804.6801,-0.000610
3805.6119,0.000357
3806.5438,0.000917
3807.4756,0.000306
3808.4074,0.000512
3809.3393,0.001884
3810.2711,0.001110
3811.2029,0.000115
3812.1348,0.000595
3813.0666,0.001190
3813.9984,0.000944
3814.9303,0.000244
3815.8621,0.000059
3816.7939,0.000689
3817.7258,0.001821
3818.6576,0.002031
3819.5894,0.000863
3820.5213,-0.000647
3821.4531,-0.000873
3822.3850,0.000076
3823.3168,0.001897
3824.2486,0.001251
3825.1805,-0.000580
3826.1123,-0.000539
3827.0441,-0.000320
3827.9760,0.000164
3828.9078,0.000599
3829.8396,0.000879
3830.7715,0.000322
3831.7033,0.000040
3832.6351,0.001514
3833.5670,0.002584
3834.4988,0.002193
3835.4306,0.000647
3836.3625,0.000351
3837.2943,0.001609
3838.2261,0.000632
3839.1580,-0.000481
3840.0898,0.001710
3841.0216,0.000969
3841.9535,-0.000791
3842.8853,0.000627
3843.8171,0.000580
3844.7490,-0.000495
3845.6808,-0.000629
3846.6126,0.000534
3847.5445,0.000202
3848.4763,-0.000008
3849.4082,0.000323
3850.3400,0.000623
3851.2718,-0.000176
3852.2037,-0.000028
3853.1355,0.000488
3854.0673,0.000902
3854.9992,0.001656
3855.9310,0.000677
3856.8628,-0.001435
3857.7947,-0.002953
3858.7265,-0.002234
3859.6583,0.000681
3860.5902,0.002368
3861.5220,0.001215
3862.4538,0.000382
3863.3857,0.001261
3864.3175,0.000948
3865.2493,-0.001098
3866.1812,-0.001062
3867.1130,0.001286
3868.0448,0.001665
3868.9767,0.001208
3869.9085,0.000811
3870.8403,0.001186
3871.7722,0.000956
3872.7040,0.000478
3873.6358,-0.000136
3874.5677,-0.000330
3875.4995,0.000852
3876.4314,0.002053
3877.3632,0.001989
3878.2950,0.001397
3879.2269,0.001092
3880.1587,-0.000068
3881.0905,-0.000578
3882.0224,0.000728
3882.9542,0.002180
3883.8860,0.002257
3884.8179,0.000864
3885.7497,0.000134
3886.6815,-0.000025
3887.6134,-0.000213
3888.5452,0.000028
3889.4770,-0.001110
3890.4089,-0.001714
3891.3407,-0.000611
3892.2725,0.000829
3893.2044,0.001714
3894.1362,0.001124
3895.0680,0.000015
3895.9999,0.000180
3896.9317,-0.000077
3897.8635,-0.000019
3898.7954,0.000611
3899.7272,0.000988
3900.6590,0.001243
3901.5909,0.001700
3902.5227,0.001477
3903.4546,0.000014
3904.3864,-0.000694
3905.3182,0.000269
3906.2501,0.001063
3907.1819,-0.000299
3908.1137,0.000145
3909.0456,0.000641
3909.9774,0.000051
3910.9092,0.000319
3911.8411,0.000664
3912.7729,0.000064
3913.7047,-0.000013
3914.6366,0.000281
3915.5684,0.001362
3916.5002,0.001725
3917.4321,0.000199
3918.3639,-0.000936
3919.2957,-0.000082
3920.2276,0.000787
3921.1594,0.001303
3922.0912,0.001354
3923.0231,0.000649
3923.9549,-0.000720
3924.8867,-0.000851
3925.8186,0.000889
3926.7504,0.001869
3927.6822,0.001726
3928.6141,0.000824
3929.5459,-0.000619
3930.4777,-0.000583
3931.4096,0.000408
3932.3414,0.001680
3933.2733,0.001386
3934.2051,0.000100
3935.1369,0.000338
3936.0688,0.000364
3937.0006,-0.000154
3937.9324,0.000569
3938.8643,0.000238
3939.7961,0.000034
3940.7279,0.000973
3941.6598,0.001529
3942.5916,0.001113
3943.5234,0.000692
3944.4553,0.000748
3945.3871,-0.000315
3946.3189,-0.000188
3947.2508,0.000788
3948.1826,0.000300
3949.1144,0.000170
3950.0463,-0.000100
3950.9781,-0.000445
3951.9099,-0.000345
3952.8418,0.001164
3953.7736,0.001239
3954.7054,0.000185
3955.6373,0.000813
3956.5691,0.001840
3957.5009,0.002085
3958.4328,0.001672
3959.3646,0.001167
3960.2965,0.001060
3961.2283,0.001326
3962.1601,0.001167
3963.0920,0.000720
3964.0238,0.001135
3964.9556,0.000865
3965.8875,0.001040
3966.8193,0.000734
3967.7511,0.000840
3968.6830,0.001674
3969.6148,0.001885
3970.5466,0.001439
3971.4785,0.000801
3972.4103,0.000318
3973.3421,0.000550
3974.2740,0.000320
3975.2058,-0.000107
3976.1376,0.000590
3977.0695,0.001576
3978.0013,0.000773
3978.9331,0.000721
3979.8650,0.000485
3980.7968,-0.000297
3981.7286,0.000366
3982.6605,0.000342
3983.5923,0.000194
3984.5241,0.000825
3985.4560,0.000125
3986.3878,-0.000405
3987.3197,0.000215
3988.2515,0.000749
3989.1833,0.001221
3990.1152,0.001042
3991.0470,0.001453
3991.9788,0.002735
3992.9107,0.003151
3993.8425,0.002475
3994.7743,0.001275
3995.7062,0.000735
3996.6380,0.001176
3997.5698,0.001323
3998.5017,0.001645
3999.4335,0.000903
4000.3653,0.000074
