Wavenumber,Intensity
650.4205,0.390224
651.3523,0.388985
652.2841,0.392997
653.2160,0.396719
654.1478,0.393729
655.0796,0.399558
656.0115,0.393517
656.9433,0.382827
657.8751,0.378058
658.8070,0.375668
659.7388,0.370128
660.6706,0.370007
661.6025,0.371505
662.5343,0.370591
663.4661,0.370206
664.3980,0.367043
665.3298,0.363615
666.2616,0.361825
667.1935,0.350672
668.1253,0.335840
669.0571,0.348140
669.9890,0.357920
670.9208,0.353211
671.8526,0.347529
672.7845,0.347478
673.7163,0.355174
674.6481,0.354717
675.5800,0.347215
676.5118,0.344302
677.4437,0.353374
678.3755,0.355171
679.3073,0.352768
680.2392,0.346602
681.1710,0.344572
682.1028,0.347464
683.0347,0.346703
683.9665,0.342022
684.8983,0.339873
685.8302,0.337893
686.7620,0.334404
687.6938,0.336631
688.6257,0.338401
689.5575,0.331423
690.4893,0.328564
691.4212,0.334459
692.3530,0.336745
693.2848,0.330119
694.2167,0.328259
695.1485,0.329668
696.0803,0.327080
697.0122,0.321310
697.9440,0.321427
698.8758,0.319222
699.8077,0.314177
700.7395,0.311378
701.6713,0.312882
702.6032,0.314762
703.5350,0.316333
704.4669,0.317191
705.3987,0.318749
706.3305,0.315237
707.2624,0.311072
708.1942,0.309527
709.1260,0.310264
710.0579,0.310509
710.9897,0.310381
711.9215,0.307391
712.8534,0.304726
713.7852,0.302292
714.7170,0.299678
715.6489,0.297972
716.5807,0.297970
717.5125,0.296966
718.4444,0.296069
719.3762,0.292923
720.3080,0.291143
721.2399,0.289764
722.1717,0.287001
723.1035,0.285018
724.0354,0.284672
724.9672,0.282619
725.8990,0.282658
726.8309,0.282173
727.7627,0.281522
728.6945,0.280672
729.6264,0.279952
730.5582,0.279051
731.4901,0.279973
732.4219,0.278112
733.3537,0.273742
734.2856,0.272248
735.2174,0.272902
736.1492,0.271485
737.0811,0.271861
738.0129,0.270388
738.9447,0.266874
739.8766,0.264062
740.8084,0.264593
741.7402,0.265759
742.6721,0.263929
743.6039,0.260858
744.5357,0.259226
745.4676,0.257629
746.3994,0.256338
747.3312,0.254556
748.2631,0.252536
749.1949,0.251846
750.1267,0.252952
751.0586,0.251320
751.9904,0.249129
752.9222,0.247446
753.8541,0.246168
754.7859,0.245032
755.7177,0.243150
756.6496,0.241116
757.5814,0.241923
758.5132,0.242297
759.4451,0.240588
760.3769,0.237545
761.3088,0.236135
762.2406,0.234277
763.1724,0.232662
764.1043,0.232479
765.0361,0.232704
765.9679,0.232188
766.8998,0.230187
767.8316,0.227121
768.7634,0.226069
769.6953,0.224679
770.6271,0.224179
771.5589,0.222805
772.4908,0.220755
773.4226,0.219289
774.3544,0.217848
775.2863,0.216286
776.2181,0.216214
777.1499,0.216172
778.0818,0.214740
779.0136,0.213842
779.9454,0.213044
780.8773,0.210569
781.8091,0.209648
782.7409,0.207786
783.6728,0.206407
784.6046,0.205478
785.5364,0.204542
786.4683,0.203401
787.4001,0.202573
788.3320,0.200364
789.2638,0.199073
790.1956,0.197959
791.1275,0.197902
792.0593,0.197304
792.9911,0.195543
793.9230,0.193427
794.8548,0.191751
795.7866,0.190121
796.7185,0.189290
797.6503,0.188433
798.5821,0.188434
799.5140,0.187714
800.4458,0.186167
801.3776,0.185355
802.3095,0.185010
803.2413,0.183991
804.1731,0.181691
805.1050,0.180070
806.0368,0.180044
806.9686,0.178813
807.9005,0.178125
808.8323,0.175681
809.7641,0.173589
810.6960,0.172799
811.6278,0.171776
812.5596,0.170654
813.4915,0.168191
814.4233,0.166876
815.3552,0.166412
816.2870,0.163765
817.2188,0.162125
818.1507,0.161585
819.0825,0.160523
820.0143,0.159788
820.9462,0.159451
821.8780,0.157803
822.8098,0.156819
823.7417,0.155977
824.6735,0.155000
825.6053,0.154198
826.5372,0.153171
827.4690,0.151755
828.4008,0.150066
829.3327,0.148022
830.2645,0.146885
831.1963,0.146161
832.1282,0.146156
833.0600,0.145899
833.9918,0.144437
834.9237,0.143040
835.8555,0.141709
836.7873,0.140675
837.7192,0.139439
838.6510,0.138223
839.5828,0.137788
840.5147,0.137206
841.4465,0.135449
842.3784,0.134202
843.3102,0.133428
844.2420,0.132687
845.1739,0.133019
846.1057,0.131981
847.0375,0.131366
847.9694,0.130814
848.9012,0.129981
849.8330,0.128235
850.7649,0.127246
851.6967,0.127531
852.6285,0.126952
853.5604,0.125613
854.4922,0.124947
855.4240,0.124295
856.3559,0.123532
857.2877,0.123110
858.2195,0.122720
859.1514,0.122166
860.0832,0.121967
861.0150,0.120826
861.9469,0.120580
862.8787,0.120930
863.8105,0.120721
864.7424,0.121294
865.6742,0.122114
866.6060,0.122667
867.5379,0.123837
868.4697,0.125313
869.4016,0.127427
870.3334,0.130576
871.2652,0.134380
872.1971,0.138064
873.1289,0.143061
874.0607,0.148075
874.9926,0.152424
875.9244,0.156086
876.8562,0.158678
877.7881,0.159634
878.7199,0.159492
879.6517,0.156225
880.5836,0.151304
881.5154,0.144836
882.4472,0.137550
883.3791,0.131030
884.3109,0.124706
885.2427,0.118384
886.1746,0.113180
887.1064,0.108710
888.0382,0.104876
888.9701,0.101446
889.9019,0.098241
890.8337,0.095791
891.7656,0.093595
892.6974,0.091259
893.6292,0.089752
894.5611,0.088990
895.4929,0.087906
896.4247,0.085773
897.3566,0.084477
898.2884,0.084278
899.2203,0.083557
900.1521,0.082675
901.0839,0.082010
902.0158,0.081172
902.9476,0.080340
903.8794,0.079374
904.8113,0.078696
905.7431,0.078304
906.6749,0.077793
907.6068,0.076916
908.5386,0.076596
909.4704,0.076015
910.4023,0.074723
911.3341,0.073923
912.2659,0.074186
913.1978,0.073907
914.1296,0.073214
915.0614,0.072324
915.9933,0.071822
916.9251,0.071303
917.8569,0.070827
918.7888,0.070769
919.7206,0.070494
920.6524,0.069692
921.5843,0.069000
922.5161,0.068797
923.4479,0.068521
924.3798,0.067994
925.3116,0.067512
926.2435,0.066992
927.1753,0.066580
928.1071,0.066277
929.0390,0.065736
929.9708,0.065355
930.9026,0.065165
931.8345,0.064796
932.7663,0.064465
933.6981,0.064234
934.6300,0.063686
935.5618,0.063402
936.4936,0.063209
937.4255,0.063010
938.3573,0.062382
939.2891,0.061886
940.2210,0.062058
941.1528,0.061975
942.0846,0.061386
943.0165,0.061090
943.9483,0.060684
944.8801,0.060106
945.8120,0.059974
946.7438,0.059900
947.6756,0.059921
948.6075,0.059715
949.5393,0.059177
950.4711,0.059104
951.4030,0.058867
952.3348,0.058706
953.2667,0.058542
954.1985,0.058308
955.1303,0.057970
956.0622,0.057688
956.9940,0.057602
957.9258,0.057408
958.8577,0.057073
959.7895,0.056831
960.7213,0.056799
961.6532,0.056765
962.5850,0.056617
963.5168,0.056423
964.4487,0.056205
965.3805,0.055795
966.3123,0.055831
967.2442,0.055907
968.1760,0.055760
969.1078,0.055394
970.0397,0.055147
970.9715,0.055155
971.9033,0.055241
972.8352,0.055063
973.7670,0.054693
974.6988,0.054750
975.6307,0.054711
976.5625,0.054490
977.4943,0.054234
978.4262,0.054210
979.3580,0.054429
980.2899,0.054425
981.2217,0.054424
982.1535,0.054225
983.0854,0.054173
984.0172,0.054530
984.9490,0.054308
985.8809,0.054119
986.8127,0.054213
987.7445,0.054051
988.6764,0.054114
989.6082,0.054347
990.5400,0.054380
991.4719,0.054342
992.4037,0.054438
993.3355,0.054644
994.2674,0.054908
995.1992,0.055024
996.1310,0.054945
997.0629,0.055072
997.9947,0.055449
998.9265,0.055546
999.8584,0.055427
1000.7902,0.055475
1001.7220,0.055971
1002.6539,0.056480
1003.5857,0.056793
1004.5175,0.056867
1005.4494,0.057018
1006.3812,0.057324
1007.3131,0.057554
1008.2449,0.057830
1009.1767,0.058377
1010.1086,0.059005
1011.0404,0.059744
1011.9722,0.060462
1012.9041,0.060771
1013.8359,0.060981
1014.7677,0.061775
1015.6996,0.062973
1016.6314,0.063911
1017.5632,0.064517
1018.4951,0.065701
1019.4269,0.067301
1020.3587,0.068809
1021.2906,0.070054
1022.2224,0.071705
1023.1542,0.073939
1024.0861,0.076018
1025.0179,0.078312
1025.9497,0.081320
1026.8816,0.084323
1027.8134,0.087217
1028.7452,0.090651
1029.6771,0.094805
1030.6089,0.099920
1031.5407,0.105676
1032.4726,0.112115
1033.4044,0.119618
1034.3362,0.128006
1035.2681,0.137576
1036.1999,0.148691
1037.1318,0.161224
1038.0636,0.174635
1038.9954,0.188737
1039.9273,0.203020
1040.8591,0.216669
1041.7909,0.228377
1042.7228,0.237163
1043.6546,0.242273
1044.5864,0.243379
1045.5183,0.240292
1046.4501,0.232654
1047.3819,0.221533
1048.3138,0.208075
1049.2456,0.192990
1050.1774,0.177812
1051.1093,0.162806
1052.0411,0.148308
1052.9729,0.134780
1053.9048,0.122893
1054.8366,0.112066
1055.7684,0.102446
1056.7003,0.094976
1057.6321,0.088941
1058.5639,0.083667
1059.4958,0.079304
1060.4276,0.075887
1061.3594,0.073388
1062.2913,0.071489
1063.2231,0.070161
1064.1550,0.069265
1065.0868,0.068637
1066.0186,0.068478
1066.9505,0.068673
1067.8823,0.069101
1068.8141,0.069893
1069.7460,0.070863
1070.6778,0.072096
1071.6096,0.073588
1072.5415,0.075410
1073.4733,0.077514
1074.4051,0.079606
1075.3370,0.081807
1076.2688,0.084271
1077.2006,0.086910
1078.1325,0.089828
1079.0643,0.092562
1079.9961,0.095291
1080.9280,0.098058
1081.8598,0.100527
1082.7916,0.102654
1083.7235,0.104388
1084.6553,0.105506
1085.5871,0.105959
1086.5190,0.105447
1087.4508,0.104162
1088.3826,0.102057
1089.3145,0.099060
1090.2463,0.095620
1091.1782,0.091668
1092.1100,0.087513
1093.0418,0.083430
1093.9737,0.079179
1094.9055,0.075360
1095.8373,0.071809
1096.7692,0.068306
1097.7010,0.065141
1098.6328,0.062356
1099.5647,0.060102
1100.4965,0.058299
1101.4283,0.056361
1102.3602,0.054349
1103.2920,0.052803
1104.2238,0.051667
1105.1557,0.050778
1106.0875,0.050006
1107.0193,0.049244
1107.9512,0.048425
1108.8830,0.047962
1109.8148,0.047519
1110.7467,0.046931
1111.6785,0.046590
1112.6103,0.046368
1113.5422,0.046249
1114.4740,0.046226
1115.4058,0.045897
1116.3377,0.045593
1117.2695,0.045700
1118.2014,0.045869
1119.1332,0.045867
1120.0650,0.045783
1120.9969,0.045612
1121.9287,0.045408
1122.8605,0.045125
1123.7924,0.045193
1124.7242,0.045395
1125.6560,0.045203
1126.5879,0.044940
1127.5197,0.044843
1128.4515,0.044767
1129.3834,0.044639
1130.3152,0.044440
1131.2470,0.044331
1132.1789,0.044317
1133.1107,0.044270
1134.0425,0.044346
1134.9744,0.044184
1135.9062,0.043955
1136.8380,0.043860
1137.7699,0.043571
1138.7017,0.043458
1139.6335,0.043252
1140.5654,0.043056
1141.4972,0.043016
1142.4290,0.042859
1143.3609,0.042738
1144.2927,0.042597
1145.2246,0.042822
1146.1564,0.043070
1147.0882,0.042931
1148.0201,0.042762
1148.9519,0.042679
1149.8837,0.042737
1150.8156,0.042995
1151.7474,0.043049
1152.6792,0.042706
1153.6111,0.042477
1154.5429,0.042581
1155.4747,0.042700
1156.4066,0.042667
1157.3384,0.042465
1158.2702,0.042253
1159.2021,0.042135
1160.1339,0.042067
1161.0657,0.041743
1161.9976,0.041550
1162.9294,0.041577
1163.8612,0.041361
1164.7931,0.041145
1165.7249,0.040867
1166.6567,0.040699
1167.5886,0.040761
1168.5204,0.040616
1169.4522,0.040184
1170.3841,0.040185
1171.3159,0.040356
1172.2477,0.040222
1173.1796,0.040053
1174.1114,0.039944
1175.0433,0.039928
1175.9751,0.040126
1176.9069,0.040094
1177.8388,0.039968
1178.7706,0.039926
1179.7024,0.039904
1180.6343,0.040127
1181.5661,0.040174
1182.4979,0.040018
1183.4298,0.040152
1184.3616,0.040245
1185.2934,0.040048
1186.2253,0.039949
1187.1571,0.039980
1188.0889,0.040029
1189.0208,0.039952
1189.9526,0.039853
1190.8844,0.039982
1191.8163,0.040173
1192.7481,0.040199
1193.6799,0.040197
1194.6118,0.040160
1195.5436,0.039965
1196.4754,0.040023
1197.4073,0.040218
1198.3391,0.040169
1199.2709,0.039987
1200.2028,0.039967
1201.1346,0.040125
1202.0665,0.040189
1202.9983,0.040118
1203.9301,0.040329
1204.8620,0.040583
1205.7938,0.040390
1206.7256,0.040309
1207.6575,0.040609
1208.5893,0.040697
1209.5211,0.040619
1210.4530,0.040604
1211.3848,0.040526
1212.3166,0.040526
1213.2485,0.040803
1214.1803,0.040983
1215.1121,0.041009
1216.0440,0.041041
1216.9758,0.040981
1217.9076,0.040814
1218.8395,0.040684
1219.7713,0.040706
1220.7031,0.041098
1221.6350,0.041342
1222.5668,0.041260
1223.4986,0.041232
1224.4305,0.041271
1225.3623,0.041412
1226.2941,0.041561
1227.2260,0.041339
1228.1578,0.041086
1229.0897,0.041373
1230.0215,0.041799
1230.9533,0.041923
1231.8852,0.041925
1232.8170,0.041980
1233.7488,0.041891
1234.6807,0.041904
1235.6125,0.042103
1236.5443,0.041851
1237.4762,0.041771
1238.4080,0.042370
1239.3398,0.042700
1240.2717,0.042685
1241.2035,0.042782
1242.1353,0.042767
1243.0672,0.042711
1243.9990,0.042860
1244.9308,0.043157
1245.8627,0.043251
1246.7945,0.043339
1247.7263,0.043403
1248.6582,0.043673
1249.5900,0.043922
1250.5218,0.044268
1251.4537,0.044688
1252.3855,0.044741
1253.3173,0.044709
1254.2492,0.044891
1255.1810,0.044952
1256.1129,0.045156
1257.0447,0.045640
1257.9765,0.045955
1258.9084,0.046366
1259.8402,0.046993
1260.7720,0.047497
1261.7039,0.047869
1262.6357,0.048226
1263.5675,0.048552
1264.4994,0.049040
1265.4312,0.049363
1266.3630,0.049788
1267.2949,0.050502
1268.2267,0.051298
1269.1585,0.052048
1270.0904,0.052518
1271.0222,0.052627
1271.9540,0.053063
1272.8859,0.053567
1273.8177,0.053807
1274.7495,0.053789
1275.6814,0.053499
1276.6132,0.053066
1277.5450,0.052842
1278.4769,0.052588
1279.4087,0.052248
1280.3405,0.051866
1281.2724,0.051235
1282.2042,0.050706
1283.1361,0.050421
1284.0679,0.050231
1284.9997,0.050108
1285.9316,0.049722
1286.8634,0.049509
1287.7952,0.049786
1288.7271,0.050024
1289.6589,0.049727
1290.5907,0.049479
1291.5226,0.049475
1292.4544,0.049416
1293.3862,0.049500
1294.3181,0.049930
1295.2499,0.050333
1296.1817,0.050573
1297.1136,0.050495
1298.0454,0.050560
1298.9772,0.050753
1299.9091,0.050972
1300.8409,0.051123
1301.7727,0.051238
1302.7046,0.051716
1303.6364,0.052158
1304.5682,0.052232
1305.5001,0.052227
1306.4319,0.052452
1307.3637,0.052662
1308.2956,0.052993
1309.2274,0.053360
1310.1592,0.053536
1311.0911,0.053749
1312.0229,0.053957
1312.9548,0.054225
1313.8866,0.054670
1314.8184,0.055010
1315.7503,0.054995
1316.6821,0.054713
1317.6139,0.055017
1318.5458,0.055543
1319.4776,0.055681
1320.4094,0.055966
1321.3413,0.055988
1322.2731,0.055604
1323.2049,0.055657
1324.1368,0.056075
1325.0686,0.056136
1326.0004,0.055997
1326.9323,0.055948
1327.8641,0.055868
1328.7959,0.055881
1329.7278,0.055782
1330.6596,0.055570
1331.5914,0.055507
1332.5233,0.055338
1333.4551,0.055175
1334.3869,0.054838
1335.3188,0.054327
1336.2506,0.053857
1337.1824,0.053654
1338.1143,0.053623
1339.0461,0.053303
1339.9780,0.053207
1340.9098,0.053453
1341.8416,0.053366
1342.7735,0.052624
1343.7053,0.051932
1344.6371,0.051654
1345.5690,0.051539
1346.5008,0.051184
1347.4326,0.050568
1348.3645,0.050111
1349.2963,0.049954
1350.2281,0.049941
1351.1600,0.049811
1352.0918,0.049641
1353.0236,0.049627
1353.9555,0.049686
1354.8873,0.049578
1355.8191,0.049388
1356.7510,0.049239
1357.6828,0.048883
1358.6146,0.048667
1359.5465,0.048794
1360.4783,0.048922
1361.4101,0.049128
1362.3420,0.049639
1363.2738,0.050346
1364.2056,0.051310
1365.1375,0.051228
1366.0693,0.050679
1367.0012,0.050831
1367.9330,0.051404
1368.8648,0.052210
1369.7967,0.053032
1370.7285,0.053754
1371.6603,0.054289
1372.5922,0.054907
1373.5240,0.055977
1374.4558,0.057911
1375.3877,0.060400
1376.3195,0.061827
1377.2513,0.061975
1378.1832,0.062068
1379.1150,0.062663
1380.0468,0.063453
1380.9787,0.064039
1381.9105,0.064370
1382.8423,0.064720
1383.7742,0.064626
1384.7060,0.064166
1385.6378,0.063975
1386.5697,0.064293
1387.5015,0.064998
1388.4333,0.065832
1389.3652,0.065288
1390.2970,0.063826
1391.2288,0.062874
1392.1607,0.062336
1393.0925,0.061732
1394.0244,0.061014
1394.9562,0.060937
1395.8880,0.061886
1396.8199,0.062253
1397.7517,0.062051
1398.6835,0.062080
1399.6154,0.062701
1400.5472,0.063353
1401.4790,0.062690
1402.4109,0.061828
1403.3427,0.061985
1404.2745,0.062523
1405.2064,0.063197
1406.1382,0.064077
1407.0700,0.064005
1408.0019,0.063275
1408.9337,0.062990
1409.8655,0.063203
1410.7974,0.063751
1411.7292,0.064141
1412.6610,0.064144
1413.5929,0.063924
1414.5247,0.063387
1415.4565,0.062877
1416.3884,0.062570
1417.3202,0.062425
1418.2520,0.062910
1419.1839,0.064033
1420.1157,0.065509
1421.0476,0.065528
1421.9794,0.063777
1422.9112,0.062485
1423.8431,0.062433
1424.7749,0.063080
1425.7067,0.062772
1426.6386,0.061662
1427.5704,0.060647
1428.5022,0.060002
1429.4341,0.059699
1430.3659,0.059867
1431.2977,0.060061
1432.2296,0.059145
1433.1614,0.057707
1434.0932,0.056851
1435.0251,0.056601
1435.9569,0.056203
1436.8887,0.056614
1437.8206,0.058237
1438.7524,0.057863
1439.6842,0.056441
1440.6161,0.055726
1441.5479,0.055521
1442.4797,0.055510
1443.4116,0.055643
1444.3434,0.055930
1445.2752,0.056071
1446.2071,0.056549
1447.1389,0.057516
1448.0707,0.058657
1449.0026,0.060738
1449.9344,0.061786
1450.8663,0.061278
1451.7981,0.061000
1452.7299,0.061037
1453.6618,0.060690
1454.5936,0.059960
1455.5254,0.059406
1456.4573,0.059118
1457.3891,0.059819
1458.3209,0.060307
1459.2528,0.059014
1460.1846,0.057065
1461.1164,0.054641
1462.0483,0.052412
1462.9801,0.050917
1463.9119,0.050040
1464.8438,0.049427
1465.7756,0.049599
1466.7074,0.049340
1467.6393,0.047745
1468.5711,0.046555
1469.5029,0.045866
1470.4348,0.045140
1471.3666,0.044505
1472.2984,0.044451
1473.2303,0.045678
1474.1621,0.047036
1475.0939,0.046600
1476.0258,0.045618
1476.9576,0.045737
1477.8895,0.046436
1478.8213,0.046024
1479.7531,0.045594
1480.6850,0.045643
1481.6168,0.045844
1482.5486,0.046193
1483.4805,0.046176
1484.4123,0.045863
1485.3441,0.045370
1486.2760,0.044848
1487.2078,0.044857
1488.1396,0.045148
1489.0715,0.045030
1490.0033,0.044897
1490.9351,0.045256
1491.8670,0.044913
1492.7988,0.043598
1493.7306,0.042480
1494.6625,0.041859
1495.5943,0.041546
1496.5261,0.041522
1497.4580,0.042226
1498.3898,0.042326
1499.3216,0.041803
1500.2535,0.041926
1501.1853,0.041533
1502.1171,0.040692
1503.0490,0.040283
1503.9808,0.039737
1504.9127,0.038780
1505.8445,0.038564
1506.7763,0.040744
1507.7082,0.044138
1508.6400,0.044221
1509.5718,0.042855
1510.5037,0.041690
1511.4355,0.040724
1512.3673,0.040086
1513.2992,0.040334
1514.2310,0.040623
1515.1628,0.040242
1516.0947,0.039859
1517.0265,0.039511
1517.9583,0.040147
1518.8902,0.040413
1519.8220,0.039209
1520.7538,0.039271
1521.6857,0.040698
1522.6175,0.041257
1523.5493,0.041092
1524.4812,0.041324
1525.4130,0.041538
1526.3448,0.041688
1527.2767,0.041809
1528.2085,0.041951
1529.1403,0.042437
1530.0722,0.042552
1531.0040,0.041548
1531.9359,0.040617
1532.8677,0.041036
1533.7995,0.042360
1534.7314,0.043582
1535.6632,0.043068
1536.5950,0.041645
1537.5269,0.040719
1538.4587,0.039763
1539.3905,0.039796
1540.3224,0.042976
1541.2542,0.045263
1542.1860,0.044834
1543.1179,0.045073
1544.0497,0.044431
1544.9815,0.043552
1545.9134,0.043879
1546.8452,0.044460
1547.7770,0.044138
1548.7089,0.043817
1549.6407,0.043968
1550.5725,0.044527
1551.5044,0.045110
1552.4362,0.044576
1553.3680,0.043610
1554.2999,0.043257
1555.2317,0.043827
1556.1635,0.044285
1557.0954,0.043806
1558.0272,0.044114
1558.9591,0.047108
1559.8909,0.052007
1560.8227,0.052589
1561.7546,0.051123
1562.6864,0.048994
1563.6182,0.047558
1564.5501,0.047155
1565.4819,0.047653
1566.4137,0.048588
1567.3456,0.048702
1568.2774,0.048477
1569.2092,0.048679
1570.1411,0.050227
1571.0729,0.051940
1572.0047,0.051512
1572.9366,0.050679
1573.8684,0.050471
1574.8002,0.050783
1575.7321,0.051335
1576.6639,0.053360
1577.5957,0.057245
1578.5276,0.057503
1579.4594,0.055800
1580.3912,0.055447
1581.3231,0.056145
1582.2549,0.056856
1583.1867,0.057508
1584.1186,0.057950
1585.0504,0.058766
1585.9822,0.059896
1586.9141,0.060426
1587.8459,0.060733
1588.7778,0.061267
1589.7096,0.062116
1590.6414,0.063125
1591.5733,0.063993
1592.5051,0.065081
1593.4369,0.066288
1594.3688,0.067774
1595.3006,0.069372
1596.2324,0.070417
1597.1643,0.071105
1598.0961,0.072023
1599.0279,0.073005
1599.9598,0.074326
1600.8916,0.075860
1601.8234,0.077055
1602.7553,0.078682
1603.6871,0.080504
1604.6189,0.081748
1605.5508,0.082928
1606.4826,0.084180
1607.4144,0.085479
1608.3463,0.087595
1609.2781,0.090046
1610.2099,0.092130
1611.1418,0.093864
1612.0736,0.094761
1613.0054,0.095525
1613.9373,0.097366
1614.8691,0.099602
1615.8010,0.101192
1616.7328,0.103925
1617.6646,0.110229
1618.5965,0.114663
1619.5283,0.113122
1620.4601,0.112661
1621.3920,0.114132
1622.3238,0.116125
1623.2556,0.118463
1624.1875,0.122823
1625.1193,0.127470
1626.0511,0.127862
1626.9830,0.128053
1627.9148,0.129862
1628.8466,0.132925
1629.7785,0.135201
1630.7103,0.134512
1631.6421,0.133511
1632.5740,0.133475
1633.5058,0.134110
1634.4376,0.134790
1635.3695,0.137127
1636.3013,0.144745
1637.2331,0.150431
1638.1650,0.147285
1639.0968,0.145302
1640.0286,0.144368
1640.9605,0.142850
1641.8923,0.141315
1642.8242,0.140412
1643.7560,0.139861
1644.6878,0.138605
1645.6197,0.137798
1646.5515,0.139951
1647.4833,0.143066
1648.4152,0.142260
1649.3470,0.138901
1650.2788,0.135025
1651.2107,0.131797
1652.1425,0.130540
1653.0743,0.133181
1654.0062,0.140656
1654.9380,0.141602
1655.8698,0.135804
1656.8017,0.131164
1657.7335,0.128055
1658.6653,0.125416
1659.5972,0.123234
1660.5290,0.121787
1661.4608,0.120416
1662.3927,0.118370
1663.3245,0.117455
1664.2563,0.117051
1665.1882,0.114912
1666.1200,0.111986
1667.0518,0.109101
1667.9837,0.107016
1668.9155,0.106014
1669.8474,0.106079
1670.7792,0.106226
1671.7110,0.103737
1672.6429,0.100990
1673.5747,0.098624
1674.5065,0.096079
1675.4384,0.094492
1676.3702,0.094185
1677.3020,0.092997
1678.2339,0.090435
1679.1657,0.088050
1680.0975,0.086037
1681.0294,0.083963
1681.9612,0.082843
1682.8930,0.081278
1683.8249,0.079561
1684.7567,0.079072
1685.6885,0.078416
1686.6204,0.076207
1687.5522,0.073872
1688.4840,0.071839
1689.4159,0.070716
1690.3477,0.069373
1691.2795,0.067623
1692.2114,0.066260
1693.1432,0.064616
1694.0750,0.062408
1695.0069,0.060460
1695.9387,0.059224
1696.8706,0.058245
1697.8024,0.057136
1698.7342,0.056068
1699.6661,0.054997
1700.5979,0.053930
1701.5297,0.053841
1702.4616,0.052541
1703.3934,0.050017
1704.3252,0.048210
1705.2571,0.047551
1706.1889,0.047170
1707.1207,0.046420
1708.0526,0.045618
1708.9844,0.044322
1709.9162,0.043117
1710.8481,0.041896
1711.7799,0.040912
1712.7117,0.039941
1713.6436,0.038777
1714.5754,0.037914
1715.5072,0.037055
1716.4391,0.036703
1717.3709,0.036752
1718.3027,0.036818
1719.2346,0.036573
1720.1664,0.035564
1721.0982,0.034593
1722.0301,0.033464
1722.9619,0.032243
1723.8937,0.031413
1724.8256,0.031404
1725.7574,0.030877
1726.6893,0.029830
1727.6211,0.029186
1728.5529,0.028759
1729.4848,0.028204
1730.4166,0.027407
1731.3484,0.026623
1732.2803,0.026429
1733.2121,0.026145
1734.1439,0.025583
1735.0758,0.025788
1736.0076,0.025686
1736.9394,0.024887
1737.8713,0.024645
1738.8031,0.024401
1739.7349,0.023995
1740.6668,0.023559
1741.5986,0.023032
1742.5304,0.022430
1743.4623,0.022410
1744.3941,0.022352
1745.3259,0.021976
1746.2578,0.021618
1747.1896,0.021317
1748.1214,0.021141
1749.0533,0.021019
1749.9851,0.020844
1750.9169,0.020782
1751.8488,0.020754
1752.7806,0.020435
1753.7125,0.019789
1754.6443,0.019632
1755.5761,0.019506
1756.5080,0.019113
1757.4398,0.018883
1758.3716,0.018667
1759.3035,0.018102
1760.2353,0.017344
1761.1671,0.017380
1762.0990,0.017618
1763.0308,0.017190
1763.9626,0.016932
1764.8945,0.016667
1765.8263,0.016343
1766.7581,0.016199
1767.6900,0.016747
1768.6218,0.016842
1769.5536,0.016028
1770.4855,0.015641
1771.4173,0.015478
1772.3491,0.015155
1773.2810,0.015107
1774.2128,0.015103
1775.1446,0.014670
1776.0765,0.014741
1777.0083,0.015137
1777.9401,0.014698
1778.8720,0.014423
1779.8038,0.014443
1780.7357,0.014313
1781.6675,0.014168
1782.5993,0.014051
1783.5312,0.013580
1784.4630,0.013756
1785.3948,0.014268
1786.3267,0.014032
1787.2585,0.013466
1788.1903,0.013219
1789.1222,0.013184
1790.0540,0.013332
1790.9858,0.013421
1791.9177,0.013708
1792.8495,0.013702
1793.7813,0.013135
1794.7132,0.012482
1795.6450,0.012066
1796.5768,0.012184
1797.5087,0.012570
1798.4405,0.012604
1799.3723,0.012500
1800.3042,0.012108
1801.2360,0.011887
1802.1678,0.012292
1803.0997,0.012738
1804.0315,0.012634
1804.9633,0.012396
1805.8952,0.012113
1806.8270,0.011930
1807.7589,0.012046
1808.6907,0.011843
1809.6225,0.011510
1810.5544,0.011673
1811.4862,0.011674
1812.4180,0.011184
1813.3499,0.011113
1814.2817,0.011892
1815.2135,0.012010
1816.1454,0.011741
1817.0772,0.011432
1818.0090,0.011253
1818.9409,0.011151
1819.8727,0.010820
1820.8045,0.010493
1821.7364,0.010480
1822.6682,0.010683
1823.6000,0.010753
1824.5319,0.010309
1825.4637,0.010579
1826.3955,0.011119
1827.3274,0.010883
1828.2592,0.010910
1829.1910,0.010672
1830.1229,0.010672
1831.0547,0.010829
1831.9865,0.010642
1832.9184,0.010457
1833.8502,0.010084
1834.7821,0.009580
1835.7139,0.009576
1836.6457,0.010161
1837.5776,0.010188
1838.5094,0.009701
1839.4412,0.009151
1840.3731,0.009507
1841.3049,0.009679
1842.2367,0.010165
1843.1686,0.010659
1844.1004,0.010397
1845.0322,0.009463
1845.9641,0.008700
1846.8959,0.008709
1847.8277,0.008881
1848.7596,0.008577
1849.6914,0.008818
1850.6232,0.008888
1851.5551,0.009424
1852.4869,0.010131
1853.4187,0.009663
1854.3506,0.009068
1855.2824,0.009282
1856.2142,0.009184
1857.1461,0.009415
1858.0779,0.009391
1859.0097,0.009616
1859.9416,0.010047
1860.8734,0.009844
1861.8052,0.009657
1862.7371,0.009243
1863.6689,0.009127
1864.6008,0.009679
1865.5326,0.009719
1866.4644,0.010012
1867.3963,0.010253
1868.3281,0.010257
1869.2599,0.010192
1870.1918,0.009490
1871.1236,0.008978
1872.0554,0.009330
1872.9873,0.009550
1873.9191,0.009190
1874.8509,0.008749
1875.7828,0.008421
1876.7146,0.008467
1877.6464,0.008321
1878.5783,0.008736
1879.5101,0.008852
1880.4419,0.008199
1881.3738,0.008516
1882.3056,0.009242
1883.2374,0.008438
1884.1693,0.007605
1885.1011,0.007950
1886.0329,0.008858
1886.9648,0.008865
1887.8966,0.008570
1888.8284,0.008505
1889.7603,0.008945
1890.6921,0.009734
1891.6240,0.009931
1892.5558,0.008800
1893.4876,0.008245
1894.4195,0.008328
1895.3513,0.009177
1896.2831,0.009228
1897.2150,0.008920
1898.1468,0.009795
1899.0786,0.010335
1900.0105,0.010036
1900.9423,0.008776
1901.8741,0.008467
1902.8060,0.009263
1903.7378,0.009188
1904.6696,0.008479
1905.6015,0.008823
1906.5333,0.009816
1907.4651,0.010030
1908.3970,0.009094
1909.3288,0.008482
1910.2606,0.010000
1911.1925,0.010882
1912.1243,0.009693
1913.0561,0.008798
1913.9880,0.009220
1914.9198,0.009288
1915.8516,0.008471
1916.7835,0.008529
1917.7153,0.008434
1918.6472,0.009164
1919.5790,0.009254
1920.5108,0.008514
1921.4427,0.008949
1922.3745,0.010034
1923.3063,0.010114
1924.2382,0.009799
1925.1700,0.009636
1926.1018,0.008206
1927.0337,0.007649
1927.9655,0.008349
1928.8973,0.009427
1929.8292,0.009693
1930.7610,0.009082
1931.6928,0.008904
1932.6247,0.008644
1933.5565,0.008303
1934.4883,0.007703
1935.4202,0.007739
1936.3520,0.007082
1937.2838,0.006200
1938.2157,0.006442
1939.1475,0.006473
1940.0793,0.007119
1941.0112,0.007486
1941.9430,0.006088
1942.8748,0.007396
1943.8067,0.008941
1944.7385,0.008509
1945.6704,0.006820
1946.6022,0.005191
1947.5340,0.005273
1948.4659,0.007101
1949.3977,0.005870
1950.3295,0.004957
1951.2614,0.006761
1952.1932,0.006264
1953.1250,0.005796
1954.0569,0.006069
1954.9887,0.004736
1955.9205,0.004228
1956.8524,0.005539
1957.7842,0.004764
1958.7160,0.004576
1959.6479,0.007776
1960.5797,0.008113
1961.5115,0.006442
1962.4434,0.007427
1963.3752,0.007240
1964.3070,0.003264
1965.2389,0.004038
1966.1707,0.007554
1967.1025,0.005686
1968.0344,0.006632
1968.9662,0.007642
1969.8980,0.006494
1970.8299,0.005555
1971.7617,0.004364
1972.6936,0.003849
1973.6254,0.003287
1974.5572,0.001921
1975.4891,0.000800
1976.4209,0.001680
1977.3527,0.005621
1978.2846,0.005455
1979.2164,0.001783
1980.1482,0.003800
1981.0801,0.004728
1982.0119,0.004875
1982.9437,0.006282
1983.8756,0.005480
1984.8074,0.006409
1985.7392,0.006236
1986.6711,0.005646
1987.6029,0.004775
1988.5347,0.008257
1989.4666,0.008491
1990.3984,0.005129
1991.3302,0.003780
1992.2621,0.004683
1993.1939,0.006359
1994.1257,0.006864
1995.0576,0.006218
1995.9894,0.004894
1996.9212,0.003711
1997.8531,0.002993
1998.7849,0.003631
1999.7167,0.004478
2000.6486,0.004634
2001.5804,0.006367
2002.5123,0.005943
2003.4441,0.004409
2004.3759,0.006309
2005.3078,0.006079
2006.2396,0.004694
2007.1714,0.005332
2008.1033,0.007562
2009.0351,0.007779
2009.9669,0.006452
2010.8988,0.004531
2011.8306,0.005432
2012.7624,0.007371
2013.6943,0.007768
2014.6261,0.005746
2015.5579,0.006696
2016.4898,0.008067
2017.4216,0.006323
2018.3534,0.006344
2019.2853,0.010204
2020.2171,0.011792
2021.1489,0.008335
2022.0808,0.006116
2023.0126,0.006386
2023.9444,0.005519
2024.8763,0.003438
2025.8081,0.003523
2026.7399,0.003047
2027.6718,0.005282
2028.6036,0.007211
2029.5355,0.005179
2030.4673,0.006483
2031.3991,0.006992
2032.3310,0.005953
2033.2628,0.003154
2034.1946,0.001975
2035.1265,0.003381
2036.0583,0.006347
2036.9901,0.007496
2037.9220,0.006820
2038.8538,0.004065
2039.7856,0.002252
2040.7175,0.003574
2041.6493,0.006450
2042.5811,0.007098
2043.5130,0.006864
2044.4448,0.008103
2045.3766,0.009440
2046.3085,0.009488
2047.2403,0.008501
2048.1721,0.005177
2049.1040,0.007707
2050.0358,0.010881
2050.9676,0.010655
2051.8995,0.010733
2052.8313,0.010130
2053.7631,0.009907
2054.6950,0.010855
2055.6268,0.012619
2056.5587,0.010384
2057.4905,0.007926
2058.4223,0.008636
2059.3542,0.009978
2060.2860,0.010769
2061.2178,0.010231
2062.1497,0.009950
2063.0815,0.009710
2064.0133,0.010453
2064.9452,0.011978
2065.8770,0.011742
2066.8088,0.011814
2067.7407,0.013535
2068.6725,0.013523
2069.6043,0.012865
2070.5362,0.011969
2071.4680,0.011507
2072.3998,0.010638
2073.3317,0.012437
2074.2635,0.012673
2075.1953,0.011244
2076.1272,0.012397
2077.0590,0.012657
2077.9908,0.011671
2078.9227,0.010916
2079.8545,0.012391
2080.7863,0.012929
2081.7182,0.012220
2082.6500,0.012318
2083.5819,0.012967
2084.5137,0.013378
2085.4455,0.012808
2086.3774,0.012549
2087.3092,0.012193
2088.2410,0.011357
2089.1729,0.011796
2090.1047,0.012637
2091.0365,0.013643
2091.9684,0.014909
2092.9002,0.014202
2093.8320,0.014643
2094.7639,0.014308
2095.6957,0.013942
2096.6275,0.013128
2097.5594,0.012300
2098.4912,0.012986
2099.4230,0.013615
2100.3549,0.015207
2101.2867,0.013273
2102.2185,0.011384
2103.1504,0.012878
2104.0822,0.013786
2105.0140,0.013527
2105.9459,0.014262
2106.8777,0.013854
2107.8095,0.013244
2108.7414,0.014650
2109.6732,0.013534
2110.6051,0.011587
2111.5369,0.011389
2112.4687,0.011942
2113.4006,0.013224
2114.3324,0.015285
2115.2642,0.015502
2116.1961,0.015349
2117.1279,0.015249
2118.0597,0.014531
2118.9916,0.013621
2119.9234,0.013646
2120.8552,0.013906
2121.7871,0.013936
2122.7189,0.013161
2123.6507,0.011755
2124.5826,0.013075
2125.5144,0.014134
2126.4462,0.014908
2127.3781,0.014216
2128.3099,0.012273
2129.2417,0.013503
2130.1736,0.015005
2131.1054,0.015364
2132.0372,0.013765
2132.9691,0.012516
2133.9009,0.011093
2134.8327,0.010361
2135.7646,0.011381
2136.6964,0.010305
2137.6282,0.011109
2138.5601,0.012161
2139.4919,0.011827
2140.4238,0.010196
2141.3556,0.009239
2142.2874,0.009472
2143.2193,0.009561
2144.1511,0.008748
2145.0829,0.010332
2146.0148,0.011192
2146.9466,0.009347
2147.8784,0.008845
2148.8103,0.009889
2149.7421,0.011422
2150.6739,0.011924
2151.6058,0.012475
2152.5376,0.011405
2153.4694,0.008436
2154.4013,0.005679
2155.3331,0.004393
2156.2649,0.002599
2157.1968,0.005143
2158.1286,0.010985
2159.0604,0.008915
2159.9923,0.005305
2160.9241,0.004250
2161.8559,0.006061
2162.7878,0.009025
2163.7196,0.012638
2164.6514,0.010266
2165.5833,0.006719
2166.5151,0.006184
2167.4470,0.006828
2168.3788,0.007170
2169.3106,0.007434
2170.2425,0.009420
2171.1743,0.010737
2172.1061,0.008937
2173.0380,0.009044
2173.9698,0.008964
2174.9016,0.006755
2175.8335,0.007453
2176.7653,0.006968
2177.6971,0.004958
2178.6290,0.005947
2179.5608,0.007012
2180.4926,0.007346
2181.4245,0.009571
2182.3563,0.008109
2183.2881,0.007074
2184.2200,0.008270
2185.1518,0.008701
2186.0836,0.008594
2187.0155,0.007406
2187.9473,0.006116
2188.8791,0.006353
2189.8110,0.007601
2190.7428,0.007820
2191.6746,0.006513
2192.6065,0.007449
2193.5383,0.009933
2194.4702,0.009227
2195.4020,0.007347
2196.3338,0.006435
2197.2657,0.006577
2198.1975,0.008369
2199.1293,0.009203
2200.0612,0.010679
2200.9930,0.011601
2201.9248,0.009459
2202.8567,0.009021
2203.7885,0.009514
2204.7203,0.008181
2205.6522,0.007677
2206.5840,0.006973
2207.5158,0.005549
2208.4477,0.007448
2209.3795,0.009628
2210.3113,0.009008
2211.2432,0.007836
2212.1750,0.008550
2213.1068,0.008714
2214.0387,0.007817
2214.9705,0.007496
2215.9023,0.008212
2216.8342,0.011070
2217.7660,0.011879
2218.6978,0.010867
2219.6297,0.011255
2220.5615,0.010575
2221.4934,0.008453
2222.4252,0.005986
2223.3570,0.005965
2224.2889,0.009720
2225.2207,0.011110
2226.1525,0.010064
2227.0844,0.009916
2228.0162,0.009444
2228.9480,0.008086
2229.8799,0.007768
2230.8117,0.007300
2231.7435,0.007927
2232.6754,0.008877
2233.6072,0.008013
2234.5390,0.008862
2235.4709,0.009572
2236.4027,0.008081
2237.3345,0.008099
2238.2664,0.008249
2239.1982,0.007215
2240.1300,0.007704
2241.0619,0.009546
2241.9937,0.010552
2242.9255,0.009911
2243.8574,0.010181
2244.7892,0.011065
2245.7210,0.010570
2246.6529,0.010917
2247.5847,0.009659
2248.5166,0.008123
2249.4484,0.008352
2250.3802,0.008829
2251.3121,0.010129
2252.2439,0.009939
2253.1757,0.008955
2254.1076,0.009557
2255.0394,0.009835
2255.9712,0.008231
2256.9031,0.007829
2257.8349,0.008901
2258.7667,0.009339
2259.6986,0.009303
2260.6304,0.009657
2261.5622,0.010388
2262.4941,0.010197
2263.4259,0.009009
2264.3577,0.008967
2265.2896,0.008833
2266.2214,0.007976
2267.1532,0.008537
2268.0851,0.009056
2269.0169,0.008313
2269.9487,0.008484
2270.8806,0.008962
2271.8124,0.008458
2272.7442,0.008073
2273.6761,0.008417
2274.6079,0.009471
2275.5397,0.010156
2276.4716,0.011854
2277.4034,0.012681
2278.3353,0.010490
2279.2671,0.008686
2280.1989,0.008764
2281.1308,0.008463
2282.0626,0.008329
2282.9944,0.008156
2283.9263,0.008563
2284.8581,0.009763
2285.7899,0.009668
2286.7218,0.008279
2287.6536,0.008051
2288.5854,0.009406
2289.5173,0.010744
2290.4491,0.010070
2291.3809,0.009199
2292.3128,0.009037
2293.2446,0.009112
2294.1764,0.009478
2295.1083,0.010018
2296.0401,0.010167
2296.9719,0.009518
2297.9038,0.009229
2298.8356,0.009245
2299.7674,0.009258
2300.6993,0.009498
2301.6311,0.009937
2302.5629,0.009415
2303.4948,0.009078
2304.4266,0.009587
2305.3585,0.009362
2306.2903,0.009125
2307.2221,0.009589
2308.1540,0.010036
2309.0858,0.009478
2310.0176,0.008848
2310.9495,0.009291
2311.8813,0.009392
2312.8131,0.008330
2313.7450,0.007793
2314.6768,0.008301
2315.6086,0.008651
2316.5405,0.008656
2317.4723,0.008877
2318.4041,0.008566
2319.3360,0.008867
2320.2678,0.009118
2321.1996,0.008888
2322.1315,0.009004
2323.0633,0.008508
2323.9951,0.008559
2324.9270,0.009623
2325.8588,0.010058
2326.7906,0.009412
2327.7225,0.008396
2328.6543,0.008686
2329.5861,0.009028
2330.5180,0.008814
2331.4498,0.009016
2332.3817,0.009309
2333.3135,0.009989
2334.2453,0.009436
2335.1772,0.008189
2336.1090,0.008362
2337.0408,0.009003
2337.9727,0.008600
2338.9045,0.007825
2339.8363,0.007710
2340.7682,0.007227
2341.7000,0.007502
2342.6318,0.008399
2343.5637,0.007943
2344.4955,0.007105
2345.4273,0.007124
2346.3592,0.007638
2347.2910,0.008574
2348.2228,0.008860
2349.1547,0.008371
2350.0865,0.008637
2351.0183,0.009332
2351.9502,0.009392
2352.8820,0.008998
2353.8138,0.008996
2354.7457,0.009085
2355.6775,0.008683
2356.6093,0.008325
2357.5412,0.008270
2358.4730,0.007500
2359.4049,0.006240
2360.3367,0.006164
2361.2685,0.006551
2362.2004,0.006573
2363.1322,0.007709
2364.0640,0.008304
2364.9959,0.007020
2365.9277,0.006293
2366.8595,0.006341
2367.7914,0.005957
2368.7232,0.006141
2369.6550,0.007441
2370.5869,0.007709
2371.5187,0.006903
2372.4505,0.006705
2373.3824,0.007013
2374.3142,0.006841
2375.2460,0.006329
2376.1779,0.006469
2377.1097,0.007049
2378.0415,0.006915
2378.9734,0.006751
2379.9052,0.007761
2380.8370,0.008637
2381.7689,0.008628
2382.7007,0.008046
2383.6325,0.007449
2384.5644,0.006987
2385.4962,0.006664
2386.4281,0.007051
2387.3599,0.007528
2388.2917,0.007729
2389.2236,0.007819
2390.1554,0.007597
2391.0872,0.007591
2392.0191,0.007855
2392.9509,0.007378
2393.8827,0.006188
2394.8146,0.005950
2395.7464,0.006381
2396.6782,0.006834
2397.6101,0.007105
2398.5419,0.007080
2399.4737,0.007134
2400.4056,0.007004
2401.3374,0.007210
2402.2692,0.007555
2403.2011,0.006991
2404.1329,0.006217
2405.0647,0.006201
2405.9966,0.006933
2406.9284,0.007504
2407.8602,0.006826
2408.7921,0.006480
2409.7239,0.007073
2410.6557,0.007247
2411.5876,0.006958
2412.5194,0.006651
2413.4512,0.006909
2414.3831,0.007398
2415.3149,0.006934
2416.2468,0.006205
2417.1786,0.006328
2418.1104,0.007035
2419.0423,0.006944
2419.9741,0.005869
2420.9059,0.005249
2421.8378,0.005212
2422.7696,0.006069
2423.7014,0.007251
2424.6333,0.007160
2425.5651,0.006019
2426.4969,0.005762
2427.4288,0.006197
2428.3606,0.006440
2429.2924,0.007043
2430.2243,0.006872
2431.1561,0.005902
2432.0879,0.005341
2433.0198,0.005354
2433.9516,0.005352
2434.8834,0.005571
2435.8153,0.006121
2436.7471,0.005957
2437.6789,0.005557
2438.6108,0.005674
2439.5426,0.006264
2440.4744,0.006829
2441.4063,0.006215
2442.3381,0.005001
2443.2700,0.004186
2444.2018,0.004236
2445.1336,0.005191
2446.0655,0.005559
2446.9973,0.005368
2447.9291,0.005469
2448.8610,0.004998
2449.7928,0.004571
2450.7246,0.005162
2451.6565,0.005526
2452.5883,0.006076
2453.5201,0.006686
2454.4520,0.006136
2455.3838,0.005212
2456.3156,0.004637
2457.2475,0.005253
2458.1793,0.006107
2459.1111,0.006220
2460.0430,0.006441
2460.9748,0.006259
2461.9066,0.006071
2462.8385,0.006295
2463.7703,0.006397
2464.7021,0.006271
2465.6340,0.006453
2466.5658,0.006947
2467.4976,0.006457
2468.4295,0.005231
2469.3613,0.005271
2470.2932,0.006162
2471.2250,0.005772
2472.1568,0.005618
2473.0887,0.005377
2474.0205,0.004578
2474.9523,0.004866
2475.8842,0.005084
2476.8160,0.005039
2477.7478,0.005074
2478.6797,0.004716
2479.6115,0.004984
2480.5433,0.005892
2481.4752,0.006214
2482.4070,0.005444
2483.3388,0.004631
2484.2707,0.005389
2485.2025,0.005643
2486.1343,0.004972
2487.0662,0.005190
2487.9980,0.005177
2488.9298,0.004341
2489.8617,0.004092
2490.7935,0.004807
2491.7253,0.005463
2492.6572,0.005711
2493.5890,0.005778
2494.5208,0.005300
2495.4527,0.004959
2496.3845,0.004536
2497.3164,0.004254
2498.2482,0.005460
2499.1800,0.005904
2500.1119,0.005146
2501.0437,0.005452
2501.9755,0.006282
2502.9074,0.006013
2503.8392,0.005540
2504.7710,0.006173
2505.7029,0.006531
2506.6347,0.005423
2507.5665,0.004557
2508.4984,0.004657
2509.4302,0.005089
2510.3620,0.005627
2511.2939,0.005504
2512.2257,0.005282
2513.1575,0.004915
2514.0894,0.003919
2515.0212,0.003925
2515.9530,0.004919
2516.8849,0.005631
2517.8167,0.005491
2518.7485,0.005149
2519.6804,0.005582
2520.6122,0.005935
2521.5440,0.006104
2522.4759,0.005477
2523.4077,0.004920
2524.3396,0.005024
2525.2714,0.004378
2526.2032,0.003801
2527.1351,0.004023
2528.0669,0.004515
2528.9987,0.005249
2529.9306,0.005460
2530.8624,0.005039
2531.7942,0.004551
2532.7261,0.004183
2533.6579,0.005122
2534.5897,0.005941
2535.5216,0.005361
2536.4534,0.004478
2537.3852,0.004170
2538.3171,0.004366
2539.2489,0.005264
2540.1807,0.005344
2541.1126,0.005148
2542.0444,0.005752
2542.9762,0.005880
2543.9081,0.006021
2544.8399,0.006067
2545.7717,0.005318
2546.7036,0.005037
2547.6354,0.005774
2548.5672,0.006718
2549.4991,0.006814
2550.4309,0.005502
2551.3627,0.004626
2552.2946,0.005274
2553.2264,0.005238
2554.1583,0.004785
2555.0901,0.005332
2556.0219,0.005361
2556.9538,0.004829
2557.8856,0.005083
2558.8174,0.005303
2559.7493,0.005117
2560.6811,0.005236
2561.6129,0.004798
2562.5448,0.004484
2563.4766,0.005077
2564.4084,0.005465
2565.3403,0.004888
2566.2721,0.003943
2567.2039,0.003609
2568.1358,0.003639
2569.0676,0.003878
2569.9994,0.003535
2570.9313,0.003525
2571.8631,0.004194
2572.7949,0.003982
2573.7268,0.004141
2574.6586,0.005048
2575.5904,0.005011
2576.5223,0.004395
2577.4541,0.004500
2578.3859,0.004892
2579.3178,0.004899
2580.2496,0.004208
2581.1815,0.003686
2582.1133,0.003881
2583.0451,0.004179
2583.9770,0.004914
2584.9088,0.004894
2585.8406,0.003991
2586.7725,0.004272
2587.7043,0.004844
2588.6361,0.004934
2589.5680,0.005129
2590.4998,0.005032
2591.4316,0.004516
2592.3635,0.004588
2593.2953,0.005171
2594.2271,0.005418
2595.1590,0.004975
2596.0908,0.004586
2597.0226,0.004665
2597.9545,0.004867
2598.8863,0.004513
2599.8181,0.004411
2600.7500,0.004672
2601.6818,0.004487
2602.6136,0.004829
2603.5455,0.005527
2604.4773,0.004893
2605.4091,0.004792
2606.3410,0.005492
2607.2728,0.005358
2608.2047,0.005165
2609.1365,0.004908
2610.0683,0.004628
2611.0002,0.005388
2611.9320,0.005624
2612.8638,0.004713
2613.7957,0.004630
2614.7275,0.005092
2615.6593,0.004927
2616.5912,0.004983
2617.5230,0.005204
2618.4548,0.005231
2619.3867,0.005626
2620.3185,0.005945
2621.2503,0.005790
2622.1822,0.006022
2623.1140,0.006136
2624.0458,0.005862
2624.9777,0.005318
2625.9095,0.005125
2626.8413,0.005221
2627.7732,0.005233
2628.7050,0.005376
2629.6368,0.005462
2630.5687,0.005456
2631.5005,0.005734
2632.4323,0.005944
2633.3642,0.005994
2634.2960,0.005579
2635.2279,0.005263
2636.1597,0.005493
2637.0915,0.005252
2638.0234,0.004972
2638.9552,0.005402
2639.8870,0.006141
2640.8189,0.006407
2641.7507,0.006043
2642.6825,0.005846
2643.6144,0.006016
2644.5462,0.006286
2645.4780,0.006276
2646.4099,0.006021
2647.3417,0.006124
2648.2735,0.006455
2649.2054,0.006530
2650.1372,0.006307
2651.0690,0.006134
2652.0009,0.006124
2652.9327,0.006072
2653.8645,0.006148
2654.7964,0.006635
2655.7282,0.006575
2656.6600,0.006134
2657.5919,0.006255
2658.5237,0.006483
2659.4555,0.006654
2660.3874,0.006760
2661.3192,0.006940
2662.2511,0.007163
2663.1829,0.006937
2664.1147,0.006741
2665.0466,0.006621
2665.9784,0.006738
2666.9102,0.006938
2667.8421,0.006954
2668.7739,0.007217
2669.7057,0.007302
2670.6376,0.007062
2671.5694,0.006890
2672.5012,0.007078
2673.4331,0.007244
2674.3649,0.007375
2675.2967,0.007300
2676.2286,0.007137
2677.1604,0.006872
2678.0922,0.006612
2679.0241,0.006475
2679.9559,0.006632
2680.8877,0.007061
2681.8196,0.007352
2682.7514,0.007676
2683.6832,0.008145
2684.6151,0.008384
2685.5469,0.008192
2686.4787,0.007990
2687.4106,0.007793
2688.3424,0.007784
2689.2742,0.007839
2690.2061,0.007749
2691.1379,0.007789
2692.0698,0.007692
2693.0016,0.007606
2693.9334,0.007885
2694.8653,0.008412
2695.7971,0.008558
2696.7289,0.008208
2697.6608,0.008367
2698.5926,0.008718
2699.5244,0.008976
2700.4563,0.008746
2701.3881,0.008254
2702.3199,0.008683
2703.2518,0.008870
2704.1836,0.008616
2705.1154,0.008773
2706.0473,0.009159
2706.9791,0.009174
2707.9109,0.008930
2708.8428,0.008727
2709.7746,0.008571
2710.7064,0.009019
2711.6383,0.009146
2712.5701,0.008892
2713.5019,0.008974
2714.4338,0.009335
2715.3656,0.009205
2716.2974,0.009011
2717.2293,0.009140
2718.1611,0.009346
2719.0930,0.009669
2720.0248,0.009852
2720.9566,0.009529
2721.8885,0.009149
2722.8203,0.009140
2723.7521,0.009503
2724.6840,0.009568
2725.6158,0.009418
2726.5476,0.010119
2727.4795,0.010394
2728.4113,0.010245
2729.3431,0.010352
2730.2750,0.011032
2731.2068,0.011054
2732.1386,0.010732
2733.0705,0.010505
2734.0023,0.010128
2734.9341,0.010294
2735.8660,0.010486
2736.7978,0.010606
2737.7296,0.010640
2738.6615,0.010954
2739.5933,0.011137
2740.5251,0.011008
2741.4570,0.010833
2742.3888,0.010800
2743.3206,0.010719
2744.2525,0.010621
2745.1843,0.011136
2746.1162,0.011627
2747.0480,0.011270
2747.9798,0.011118
2748.9117,0.011266
2749.8435,0.011535
2750.7753,0.011938
2751.7072,0.011967
2752.6390,0.011834
2753.5708,0.011577
2754.5027,0.011345
2755.4345,0.011398
2756.3663,0.011495
2757.2982,0.012070
2758.2300,0.012296
2759.1618,0.011655
2760.0937,0.011724
2761.0255,0.011990
2761.9573,0.011805
2762.8892,0.011795
2763.8210,0.012003
2764.7528,0.011769
2765.6847,0.011542
2766.6165,0.011686
2767.5483,0.011312
2768.4802,0.011577
2769.4120,0.012393
2770.3438,0.012439
2771.2757,0.012000
2772.2075,0.012358
2773.1394,0.012594
2774.0712,0.012145
2775.0030,0.011910
2775.9349,0.012279
2776.8667,0.012533
2777.7985,0.012507
2778.7304,0.012741
2779.6622,0.012885
2780.5940,0.013031
2781.5259,0.013322
2782.4577,0.013438
2783.3895,0.013024
2784.3214,0.012792
2785.2532,0.013177
2786.1850,0.013438
2787.1169,0.013205
2788.0487,0.013251
2788.9805,0.013460
2789.9124,0.013683
2790.8442,0.014137
2791.7760,0.014197
2792.7079,0.014544
2793.6397,0.014981
2794.5715,0.015268
2795.5034,0.015684
2796.4352,0.015407
2797.3670,0.014602
2798.2989,0.014791
2799.2307,0.015727
2800.1626,0.015902
2801.0944,0.015552
2802.0262,0.015488
2802.9581,0.015761
2803.8899,0.016226
2804.8217,0.016606
2805.7536,0.016315
2806.6854,0.016170
2807.6172,0.016502
2808.5491,0.016693
2809.4809,0.016974
2810.4127,0.017054
2811.3446,0.017318
2812.2764,0.017848
2813.2082,0.017853
2814.1401,0.017066
2815.0719,0.016737
2816.0037,0.018007
2816.9356,0.018980
2817.8674,0.019008
2818.7992,0.018953
2819.7311,0.018945
2820.6629,0.018979
2821.5947,0.019010
2822.5266,0.019204
2823.4584,0.019495
2824.3902,0.019824
2825.3221,0.019940
2826.2539,0.019719
2827.1857,0.020016
2828.1176,0.020222
2829.0494,0.020672
2829.9813,0.021144
2830.9131,0.021040
2831.8449,0.021212
2832.7768,0.021804
2833.7086,0.022251
2834.6404,0.022326
2835.5723,0.022111
2836.5041,0.021534
2837.4359,0.021945
2838.3678,0.022656
2839.2996,0.022940
2840.2314,0.023108
2841.1633,0.023032
2842.0951,0.022718
2843.0269,0.022715
2843.9588,0.023464
2844.8906,0.024088
2845.8224,0.024217
2846.7543,0.023822
2847.6861,0.023853
2848.6179,0.024075
2849.5498,0.024385
2850.4816,0.025197
2851.4134,0.025504
2852.3453,0.025511
2853.2771,0.025904
2854.2089,0.025831
2855.1408,0.026051
2856.0726,0.026004
2857.0045,0.026400
2857.9363,0.027479
2858.8681,0.027827
2859.8000,0.027753
2860.7318,0.028281
2861.6636,0.028757
2862.5955,0.029367
2863.5273,0.029895
2864.4591,0.030028
2865.3910,0.029894
2866.3228,0.030570
2867.2546,0.031493
2868.1865,0.032187
2869.1183,0.032771
2870.0501,0.033111
2870.9820,0.033060
2871.9138,0.033851
2872.8456,0.035246
2873.7775,0.035521
2874.7093,0.035514
2875.6411,0.036826
2876.5730,0.037862
2877.5048,0.038064
2878.4366,0.038082
2879.3685,0.038874
2880.3003,0.040089
2881.2321,0.040308
2882.1640,0.039900
2883.0958,0.040530
2884.0277,0.040898
2884.9595,0.040748
2885.8913,0.041563
2886.8232,0.041776
2887.7550,0.041809
2888.6868,0.042386
2889.6187,0.042873
2890.5505,0.043315
2891.4823,0.044071
2892.4142,0.044726
2893.3460,0.045350
2894.2778,0.046252
2895.2097,0.046811
2896.1415,0.046335
2897.0733,0.046124
2898.0052,0.046938
2898.9370,0.047382
2899.8688,0.047716
2900.8007,0.048154
2901.7325,0.048568
2902.6643,0.048936
2903.5962,0.048305
2904.5280,0.047973
2905.4598,0.048565
2906.3917,0.049306
2907.3235,0.048875
2908.2553,0.048034
2909.1872,0.048042
2910.1190,0.047777
2911.0509,0.047143
2911.9827,0.046771
2912.9145,0.046346
2913.8464,0.045812
2914.7782,0.045461
2915.7100,0.045357
2916.6419,0.045405
2917.5737,0.044673
2918.5055,0.044665
2919.4374,0.045220
2920.3692,0.045224
2921.3010,0.045124
2922.2329,0.045362
2923.1647,0.045435
2924.0965,0.045176
2925.0284,0.045320
2925.9602,0.045949
2926.8920,0.046779
2927.8239,0.047379
2928.7557,0.047399
2929.6875,0.047527
2930.6194,0.047676
2931.5512,0.048045
2932.4830,0.048127
2933.4149,0.048319
2934.3467,0.048969
2935.2785,0.049172
2936.2104,0.049125
2937.1422,0.049220
2938.0741,0.048794
2939.0059,0.048710
2939.9377,0.048687
2940.8696,0.048435
2941.8014,0.048814
2942.7332,0.048997
2943.6651,0.049276
2944.5969,0.049884
2945.5287,0.049940
2946.4606,0.050614
2947.3924,0.051154
2948.3242,0.050972
2949.2561,0.050417
2950.1879,0.050289
2951.1197,0.050012
2952.0516,0.049691
2952.9834,0.050002
2953.9152,0.050806
2954.8471,0.051089
2955.7789,0.051778
2956.7107,0.052270
2957.6426,0.052436
2958.5744,0.053121
2959.5062,0.053954
2960.4381,0.054305
2961.3699,0.054723
2962.3017,0.055422
2963.2336,0.057165
2964.1654,0.059224
2965.0972,0.060526
2966.0291,0.061954
2966.9609,0.064252
2967.8928,0.066225
2968.8246,0.068475
2969.7564,0.069685
2970.6883,0.071154
2971.6201,0.073854
2972.5519,0.076449
2973.4838,0.079609
2974.4156,0.082372
2975.3474,0.084126
2976.2793,0.086805
2977.2111,0.088907
2978.1429,0.090277
2979.0748,0.091668
2980.0066,0.092938
2980.9384,0.092890
2981.8703,0.093067
2982.8021,0.092417
2983.7339,0.090086
2984.6658,0.088424
2985.5976,0.086573
2986.5294,0.084402
2987.4613,0.082848
2988.3931,0.080290
2989.3249,0.077139
2990.2568,0.074532
2991.1886,0.073088
2992.1204,0.071509
2993.0523,0.069497
2993.9841,0.067730
2994.9160,0.065875
2995.8478,0.063910
2996.7796,0.062155
2997.7115,0.061697
2998.6433,0.061353
2999.5751,0.060110
3000.5070,0.058929
3001.4388,0.058542
3002.3706,0.057780
3003.3025,0.056928
3004.2343,0.057423
3005.1661,0.058119
3006.0980,0.057811
3007.0298,0.056696
3007.9616,0.056634
3008.8935,0.057548
3009.8253,0.058127
3010.7571,0.058324
3011.6890,0.058074
3012.6208,0.057802
3013.5526,0.058509
3014.4845,0.059079
3015.4163,0.059468
3016.3481,0.059361
3017.2800,0.059071
3018.2118,0.059196
3019.1436,0.059866
3020.0755,0.060829
3021.0073,0.061076
3021.9392,0.061201
3022.8710,0.061751
3023.8028,0.061520
3024.7347,0.062131
3025.6665,0.063463
3026.5983,0.063973
3027.5302,0.063270
3028.4620,0.063726
3029.3938,0.064402
3030.3257,0.064871
3031.2575,0.064606
3032.1893,0.065584
3033.1212,0.067192
3034.0530,0.068679
3034.9848,0.068849
3035.9167,0.068710
3036.8485,0.069414
3037.7803,0.069670
3038.7122,0.069832
3039.6440,0.070211
3040.5758,0.070891
3041.5077,0.072178
3042.4395,0.073115
3043.3713,0.073843
3044.3032,0.073903
3045.2350,0.073893
3046.1668,0.074258
3047.0987,0.075452
3048.0305,0.076613
3048.9624,0.076824
3049.8942,0.077530
3050.8260,0.078455
3051.7579,0.078468
3052.6897,0.078475
3053.6215,0.078977
3054.5534,0.080484
3055.4852,0.081715
3056.4170,0.082072
3057.3489,0.082557
3058.2807,0.082772
3059.2125,0.083752
3060.1444,0.085489
3061.0762,0.086256
3062.0080,0.086843
3062.9399,0.087717
3063.8717,0.089374
3064.8035,0.089253
3065.7354,0.088822
3066.6672,0.090294
3067.5990,0.091420
3068.5309,0.092077
3069.4627,0.092714
3070.3945,0.092926
3071.3264,0.094083
3072.2582,0.095083
3073.1900,0.095895
3074.1219,0.096948
3075.0537,0.096931
3075.9856,0.098093
3076.9174,0.099775
3077.8492,0.100994
3078.7811,0.101615
3079.7129,0.101481
3080.6447,0.101519
3081.5766,0.102435
3082.5084,0.104139
3083.4402,0.105818
3084.3721,0.107103
3085.3039,0.106970
3086.2357,0.107095
3087.1676,0.108459
3088.0994,0.110983
3089.0312,0.112587
3089.9631,0.112459
3090.8949,0.112020
3091.8267,0.113219
3092.7586,0.115056
3093.6904,0.116526
3094.6222,0.117007
3095.5541,0.116934
3096.4859,0.117288
3097.4177,0.119504
3098.3496,0.120778
3099.2814,0.121803
3100.2132,0.122962
3101.1451,0.123164
3102.0769,0.123929
3103.0087,0.125852
3103.9406,0.126579
3104.8724,0.126995
3105.8043,0.128629
3106.7361,0.130101
3107.6679,0.131098
3108.5998,0.132051
3109.5316,0.132536
3110.4634,0.134608
3111.3953,0.136298
3112.3271,0.137471
3113.2589,0.137654
3114.1908,0.138260
3115.1226,0.139643
3116.0544,0.140836
3116.9863,0.142448
3117.9181,0.143984
3118.8499,0.144774
3119.7818,0.144992
3120.7136,0.145105
3121.6454,0.146905
3122.5773,0.148600
3123.5091,0.149217
3124.4409,0.148948
3125.3728,0.151707
3126.3046,0.154295
3127.2364,0.154524
3128.1683,0.155184
3129.1001,0.157165
3130.0319,0.158368
3130.9638,0.159646
3131.8956,0.160895
3132.8275,0.162348
3133.7593,0.162322
3134.6911,0.162475
3135.6230,0.164875
3136.5548,0.167451
3137.4866,0.168537
3138.4185,0.169356
3139.3503,0.169986
3140.2821,0.171218
3141.2140,0.172132
3142.1458,0.173564
3143.0776,0.174718
3144.0095,0.175654
3144.9413,0.176682
3145.8731,0.179275
3146.8050,0.179860
3147.7368,0.180452
3148.6686,0.183204
3149.6005,0.186288
3150.5323,0.187153
3151.4641,0.186792
3152.3960,0.187312
3153.3278,0.188555
3154.2596,0.190183
3155.1915,0.192278
3156.1233,0.193516
3157.0551,0.194898
3157.9870,0.196275
3158.9188,0.196997
3159.8507,0.198582
3160.7825,0.199741
3161.7143,0.199420
3162.6462,0.200691
3163.5780,0.202411
3164.5098,0.204148
3165.4417,0.205916
3166.3735,0.207858
3167.3053,0.208645
3168.2372,0.209124
3169.1690,0.210471
3170.1008,0.212924
3171.0327,0.214174
3171.9645,0.214593
3172.8963,0.215708
3173.8282,0.218286
3174.7600,0.218684
3175.6918,0.218712
3176.6237,0.220848
3177.5555,0.222623
3178.4873,0.223472
3179.4192,0.224961
3180.3510,0.226856
3181.2828,0.229345
3182.2147,0.230647
3183.1465,0.232021
3184.0783,0.231804
3185.0102,0.233266
3185.9420,0.234757
3186.8739,0.236111
3187.8057,0.236047
3188.7375,0.236965
3189.6694,0.238858
3190.6012,0.239291
3191.5330,0.240295
3192.4649,0.242203
3193.3967,0.242051
3194.3285,0.242835
3195.2604,0.244294
3196.1922,0.245905
3197.1240,0.246986
3198.0559,0.248700
3198.9877,0.248404
3199.9195,0.249536
3200.8514,0.252454
3201.7832,0.253504
3202.7150,0.253436
3203.6469,0.254422
3204.5787,0.255215
3205.5105,0.256923
3206.4424,0.258391
3207.3742,0.258580
3208.3060,0.258823
3209.2379,0.260547
3210.1697,0.262096
3211.1015,0.263885
3212.0334,0.263994
3212.9652,0.263871
3213.8971,0.263614
3214.8289,0.263797
3215.7607,0.264992
3216.6926,0.267192
3217.6244,0.269127
3218.5562,0.269923
3219.4881,0.270686
3220.4199,0.271449
3221.3517,0.270153
3222.2836,0.269742
3223.2154,0.272527
3224.1472,0.275291
3225.0791,0.276649
3226.0109,0.277498
3226.9427,0.278062
3227.8746,0.278905
3228.8064,0.278852
3229.7382,0.278805
3230.6701,0.278616
3231.6019,0.279938
3232.5337,0.280349
3233.4656,0.281643
3234.3974,0.283991
3235.3292,0.284828
3236.2611,0.281640
3237.1929,0.279351
3238.1247,0.279683
3239.0566,0.282775
3239.9884,0.284246
3240.9202,0.283893
3241.8521,0.284420
3242.7839,0.285244
3243.7158,0.285872
3244.6476,0.287187
3245.5794,0.286815
3246.5113,0.286300
3247.4431,0.286640
3248.3749,0.287168
3249.3068,0.287346
3250.2386,0.285093
3251.1704,0.283189
3252.1023,0.287080
3253.0341,0.288972
3253.9659,0.287158
3254.8978,0.286166
3255.8296,0.288032
3256.7614,0.290182
3257.6933,0.291832
3258.6251,0.291478
3259.5569,0.289694
3260.4888,0.288953
3261.4206,0.289543
3262.3524,0.289404
3263.2843,0.289022
3264.2161,0.290366
3265.1479,0.292885
3266.0798,0.292753
3267.0116,0.293573
3267.9434,0.293051
3268.8753,0.292367
3269.8071,0.291746
3270.7390,0.291719
3271.6708,0.292625
3272.6026,0.293057
3273.5345,0.292170
3274.4663,0.291623
3275.3981,0.291298
3276.3300,0.291492
3277.2618,0.291692
3278.1936,0.291898
3279.1255,0.290828
3280.0573,0.291611
3280.9891,0.293624
3281.9210,0.294115
3282.8528,0.292391
3283.7846,0.291847
3284.7165,0.293146
3285.6483,0.293886
3286.5801,0.292792
3287.5120,0.292556
3288.4438,0.292658
3289.3756,0.292726
3290.3075,0.292985
3291.2393,0.294439
3292.1711,0.294282
3293.1030,0.292401
3294.0348,0.291387
3294.9666,0.292250
3295.8985,0.293503
3296.8303,0.295517
3297.7622,0.294523
3298.6940,0.292805
3299.6258,0.293243
3300.5577,0.292368
3301.4895,0.291556
3302.4213,0.295076
3303.3532,0.296474
3304.2850,0.297582
3305.2168,0.298795
3306.1487,0.296622
3307.0805,0.293061
3308.0123,0.291995
3308.9442,0.291700
3309.8760,0.292399
3310.8078,0.293841
3311.7397,0.295689
3312.6715,0.294822
3313.6033,0.293119
3314.5352,0.294546
3315.4670,0.297178
3316.3988,0.297246
3317.3307,0.297162
3318.2625,0.296954
3319.1943,0.295813
3320.1262,0.296491
3321.0580,0.298031
3321.9898,0.296408
3322.9217,0.295081
3323.8535,0.295766
3324.7854,0.295607
3325.7172,0.296390
3326.6490,0.298567
3327.5809,0.297693
3328.5127,0.296253
3329.4445,0.296296
3330.3764,0.296242
3331.3082,0.295312
3332.2400,0.296761
3333.1719,0.296922
3334.1037,0.295373
3335.0355,0.296182
3335.9674,0.296408
3336.8992,0.295570
3337.8310,0.295772
3338.7629,0.295633
3339.6947,0.297994
3340.6265,0.299666
3341.5584,0.298127
3342.4902,0.295391
3343.4220,0.293609
3344.3539,0.292912
3345.2857,0.295214
3346.2175,0.295684
3347.1494,0.295126
3348.0812,0.295721
3349.0130,0.295611
3349.9449,0.296818
3350.8767,0.297550
3351.8086,0.295976
3352.7404,0.295876
3353.6722,0.297016
3354.6041,0.297427
3355.5359,0.298433
3356.4677,0.298305
3357.3996,0.295880
3358.3314,0.296188
3359.2632,0.296391
3360.1951,0.294024
3361.1269,0.294094
3362.0587,0.297181
3362.9906,0.296007
3363.9224,0.293124
3364.8542,0.293161
3365.7861,0.293148
3366.7179,0.292788
3367.6497,0.294707
3368.5816,0.294476
3369.5134,0.293233
3370.4452,0.292501
3371.3771,0.290586
3372.3089,0.289426
3373.2407,0.291674
3374.1726,0.293017
3375.1044,0.292203
3376.0362,0.291799
3376.9681,0.291057
3377.8999,0.288969
3378.8317,0.289479
3379.7636,0.290728
3380.6954,0.290630
3381.6273,0.289034
3382.5591,0.287600
3383.4909,0.286636
3384.4228,0.284590
3385.3546,0.283828
3386.2864,0.285003
3387.2183,0.284299
3388.1501,0.285172
3389.0819,0.286464
3390.0138,0.286373
3390.9456,0.286162
3391.8774,0.285728
3392.8093,0.283589
3393.7411,0.283038
3394.6729,0.281680
3395.6048,0.280012
3396.5366,0.280121
3397.4684,0.277923
3398.4003,0.275874
3399.3321,0.277431
3400.2639,0.278601
3401.1958,0.278134
3402.1276,0.275813
3403.0594,0.273829
3403.9913,0.271994
3404.9231,0.270836
3405.8549,0.270875
3406.7868,0.268891
3407.7186,0.268448
3408.6505,0.270926
3409.5823,0.272879
3410.5141,0.272616
3411.4460,0.270079
3412.3778,0.267474
3413.3096,0.264314
3414.2415,0.264464
3415.1733,0.265545
3416.1051,0.262683
3417.0370,0.259952
3417.9688,0.259703
3418.9006,0.261252
3419.8325,0.262665
3420.7643,0.261498
3421.6961,0.260031
3422.6280,0.258603
3423.5598,0.255708
3424.4916,0.253398
3425.4235,0.254523
3426.3553,0.254860
3427.2871,0.254095
3428.2190,0.254721
3429.1508,0.253755
3430.0826,0.250863
3431.0145,0.248905
3431.9463,0.247398
3432.8781,0.245795
3433.8100,0.243634
3434.7418,0.242110
3435.6737,0.242928
3436.6055,0.244716
3437.5373,0.243745
3438.4692,0.240757
3439.4010,0.239405
3440.3328,0.238262
3441.2647,0.234886
3442.1965,0.233312
3443.1283,0.233503
3444.0602,0.234212
3444.9920,0.233148
3445.9238,0.231339
3446.8557,0.231267
3447.7875,0.230277
3448.7193,0.229664
3449.6512,0.228869
3450.5830,0.226591
3451.5148,0.224835
3452.4467,0.224624
3453.3785,0.226034
3454.3103,0.224899
3455.2422,0.221051
3456.1740,0.218982
3457.1058,0.219053
3458.0377,0.220372
3458.9695,0.219878
3459.9013,0.218163
3460.8332,0.216658
3461.7650,0.214527
3462.6969,0.213199
3463.6287,0.212527
3464.5605,0.211532
3465.4924,0.208355
3466.4242,0.207400
3467.3560,0.208246
3468.2879,0.205513
3469.2197,0.205771
3470.1515,0.206306
3471.0834,0.202327
3472.0152,0.200311
3472.9470,0.200111
3473.8789,0.200051
3474.8107,0.201505
3475.7425,0.200012
3476.6744,0.198484
3477.6062,0.198690
3478.5380,0.196565
3479.4699,0.194407
3480.4017,0.194186
3481.3335,0.192471
3482.2654,0.189956
3483.1972,0.190431
3484.1290,0.189755
3485.0609,0.186024
3485.9927,0.185005
3486.9245,0.186529
3487.8564,0.187397
3488.7882,0.186374
3489.7201,0.183405
3490.6519,0.180979
3491.5837,0.180429
3492.5156,0.178264
3493.4474,0.177125
3494.3792,0.178673
3495.3111,0.177651
3496.2429,0.173825
3497.1747,0.172611
3498.1066,0.173164
3499.0384,0.171948
3499.9702,0.171895
3500.9021,0.173815
3501.8339,0.172693
3502.7657,0.169662
3503.6976,0.169277
3504.6294,0.169307
3505.5612,0.166759
3506.4931,0.165334
3507.4249,0.165513
3508.3567,0.163891
3509.2886,0.159803
3510.2204,0.157436
3511.1522,0.156949
3512.0841,0.157147
3513.0159,0.157063
3513.9477,0.157675
3514.8796,0.157837
3515.8114,0.154901
3516.7432,0.153954
3517.6751,0.156627
3518.6069,0.155919
3519.5388,0.151679
3520.4706,0.148835
3521.4024,0.151046
3522.3343,0.151105
3523.2661,0.146668
3524.1979,0.146315
3525.1298,0.147244
3526.0616,0.144840
3526.9934,0.143680
3527.9253,0.141951
3528.8571,0.141061
3529.7889,0.141480
3530.7208,0.141501
3531.6526,0.140525
3532.5844,0.139449
3533.5163,0.139646
3534.4481,0.137658
3535.3799,0.133890
3536.3118,0.133748
3537.2436,0.134869
3538.1754,0.133632
3539.1073,0.131224
3540.0391,0.130947
3540.9709,0.131137
3541.9028,0.128397
3542.8346,0.125917
3543.7664,0.126247
3544.6983,0.124921
3545.6301,0.123467
3546.5620,0.121429
3547.4938,0.117778
3548.4256,0.117274
3549.3575,0.118635
3550.2893,0.117335
3551.2211,0.117390
3552.1530,0.118563
3553.0848,0.117079
3554.0166,0.114685
3554.9485,0.113184
3555.8803,0.112206
3556.8121,0.112716
3557.7440,0.113403
3558.6758,0.112699
3559.6076,0.111423
3560.5395,0.109161
3561.4713,0.108326
3562.4031,0.109454
3563.3350,0.109016
3564.2668,0.106820
3565.1986,0.104931
3566.1305,0.104447
3567.0623,0.104225
3567.9941,0.103779
3568.9260,0.103704
3569.8578,0.104553
3570.7896,0.102674
3571.7215,0.101683
3572.6533,0.100481
3573.5852,0.096255
3574.5170,0.092663
3575.4488,0.094292
3576.3807,0.095287
3577.3125,0.093820
3578.2443,0.094057
3579.1762,0.094501
3580.1080,0.092732
3581.0398,0.090750
3581.9717,0.090390
3582.9035,0.090830
3583.8353,0.089227
3584.7672,0.086150
3585.6990,0.085472
3586.6308,0.084973
3587.5627,0.082028
3588.4945,0.081757
3589.4263,0.082905
3590.3582,0.084974
3591.2900,0.083377
3592.2218,0.080263
3593.1537,0.079386
3594.0855,0.078888
3595.0173,0.078591
3595.9492,0.077812
3596.8810,0.076678
3597.8128,0.075683
3598.7447,0.075157
3599.6765,0.074260
3600.6084,0.074414
3601.5402,0.075250
3602.4720,0.074015
3603.4039,0.073299
3604.3357,0.072317
3605.2675,0.070394
3606.1994,0.069975
3607.1312,0.070811
3608.0630,0.070930
3608.9949,0.069211
3609.9267,0.067031
3610.8585,0.066299
3611.7904,0.065534
3612.7222,0.063622
3613.6540,0.062627
3614.5859,0.063677
3615.5177,0.064483
3616.4495,0.063479
3617.3814,0.061491
3618.3132,0.061441
3619.2450,0.061956
3620.1769,0.061075
3621.1087,0.061222
3622.0405,0.060789
3622.9724,0.057640
3623.9042,0.055523
3624.8360,0.054548
3625.7679,0.054727
3626.6997,0.055000
3627.6316,0.054004
3628.5634,0.053693
3629.4952,0.052352
3630.4271,0.051654
3631.3589,0.053351
3632.2907,0.053358
3633.2226,0.050991
3634.1544,0.050245
3635.0862,0.049711
3636.0181,0.048422
3636.9499,0.047503
3637.8817,0.047670
3638.8136,0.047964
3639.7454,0.046745
3640.6772,0.045237
3641.6091,0.044745
3642.5409,0.044772
3643.4727,0.043681
3644.4046,0.042540
3645.3364,0.041718
3646.2682,0.040056
3647.2001,0.039693
3648.1319,0.040178
3649.0637,0.038875
3649.9956,0.037334
3650.9274,0.036226
3651.8592,0.036556
3652.7911,0.037540
3653.7229,0.037784
3654.6547,0.036713
3655.5866,0.034747
3656.5184,0.034013
3657.4503,0.034221
3658.3821,0.033085
3659.3139,0.032861
3660.2458,0.032445
3661.1776,0.031297
3662.1094,0.030106
3663.0413,0.029524
3663.9731,0.029059
3664.9049,0.028811
3665.8368,0.028776
3666.7686,0.027742
3667.7004,0.026157
3668.6323,0.026211
3669.5641,0.025856
3670.4959,0.025076
3671.4278,0.024597
3672.3596,0.022954
3673.2914,0.020342
3674.2233,0.018386
3675.1551,0.018433
3676.0869,0.019835
3677.0188,0.019810
3677.9506,0.017518
3678.8824,0.017928
3679.8143,0.017255
3680.7461,0.016832
3681.6779,0.016842
3682.6098,0.016598
3683.5416,0.016681
3684.4735,0.016284
3685.4053,0.016056
3686.3371,0.014827
3687.2690,0.014326
3688.2008,0.013260
3689.1326,0.012581
3690.0645,0.011804
3690.9963,0.009531
3691.9281,0.009739
3692.8600,0.010342
3693.7918,0.010071
3694.7236,0.009355
3695.6555,0.009657
3696.5873,0.010635
3697.5191,0.010330
3698.4510,0.009731
3699.3828,0.009157
3700.3146,0.008831
3701.2465,0.008151
3702.1783,0.007485
3703.1101,0.006788
3704.0420,0.006814
3704.9738,0.006193
3705.9056,0.006076
3706.8375,0.006771
3707.7693,0.005963
3708.7011,0.005414
3709.6330,0.006273
3710.5648,0.006153
3711.4967,0.004521
3712.4285,0.002990
3713.3603,0.004376
3714.2922,0.006042
3715.2240,0.005741
3716.1558,0.005224
3717.0877,0.004676
3718.0195,0.004884
3718.9513,0.004969
3719.8832,0.004611
3720.8150,0.003637
3721.7468,0.003499
3722.6787,0.003454
3723.6105,0.002559
3724.5423,0.002761
3725.4742,0.003158
3726.4060,0.003062
3727.3378,0.003024
3728.2697,0.002897
3729.2015,0.002650
3730.1333,0.002006
3731.0652,0.002553
3731.9970,0.003396
3732.9288,0.004207
3733.8607,0.004020
3734.7925,0.003095
3735.7243,0.001900
3736.6562,0.002449
3737.5880,0.002661
3738.5199,0.000889
3739.4517,0.002162
3740.3835,0.002637
3741.3154,0.001884
3742.2472,0.002629
3743.1790,0.002866
3744.1109,0.002847
3745.0427,0.003235
3745.9745,0.002065
3746.9064,-0.000320
3747.8382,-0.001568
3748.7700,0.001570
3749.7019,0.003163
3750.6337,0.001838
3751.5655,0.001081
3752.4974,0.000126
3753.4292,-0.001308
3754.3610,-0.001024
3755.2929,-0.000921
3756.2247,-0.000373
3757.1565,0.000751
3758.0884,0.001766
3759.0202,0.001863
3759.9520,0.001825
3760.8839,0.002993
3761.8157,0.002082
3762.7475,0.000071
3763.6794,0.001111
3764.6112,0.002190
3765.5431,0.002676
3766.4749,0.002675
3767.4067,0.001952
3768.3386,0.001607
3769.2704,0.000841
3770.2022,0.000511
3771.1341,0.001083
3772.0659,0.001456
3772.9977,0.002060
3773.9296,0.002311
3774.8614,0.002195
3775.7932,0.002353
3776.7251,0.002486
3777.6569,0.002001
3778.5887,0.001481
3779.5206,0.001603
3780.4524,0.002004
3781.3842,0.001755
3782.3161,0.001404
3783.2479,0.002068
3784.1797,0.002815
3785.1116,0.002208
3786.0434,0.000683
3786.9752,0.000928
3787.9071,0.001882
3788.8389,0.001839
3789.7707,0.001704
3790.7026,0.001957
3791.6344,0.002636
3792.5662,0.002935
3793.4981,0.002619
3794.4299,0.001767
3795.3618,0.001304
3796.2936,0.001614
3797.2254,0.001869
3798.1573,0.002231
3799.0891,0.001674
3800.0209,-0.000180
3800.9528,-0.000661
3801.8846,0.000716
3802.8164,0.001605
3803.7483,0.000540
3804.6801,0.000395
3805.6119,0.000641
3806.5438,0.000264
3807.4756,0.001520
3808.4074,0.002840
3809.3393,0.002217
3810.2711,0.000894
3811.2029,0.000810
3812.1348,0.001537
3813.0666,0.001377
3813.9984,0.001293
3814.9303,0.001187
3815.8621,0.000940
3816.7939,0.000870
3817.7258,0.000580
3818.6576,0.000075
3819.5894,0.001354
3820.5213,0.002664
3821.4531,0.000464
3822.3850,-0.000740
3823.3168,0.000231
3824.2486,0.000905
3825.1805,0.000848
3826.1123,0.000895
3827.0441,0.001675
3827.9760,0.001432
3828.9078,0.000713
3829.8396,0.001198
3830.7715,0.002231
3831.7033,0.002563
3832.6351,0.002162
3833.5670,0.001462
3834.4988,0.001598
3835.4306,0.001369
3836.3625,0.000497
3837.2943,-0.000030
3838.2261,-0.000083
3839.1580,0.000552
3840.0898,0.000930
3841.0216,0.000520
3841.9535,0.000424
3842.8853,0.000358
3843.8171,0.000208
3844.7490,0.000585
3845.6808,0.000738
3846.6126,0.000376
3847.5445,0.000488
3848.4763,0.001244
3849.4082,0.001471
3850.3400,0.001818
3851.2718,0.002170
3852.2037,0.001070
3853.1355,-0.000940
3854.0673,-0.001263
3854.9992,-0.000283
3855.9310,-0.000180
3856.8628,-0.000909
3857.7947,0.000102
3858.7265,0.000905
3859.6583,0.000720
3860.5902,0.001181
3861.5220,0.002144
3862.4538,0.001523
3863.3857,0.000878
3864.3175,0.000560
3865.2493,-0.000409
3866.1812,-0.000520
3867.1130,-0.000031
3868.0448,0.000939
3868.9767,0.000785
3869.9085,0.000040
3870.8403,0.000226
3871.7722,0.001723
3872.7040,0.002079
3873.6358,0.001707
3874.5677,0.001156
3875.4995,0.001299
3876.4314,0.001005
3877.3632,0.000786
3878.2950,0.000317
3879.2269,0.000973
3880.1587,0.002063
3881.0905,0.002163
3882.0224,0.001077
3882.9542,0.001315
3883.8860,0.001000
3884.8179,0.000470
3885.7497,0.000433
3886.6815,0.000382
3887.6134,0.000502
3888.5452,0.000727
3889.4770,0.001206
3890.4089,0.002190
3891.3407,0.002403
3892.2725,0.001377
3893.2044,-0.000085
3894.1362,0.000014
3895.0680,0.000251
3895.9999,0.000677
3896.9317,0.000418
3897.8635,-0.000577
3898.7954,-0.000743
3899.7272,0.000463
3900.6590,0.002056
3901.5909,0.001009
3902.5227,0.000501
3903.4546,-0.000274
3904.3864,-0.001695
3905.3182,-0.001348
3906.2501,-0.000378
3907.1819,0.000940
3908.1137,0.001869
3909.0456,0.002193
3909.9774,0.001924
3910.9092,0.001531
3911.8411,0.001564
3912.7729,0.001513
3913.7047,0.001411
3914.6366,0.001133
3915.5684,0.000180
3916.5002,0.000441
3917.4321,0.000968
3918.3639,0.000956
3919.2957,0.000974
3920.2276,0.000614
3921.1594,0.001199
3922.0912,0.002009
3923.0231,0.002414
3923.9549,0.001452
3924.8867,0.000730
3925.8186,0.001477
3926.7504,0.001428
3927.6822,0.001028
3928.6141,0.000515
3929.5459,0.000815
3930.4777,0.001116
3931.4096,0.001518
3932.3414,0.001726
3933.2733,0.000619
3934.2051,0.000525
3935.1369,0.000491
3936.0688,0.001281
3937.0006,0.002445
3937.9324,0.002311
3938.8643,0.002268
3939.7961,0.002189
3940.7279,0.001796
3941.6598,0.001928
3942.5916,0.002493
3943.5234,0.002084
3944.4553,0.001159
3945.3871,0.000255
3946.3189,-0.000428
3947.2508,0.001162
3948.1826,0.002648
3949.1144,0.002112
3950.0463,0.001140
3950.9781,0.001085
3951.9099,0.002793
3952.8418,0.003282
3953.7736,0.001684
3954.7054,0.001559
3955.6373,0.001648
3956.5691,0.001796
3957.5009,0.001425
3958.4328,0.001234
3959.3646,0.001569
3960.2965,0.000878
3961.2283,0.000102
3962.1601,0.000424
3963.0920,0.001295
3964.0238,0.001972
3964.9556,0.001455
3965.8875,0.001269
3966.8193,0.001769
3967.7511,0.001869
3968.6830,0.001734
3969.6148,0.001791
3970.5466,0.001716
3971.4785,0.002313
3972.4103,0.002533
3973.3421,0.001701
3974.2740,0.001140
3975.2058,-0.000099
3976.1376,0.000567
3977.0695,0.002116
3978.0013,0.001359
3978.9331,0.000692
3979.8650,0.001270
3980.7968,0.001885
3981.7286,0.001433
3982.6605,0.001055
3983.5923,0.001136
3984.5241,0.000722
3985.4560,0.000661
3986.3878,0.001476
3987.3197,0.000939
3988.2515,0.001262
3989.1833,0.002335
3990.1152,0.002156
3991.0470,0.001799
3991.9788,0.001702
3992.9107,0.002276
3993.8425,0.002681
3994.7743,0.002369
3995.7062,0.002358
3996.6380,0.002488
3997.5698,0.001719
3998.5017,0.001739
3999.4335,0.002673
4000.3653,0.002707
