Wavenumber,Intensity
650.4205,0.369751
651.3523,0.367242
652.2841,0.369829
653.2160,0.379000
654.1478,0.376420
655.0796,0.371602
656.0115,0.372876
656.9433,0.376101
657.8751,0.374564
658.8070,0.369537
659.7388,0.367134
660.6706,0.370563
661.6025,0.375013
662.5343,0.377857
663.4661,0.373739
664.3980,0.367319
665.3298,0.364074
666.2616,0.360076
667.1935,0.359797
668.1253,0.371016
669.0571,0.373112
669.9890,0.360518
670.9208,0.353471
671.8526,0.355174
672.7845,0.360055
673.7163,0.353600
674.6481,0.341348
675.5800,0.345913
676.5118,0.354080
677.4437,0.351809
678.3755,0.345036
679.3073,0.341330
680.2392,0.342213
681.1710,0.342206
682.1028,0.336718
683.0347,0.332435
683.9665,0.335049
684.8983,0.338350
685.8302,0.335853
686.7620,0.334087
687.6938,0.333031
688.6257,0.332509
689.5575,0.331084
690.4893,0.334227
691.4212,0.335582
692.3530,0.329568
693.2848,0.324918
694.2167,0.323457
695.1485,0.321959
696.0803,0.322771
697.0122,0.320838
697.9440,0.320382
698.8758,0.322314
699.8077,0.322802
700.7395,0.319098
701.6713,0.315321
702.6032,0.312795
703.5350,0.313952
704.4669,0.315408
705.3987,0.317264
706.3305,0.315448
707.2624,0.312282
708.1942,0.311820
709.1260,0.311974
710.0579,0.310427
710.9897,0.306020
711.9215,0.299485
712.8534,0.297238
713.7852,0.300129
714.7170,0.302224
715.6489,0.298552
716.5807,0.296408
717.5125,0.295699
718.4444,0.292027
719.3762,0.288405
720.3080,0.290091
721.2399,0.291051
722.1717,0.288260
723.1035,0.285987
724.0354,0.287590
724.9672,0.289268
725.8990,0.288512
726.8309,0.284723
727.7627,0.283122
728.6945,0.283022
729.6264,0.283578
730.5582,0.282228
731.4901,0.279231
732.4219,0.277387
733.3537,0.275520
734.2856,0.272941
735.2174,0.270856
736.1492,0.269627
737.0811,0.271959
738.0129,0.270672
738.9447,0.266067
739.8766,0.264225
740.8084,0.264066
741.7402,0.263726
742.6721,0.262595
743.6039,0.259683
744.5357,0.256871
745.4676,0.256322
746.3994,0.257479
747.3312,0.256095
748.2631,0.254404
749.1949,0.251999
750.1267,0.250399
751.0586,0.248376
751.9904,0.246277
752.9222,0.244219
753.8541,0.243783
754.7859,0.243894
755.7177,0.243990
756.6496,0.244193
757.5814,0.242636
758.5132,0.238920
759.4451,0.237066
760.3769,0.237672
761.3088,0.238917
762.2406,0.238506
763.1724,0.235657
764.1043,0.233623
765.0361,0.234173
765.9679,0.232539
766.8998,0.228180
767.8316,0.225230
768.7634,0.225583
769.6953,0.224674
770.6271,0.223315
771.5589,0.222358
772.4908,0.222375
773.4226,0.220739
774.3544,0.218629
775.2863,0.217391
776.2181,0.217068
777.1499,0.216593
778.0818,0.215603
779.0136,0.212956
779.9454,0.211077
780.8773,0.210415
781.8091,0.208886
782.7409,0.207889
783.6728,0.205946
784.6046,0.204331
785.5364,0.203458
786.4683,0.202982
787.4001,0.202409
788.3320,0.200990
789.2638,0.199569
790.1956,0.197600
791.1275,0.196905
792.0593,0.196409
792.9911,0.194549
793.9230,0.192479
794.8548,0.191381
795.7866,0.190631
796.7185,0.190693
797.6503,0.189919
798.5821,0.188147
799.5140,0.186739
800.4458,0.185776
801.3776,0.184232
802.3095,0.184152
803.2413,0.183537
804.1731,0.181698
805.1050,0.180323
806.0368,0.179468
806.9686,0.177428
807.9005,0.176238
808.8323,0.174764
809.7641,0.173261
810.6960,0.171659
811.6278,0.169180
812.5596,0.168250
813.4915,0.168207
814.4233,0.167451
815.3552,0.166353
816.2870,0.164585
817.2188,0.162833
818.1507,0.161972
819.0825,0.161246
820.0143,0.159727
820.9462,0.158293
821.8780,0.156814
822.8098,0.155932
823.7417,0.155426
824.6735,0.154145
825.6053,0.152770
826.5372,0.151989
827.4690,0.149988
828.4008,0.148741
829.3327,0.148495
830.2645,0.147799
831.1963,0.146559
832.1282,0.145114
833.0600,0.144274
833.9918,0.144126
834.9237,0.143160
835.8555,0.142293
836.7873,0.141492
837.7192,0.140134
838.6510,0.137838
839.5828,0.136962
840.5147,0.136947
841.4465,0.136635
842.3784,0.135947
843.3102,0.134839
844.2420,0.133652
845.1739,0.132256
846.1057,0.130727
847.0375,0.130390
847.9694,0.130082
848.9012,0.129541
849.8330,0.128479
850.7649,0.126718
851.6967,0.125729
852.6285,0.124790
853.5604,0.124571
854.4922,0.124643
855.4240,0.123679
856.3559,0.122514
857.2877,0.122373
858.2195,0.122276
859.1514,0.121480
860.0832,0.121459
861.0150,0.121395
861.9469,0.120889
862.8787,0.121211
863.8105,0.122036
864.7424,0.122104
865.6742,0.122318
866.6060,0.122547
867.5379,0.123368
868.4697,0.124982
869.4016,0.127788
870.3334,0.130539
871.2652,0.133314
872.1971,0.136940
873.1289,0.141601
874.0607,0.145958
874.9926,0.150697
875.9244,0.155263
876.8562,0.157758
877.7881,0.158158
878.7199,0.157624
879.6517,0.154752
880.5836,0.150029
881.5154,0.144536
882.4472,0.137532
883.3791,0.130268
884.3109,0.123737
885.2427,0.117827
886.1746,0.112868
887.1064,0.108616
888.0382,0.104463
888.9701,0.100335
889.9019,0.097201
890.8337,0.094891
891.7656,0.093100
892.6974,0.091295
893.6292,0.089922
894.5611,0.088527
895.4929,0.086933
896.4247,0.085715
897.3566,0.085026
898.2884,0.084407
899.2203,0.083583
900.1521,0.082792
901.0839,0.081699
902.0158,0.080437
902.9476,0.079880
903.8794,0.079426
904.8113,0.078911
905.7431,0.078388
906.6749,0.077697
907.6068,0.076968
908.5386,0.076279
909.4704,0.075826
910.4023,0.075379
911.3341,0.075249
912.2659,0.074767
913.1978,0.074071
914.1296,0.073491
915.0614,0.072620
915.9933,0.071605
916.9251,0.071449
917.8569,0.071336
918.7888,0.070555
919.7206,0.069847
920.6524,0.069627
921.5843,0.069450
922.5161,0.068967
923.4479,0.068659
924.3798,0.068271
925.3116,0.067493
926.2435,0.067257
927.1753,0.067235
928.1071,0.066552
929.0390,0.065776
929.9708,0.065251
930.9026,0.065032
931.8345,0.064840
932.7663,0.064829
933.6981,0.064613
934.6300,0.064218
935.5618,0.064045
936.4936,0.063541
937.4255,0.063079
938.3573,0.062546
939.2891,0.061901
940.2210,0.061751
941.1528,0.061627
942.0846,0.061450
943.0165,0.061093
943.9483,0.060797
944.8801,0.060604
945.8120,0.060378
946.7438,0.059949
947.6756,0.059342
948.6075,0.059189
949.5393,0.059318
950.4711,0.059266
951.4030,0.058864
952.3348,0.058303
953.2667,0.058076
954.1985,0.058017
955.1303,0.057788
956.0622,0.057481
956.9940,0.057364
957.9258,0.057344
958.8577,0.057538
959.7895,0.057426
960.7213,0.056904
961.6532,0.056579
962.5850,0.056359
963.5168,0.056334
964.4487,0.056149
965.3805,0.055996
966.3123,0.056112
967.2442,0.055852
968.1760,0.055063
969.1078,0.054777
970.0397,0.055021
970.9715,0.054917
971.9033,0.054794
972.8352,0.054781
973.7670,0.054719
974.6988,0.054757
975.6307,0.054846
976.5625,0.054889
977.4943,0.054481
978.4262,0.054150
979.3580,0.054087
980.2899,0.053977
981.2217,0.053995
982.1535,0.054313
983.0854,0.054421
984.0172,0.054197
984.9490,0.054046
985.8809,0.054033
986.8127,0.053750
987.7445,0.053822
988.6764,0.054364
989.6082,0.054516
990.5400,0.054163
991.4719,0.054524
992.4037,0.054647
993.3355,0.054297
994.2674,0.054372
995.1992,0.054792
996.1310,0.054916
997.0629,0.055128
997.9947,0.055115
998.9265,0.055060
999.8584,0.055160
1000.7902,0.055166
1001.7220,0.055281
1002.6539,0.055766
1003.5857,0.056076
1004.5175,0.056298
1005.4494,0.056724
1006.3812,0.057120
1007.3131,0.057253
1008.2449,0.057711
1009.1767,0.058020
1010.1086,0.058471
1011.0404,0.059205
1011.9722,0.059823
1012.9041,0.060507
1013.8359,0.060887
1014.7677,0.061243
1015.6996,0.062082
1016.6314,0.063040
1017.5632,0.064049
1018.4951,0.065189
1019.4269,0.066224
1020.3587,0.067554
1021.2906,0.069168
1022.2224,0.070991
1023.1542,0.073089
1024.0861,0.075173
1025.0179,0.077488
1025.9497,0.080057
1026.8816,0.082866
1027.8134,0.086252
1028.7452,0.089935
1029.6771,0.093811
1030.6089,0.098353
1031.5407,0.103656
1032.4726,0.109633
1033.4044,0.116721
1034.3362,0.125070
1035.2681,0.134865
1036.1999,0.145896
1037.1318,0.157954
1038.0636,0.171025
1038.9954,0.184725
1039.9273,0.198526
1040.8591,0.212018
1041.7909,0.223882
1042.7228,0.232951
1043.6546,0.238524
1044.5864,0.239857
1045.5183,0.236249
1046.4501,0.228379
1047.3819,0.217171
1048.3138,0.204027
1049.2456,0.189528
1050.1774,0.174355
1051.1093,0.159561
1052.0411,0.145519
1052.9729,0.132360
1053.9048,0.120280
1054.8366,0.109665
1055.7684,0.100803
1056.7003,0.093503
1057.6321,0.087297
1058.5639,0.082107
1059.4958,0.077938
1060.4276,0.074871
1061.3594,0.072506
1062.2913,0.070775
1063.2231,0.069382
1064.1550,0.068358
1065.0868,0.067895
1066.0186,0.067670
1066.9505,0.067884
1067.8823,0.068475
1068.8141,0.069012
1069.7460,0.069843
1070.6778,0.071436
1071.6096,0.072957
1072.5415,0.074502
1073.4733,0.076413
1074.4051,0.078646
1075.3370,0.080802
1076.2688,0.083108
1077.2006,0.085926
1078.1325,0.088856
1079.0643,0.091613
1079.9961,0.094236
1080.9280,0.096991
1081.8598,0.099465
1082.7916,0.101444
1083.7235,0.102937
1084.6553,0.103819
1085.5871,0.104065
1086.5190,0.103693
1087.4508,0.102635
1088.3826,0.100425
1089.3145,0.097241
1090.2463,0.094064
1091.1782,0.090314
1092.1100,0.086401
1093.0418,0.082567
1093.9737,0.078369
1094.9055,0.074520
1095.8373,0.070965
1096.7692,0.067474
1097.7010,0.064469
1098.6328,0.062082
1099.5647,0.059497
1100.4965,0.057319
1101.4283,0.055614
1102.3602,0.054084
1103.2920,0.052890
1104.2238,0.051709
1105.1557,0.050494
1106.0875,0.049685
1107.0193,0.048762
1107.9512,0.048099
1108.8830,0.047707
1109.8148,0.047222
1110.7467,0.046897
1111.6785,0.046453
1112.6103,0.046079
1113.5422,0.045893
1114.4740,0.045796
1115.4058,0.045731
1116.3377,0.045605
1117.2695,0.045382
1118.2014,0.045189
1119.1332,0.045165
1120.0650,0.045326
1120.9969,0.045327
1121.9287,0.045096
1122.8605,0.044984
1123.7924,0.045089
1124.7242,0.045364
1125.6560,0.045377
1126.5879,0.044893
1127.5197,0.044593
1128.4515,0.044794
1129.3834,0.044825
1130.3152,0.044595
1131.2470,0.044477
1132.1789,0.044278
1133.1107,0.044191
1134.0425,0.043924
1134.9744,0.043633
1135.9062,0.043589
1136.8380,0.043644
1137.7699,0.043574
1138.7017,0.043326
1139.6335,0.043180
1140.5654,0.043137
1141.4972,0.043136
1142.4290,0.042930
1143.3609,0.042649
1144.2927,0.042703
1145.2246,0.042774
1146.1564,0.042661
1147.0882,0.042598
1148.0201,0.042825
1148.9519,0.042871
1149.8837,0.042627
1150.8156,0.042591
1151.7474,0.042780
1152.6792,0.042812
1153.6111,0.042558
1154.5429,0.042332
1155.4747,0.042552
1156.4066,0.042715
1157.3384,0.042461
1158.2702,0.042336
1159.2021,0.042156
1160.1339,0.041884
1161.0657,0.041843
1161.9976,0.041761
1162.9294,0.041565
1163.8612,0.041360
1164.7931,0.041240
1165.7249,0.041130
1166.6567,0.040959
1167.5886,0.040758
1168.5204,0.040475
1169.4522,0.040392
1170.3841,0.040307
1171.3159,0.040200
1172.2477,0.040204
1173.1796,0.040334
1174.1114,0.040406
1175.0433,0.040308
1175.9751,0.040049
1176.9069,0.040092
1177.8388,0.040242
1178.7706,0.040130
1179.7024,0.039918
1180.6343,0.039918
1181.5661,0.039942
1182.4979,0.039887
1183.4298,0.039785
1184.3616,0.039831
1185.2934,0.039885
1186.2253,0.039891
1187.1571,0.039969
1188.0889,0.040155
1189.0208,0.040265
1189.9526,0.040205
1190.8844,0.039962
1191.8163,0.039986
1192.7481,0.040032
1193.6799,0.040230
1194.6118,0.040497
1195.5436,0.040452
1196.4754,0.040171
1197.4073,0.039957
1198.3391,0.040000
1199.2709,0.040130
1200.2028,0.040118
1201.1346,0.040294
1202.0665,0.040291
1202.9983,0.040274
1203.9301,0.040342
1204.8620,0.040240
1205.7938,0.040248
1206.7256,0.040495
1207.6575,0.040577
1208.5893,0.040346
1209.5211,0.040257
1210.4530,0.040449
1211.3848,0.040488
1212.3166,0.040358
1213.2485,0.040463
1214.1803,0.040523
1215.1121,0.040794
1216.0440,0.041111
1216.9758,0.041014
1217.9076,0.040925
1218.8395,0.041135
1219.7713,0.041097
1220.7031,0.040893
1221.6350,0.040726
1222.5668,0.040847
1223.4986,0.041127
1224.4305,0.041243
1225.3623,0.041376
1226.2941,0.041495
1227.2260,0.041502
1228.1578,0.041402
1229.0897,0.041309
1230.0215,0.041547
1230.9533,0.041703
1231.8852,0.041830
1232.8170,0.041890
1233.7488,0.041890
1234.6807,0.041910
1235.6125,0.041927
1236.5443,0.041984
1237.4762,0.041986
1238.4080,0.042161
1239.3398,0.042334
1240.2717,0.042291
1241.2035,0.042396
1242.1353,0.042829
1243.0672,0.042826
1243.9990,0.042487
1244.9308,0.042475
1245.8627,0.042828
1246.7945,0.043045
1247.7263,0.043082
1248.6582,0.043377
1249.5900,0.043670
1250.5218,0.043921
1251.4537,0.044181
1252.3855,0.044305
1253.3173,0.044567
1254.2492,0.044764
1255.1810,0.044937
1256.1129,0.045240
1257.0447,0.045560
1257.9765,0.045888
1258.9084,0.046163
1259.8402,0.046264
1260.7720,0.046652
1261.7039,0.047245
1262.6357,0.047753
1263.5675,0.048136
1264.4994,0.048654
1265.4312,0.049224
1266.3630,0.049507
1267.2949,0.050164
1268.2267,0.050906
1269.1585,0.051340
1270.0904,0.051878
1271.0222,0.052241
1271.9540,0.052504
1272.8859,0.052850
1273.8177,0.052999
1274.7495,0.053002
1275.6814,0.052856
1276.6132,0.052604
1277.5450,0.052361
1278.4769,0.052021
1279.4087,0.051946
1280.3405,0.051949
1281.2724,0.051455
1282.2042,0.050862
1283.1361,0.050382
1284.0679,0.049962
1284.9997,0.049686
1285.9316,0.049376
1286.8634,0.049098
1287.7952,0.049087
1288.7271,0.049219
1289.6589,0.049358
1290.5907,0.049491
1291.5226,0.049441
1292.4544,0.049266
1293.3862,0.049333
1294.3181,0.049388
1295.2499,0.049514
1296.1817,0.049762
1297.1136,0.050022
1298.0454,0.050387
1298.9772,0.050676
1299.9091,0.050796
1300.8409,0.050935
1301.7727,0.051000
1302.7046,0.051195
1303.6364,0.051512
1304.5682,0.051718
1305.5001,0.051946
1306.4319,0.052374
1307.3637,0.052540
1308.2956,0.052689
1309.2274,0.052894
1310.1592,0.052987
1311.0911,0.053127
1312.0229,0.053414
1312.9548,0.053738
1313.8866,0.054022
1314.8184,0.054183
1315.7503,0.054386
1316.6821,0.054580
1317.6139,0.054814
1318.5458,0.054896
1319.4776,0.054996
1320.4094,0.055439
1321.3413,0.055585
1322.2731,0.055393
1323.2049,0.055371
1324.1368,0.055484
1325.0686,0.055581
1326.0004,0.055609
1326.9323,0.055452
1327.8641,0.055303
1328.7959,0.055427
1329.7278,0.055228
1330.6596,0.054877
1331.5914,0.054644
1332.5233,0.054519
1333.4551,0.054582
1334.3869,0.054254
1335.3188,0.053556
1336.2506,0.053044
1337.1824,0.052930
1338.1143,0.052964
1339.0461,0.053020
1339.9780,0.053225
1340.9098,0.053528
1341.8416,0.053276
1342.7735,0.052114
1343.7053,0.051315
1344.6371,0.051034
1345.5690,0.050728
1346.5008,0.050483
1347.4326,0.050351
1348.3645,0.050166
1349.2963,0.049890
1350.2281,0.049687
1351.1600,0.049463
1352.0918,0.049314
1353.0236,0.049119
1353.9555,0.049022
1354.8873,0.049154
1355.8191,0.049249
1356.7510,0.049274
1357.6828,0.049047
1358.6146,0.048924
1359.5465,0.048840
1360.4783,0.048633
1361.4101,0.048815
1362.3420,0.049300
1363.2738,0.049709
1364.2056,0.050509
1365.1375,0.050587
1366.0693,0.050194
1367.0012,0.050411
1367.9330,0.050827
1368.8648,0.051527
1369.7967,0.052542
1370.7285,0.053172
1371.6603,0.053725
1372.5922,0.054680
1373.5240,0.055851
1374.4558,0.057592
1375.3877,0.059904
1376.3195,0.061008
1377.2513,0.060888
1378.1832,0.060912
1379.1150,0.062023
1380.0468,0.063262
1380.9787,0.063682
1381.9105,0.063683
1382.8423,0.063835
1383.7742,0.063960
1384.7060,0.063993
1385.6378,0.063899
1386.5697,0.063674
1387.5015,0.063956
1388.4333,0.064799
1389.3652,0.064353
1390.2970,0.063334
1391.2288,0.062565
1392.1607,0.061625
1393.0925,0.061005
1394.0244,0.060746
1394.9562,0.061140
1395.8880,0.062006
1396.8199,0.061741
1397.7517,0.060892
1398.6835,0.060800
1399.6154,0.061648
1400.5472,0.062400
1401.4790,0.061946
1402.4109,0.061237
1403.3427,0.061149
1404.2745,0.061508
1405.2064,0.062163
1406.1382,0.063243
1407.0700,0.063412
1408.0019,0.062931
1408.9337,0.062848
1409.8655,0.062951
1410.7974,0.063159
1411.7292,0.063302
1412.6610,0.063508
1413.5929,0.063283
1414.5247,0.062563
1415.4565,0.062086
1416.3884,0.061850
1417.3202,0.061859
1418.2520,0.062206
1419.1839,0.062967
1420.1157,0.064815
1421.0476,0.065293
1421.9794,0.063333
1422.9112,0.061714
1423.8431,0.061370
1424.7749,0.062111
1425.7067,0.062024
1426.6386,0.060893
1427.5704,0.060066
1428.5022,0.059315
1429.4341,0.059046
1430.3659,0.059424
1431.2977,0.059556
1432.2296,0.058274
1433.1614,0.056706
1434.0932,0.056034
1435.0251,0.055613
1435.9569,0.054956
1436.8887,0.055262
1437.8206,0.057706
1438.7524,0.057699
1439.6842,0.055798
1440.6161,0.055110
1441.5479,0.055167
1442.4797,0.055358
1443.4116,0.055487
1444.3434,0.055515
1445.2752,0.055659
1446.2071,0.056226
1447.1389,0.057188
1448.0707,0.058193
1449.0026,0.059814
1449.9344,0.060789
1450.8663,0.060621
1451.7981,0.060617
1452.7299,0.060526
1453.6618,0.059833
1454.5936,0.058773
1455.5254,0.058587
1456.4573,0.058993
1457.3891,0.059280
1458.3209,0.059662
1459.2528,0.058709
1460.1846,0.056696
1461.1164,0.054502
1462.0483,0.052318
1462.9801,0.050444
1463.9119,0.049258
1464.8438,0.048759
1465.7756,0.048911
1466.7074,0.048531
1467.6393,0.047085
1468.5711,0.045957
1469.5029,0.045055
1470.4348,0.044266
1471.3666,0.043753
1472.2984,0.043742
1473.2303,0.045365
1474.1621,0.047216
1475.0939,0.046623
1476.0258,0.045247
1476.9576,0.045403
1477.8895,0.046075
1478.8213,0.045819
1479.7531,0.045396
1480.6850,0.045264
1481.6168,0.045625
1482.5486,0.045906
1483.4805,0.045794
1484.4123,0.045576
1485.3441,0.045205
1486.2760,0.044508
1487.2078,0.043789
1488.1396,0.043945
1489.0715,0.044296
1490.0033,0.044374
1490.9351,0.045052
1491.8670,0.045227
1492.7988,0.043702
1493.7306,0.042379
1494.6625,0.041663
1495.5943,0.040867
1496.5261,0.040993
1497.4580,0.042317
1498.3898,0.042080
1499.3216,0.041361
1500.2535,0.041555
1501.1853,0.041121
1502.1171,0.040267
1503.0490,0.039911
1503.9808,0.039504
1504.9127,0.038781
1505.8445,0.038494
1506.7763,0.040146
1507.7082,0.043589
1508.6400,0.044196
1509.5718,0.042929
1510.5037,0.041621
1511.4355,0.040815
1512.3673,0.040434
1513.2992,0.040212
1514.2310,0.039722
1515.1628,0.039144
1516.0947,0.039262
1517.0265,0.039841
1517.9583,0.040857
1518.8902,0.041391
1519.8220,0.040006
1520.7538,0.039219
1521.6857,0.040634
1522.6175,0.042396
1523.5493,0.041800
1524.4812,0.041167
1525.4130,0.041000
1526.3448,0.041602
1527.2767,0.042332
1528.2085,0.042284
1529.1403,0.041937
1530.0722,0.041195
1531.0040,0.040432
1531.9359,0.040600
1532.8677,0.041532
1533.7995,0.042763
1534.7314,0.043794
1535.6632,0.043033
1536.5950,0.041910
1537.5269,0.040880
1538.4587,0.039907
1539.3905,0.039965
1540.3224,0.042574
1541.2542,0.046243
1542.1860,0.045506
1543.1179,0.043962
1544.0497,0.043342
1544.9815,0.043252
1545.9134,0.044112
1546.8452,0.044240
1547.7770,0.043446
1548.7089,0.043246
1549.6407,0.043442
1550.5725,0.044339
1551.5044,0.045378
1552.4362,0.045111
1553.3680,0.044342
1554.2999,0.044026
1555.2317,0.044791
1556.1635,0.045113
1557.0954,0.044010
1558.0272,0.043738
1558.9591,0.046481
1559.8909,0.051502
1560.8227,0.052043
1561.7546,0.050510
1562.6864,0.048416
1563.6182,0.047206
1564.5501,0.047419
1565.4819,0.048232
1566.4137,0.048712
1567.3456,0.048853
1568.2774,0.048763
1569.2092,0.049264
1570.1411,0.051425
1571.0729,0.053557
1572.0047,0.052711
1572.9366,0.051399
1573.8684,0.051376
1574.8002,0.051730
1575.7321,0.052040
1576.6639,0.053896
1577.5957,0.056981
1578.5276,0.057129
1579.4594,0.055956
1580.3912,0.055693
1581.3231,0.056186
1582.2549,0.057195
1583.1867,0.058247
1584.1186,0.058693
1585.0504,0.059248
1585.9822,0.060105
1586.9141,0.060869
1587.8459,0.061740
1588.7778,0.062342
1589.7096,0.063073
1590.6414,0.064403
1591.5733,0.065247
1592.5051,0.065946
1593.4369,0.066978
1594.3688,0.067840
1595.3006,0.069280
1596.2324,0.070945
1597.1643,0.072104
1598.0961,0.073337
1599.0279,0.074073
1599.9598,0.074919
1600.8916,0.076555
1601.8234,0.078134
1602.7553,0.079596
1603.6871,0.080896
1604.6189,0.082239
1605.5508,0.083559
1606.4826,0.084700
1607.4144,0.086667
1608.3463,0.089254
1609.2781,0.091183
1610.2099,0.092740
1611.1418,0.094773
1612.0736,0.096243
1613.0054,0.096873
1613.9373,0.098206
1614.8691,0.100041
1615.8010,0.101924
1616.7328,0.105261
1617.6646,0.111716
1618.5965,0.116098
1619.5283,0.114593
1620.4601,0.114334
1621.3920,0.115957
1622.3238,0.117228
1623.2556,0.119260
1624.1875,0.124380
1625.1193,0.129889
1626.0511,0.130073
1626.9830,0.129150
1627.9148,0.130876
1628.8466,0.134452
1629.7785,0.136198
1630.7103,0.135439
1631.6421,0.134915
1632.5740,0.134742
1633.5058,0.134848
1634.4376,0.135369
1635.3695,0.137726
1636.3013,0.145778
1637.2331,0.151493
1638.1650,0.148762
1639.0968,0.146905
1640.0286,0.145158
1640.9605,0.143473
1641.8923,0.142327
1642.8242,0.141018
1643.7560,0.140006
1644.6878,0.139670
1645.6197,0.139629
1646.5515,0.140773
1647.4833,0.143104
1648.4152,0.143280
1649.3470,0.140714
1650.2788,0.136806
1651.2107,0.133090
1652.1425,0.131318
1653.0743,0.132960
1654.0062,0.140836
1654.9380,0.145106
1655.8698,0.138616
1656.8017,0.131660
1657.7335,0.127764
1658.6653,0.125954
1659.5972,0.124149
1660.5290,0.122340
1661.4608,0.121007
1662.3927,0.119608
1663.3245,0.118237
1664.2563,0.117242
1665.1882,0.115028
1666.1200,0.112078
1667.0518,0.109497
1667.9837,0.106994
1668.9155,0.105444
1669.8474,0.105482
1670.7792,0.104892
1671.7110,0.102405
1672.6429,0.100785
1673.5747,0.098989
1674.5065,0.096398
1675.4384,0.094873
1676.3702,0.094638
1677.3020,0.093337
1678.2339,0.090787
1679.1657,0.088373
1680.0975,0.085787
1681.0294,0.083455
1681.9612,0.082087
1682.8930,0.080244
1683.8249,0.078198
1684.7567,0.078498
1685.6885,0.080122
1686.6204,0.077994
1687.5522,0.074587
1688.4840,0.072045
1689.4159,0.070508
1690.3477,0.069284
1691.2795,0.067832
1692.2114,0.065981
1693.1432,0.064109
1694.0750,0.061954
1695.0069,0.060069
1695.9387,0.059168
1696.8706,0.059349
1697.8024,0.058527
1698.7342,0.055501
1699.6661,0.053590
1700.5979,0.053316
1701.5297,0.053411
1702.4616,0.051992
1703.3934,0.050151
1704.3252,0.048720
1705.2571,0.047471
1706.1889,0.046739
1707.1207,0.046218
1708.0526,0.045257
1708.9844,0.043734
1709.9162,0.042221
1710.8481,0.041406
1711.7799,0.040972
1712.7117,0.040074
1713.6436,0.039056
1714.5754,0.038230
1715.5072,0.037497
1716.4391,0.036801
1717.3709,0.036128
1718.3027,0.035873
1719.2346,0.035691
1720.1664,0.034726
1721.0982,0.033481
1722.0301,0.032701
1722.9619,0.032304
1723.8937,0.031834
1724.8256,0.031519
1725.7574,0.030877
1726.6893,0.029553
1727.6211,0.028863
1728.5529,0.028920
1729.4848,0.028697
1730.4166,0.028042
1731.3484,0.027551
1732.2803,0.026973
1733.2121,0.026253
1734.1439,0.025707
1735.0758,0.025061
1736.0076,0.024874
1736.9394,0.024883
1737.8713,0.024626
1738.8031,0.024302
1739.7349,0.023808
1740.6668,0.023504
1741.5986,0.023466
1742.5304,0.023208
1743.4623,0.022721
1744.3941,0.022028
1745.3259,0.021570
1746.2578,0.021462
1747.1896,0.020959
1748.1214,0.020535
1749.0533,0.020675
1749.9851,0.021027
1750.9169,0.021168
1751.8488,0.020508
1752.7806,0.020020
1753.7125,0.020093
1754.6443,0.019246
1755.5761,0.018531
1756.5080,0.018517
1757.4398,0.018611
1758.3716,0.018571
1759.3035,0.018061
1760.2353,0.017860
1761.1671,0.017902
1762.0990,0.017312
1763.0308,0.017008
1763.9626,0.017144
1764.8945,0.016793
1765.8263,0.016798
1766.7581,0.017375
1767.6900,0.016936
1768.6218,0.016215
1769.5536,0.016187
1770.4855,0.015961
1771.4173,0.015636
1772.3491,0.015123
1773.2810,0.014438
1774.2128,0.014602
1775.1446,0.015031
1776.0765,0.015114
1777.0083,0.014874
1777.9401,0.014587
1778.8720,0.014227
1779.8038,0.013779
1780.7357,0.013993
1781.6675,0.014704
1782.5993,0.014828
1783.5312,0.014318
1784.4630,0.013654
1785.3948,0.013617
1786.3267,0.014171
1787.2585,0.013952
1788.1903,0.013527
1789.1222,0.013434
1790.0540,0.013178
1790.9858,0.012943
1791.9177,0.012634
1792.8495,0.012512
1793.7813,0.012625
1794.7132,0.012735
1795.6450,0.012563
1796.5768,0.012125
1797.5087,0.011845
1798.4405,0.011934
1799.3723,0.012063
1800.3042,0.011698
1801.2360,0.011494
1802.1678,0.011950
1803.0997,0.012513
1804.0315,0.012627
1804.9633,0.012068
1805.8952,0.011537
1806.8270,0.011433
1807.7589,0.011374
1808.6907,0.011360
1809.6225,0.011773
1810.5544,0.011845
1811.4862,0.011882
1812.4180,0.012299
1813.3499,0.012067
1814.2817,0.011003
1815.2135,0.010428
1816.1454,0.010840
1817.0772,0.011195
1818.0090,0.011035
1818.9409,0.010776
1819.8727,0.010521
1820.8045,0.010616
1821.7364,0.010750
1822.6682,0.010393
1823.6000,0.010264
1824.5319,0.010373
1825.4637,0.010413
1826.3955,0.010655
1827.3274,0.010819
1828.2592,0.009989
1829.1910,0.009152
1830.1229,0.009055
1831.0547,0.009322
1831.9865,0.009950
1832.9184,0.009983
1833.8502,0.009991
1834.7821,0.010309
1835.7139,0.009950
1836.6457,0.009339
1837.5776,0.009509
1838.5094,0.009967
1839.4412,0.010019
1840.3731,0.009493
1841.3049,0.009701
1842.2367,0.010093
1843.1686,0.010096
1844.1004,0.009693
1845.0322,0.008826
1845.9641,0.008569
1846.8959,0.009742
1847.8277,0.010054
1848.7596,0.009277
1849.6914,0.008887
1850.6232,0.008702
1851.5551,0.009254
1852.4869,0.010149
1853.4187,0.010046
1854.3506,0.009558
1855.2824,0.009703
1856.2142,0.009368
1857.1461,0.008424
1858.0779,0.008658
1859.0097,0.009366
1859.9416,0.008937
1860.8734,0.008803
1861.8052,0.008939
1862.7371,0.009491
1863.6689,0.009479
1864.6008,0.009077
1865.5326,0.009202
1866.4644,0.009663
1867.3963,0.008747
1868.3281,0.007609
1869.2599,0.008994
1870.1918,0.009745
1871.1236,0.010009
1872.0554,0.009393
1872.9873,0.008949
1873.9191,0.009339
1874.8509,0.009176
1875.7828,0.007742
1876.7146,0.007016
1877.6464,0.008011
1878.5783,0.008576
1879.5101,0.008853
1880.4419,0.007937
1881.3738,0.007568
1882.3056,0.007879
1883.2374,0.008077
1884.1693,0.009152
1885.1011,0.010301
1886.0329,0.010201
1886.9648,0.009304
1887.8966,0.008333
1888.8284,0.008178
1889.7603,0.008611
1890.6921,0.008414
1891.6240,0.008304
1892.5558,0.008539
1893.4876,0.007895
1894.4195,0.007464
1895.3513,0.007470
1896.2831,0.008139
1897.2150,0.008636
1898.1468,0.008245
1899.0786,0.007871
1900.0105,0.007736
1900.9423,0.009221
1901.8741,0.009853
1902.8060,0.009084
1903.7378,0.008677
1904.6696,0.008420
1905.6015,0.009256
1906.5333,0.010211
1907.4651,0.008921
1908.3970,0.008577
1909.3288,0.009043
1910.2606,0.008841
1911.1925,0.008398
1912.1243,0.008549
1913.0561,0.008673
1913.9880,0.008551
1914.9198,0.008482
1915.8516,0.009542
1916.7835,0.009230
1917.7153,0.007259
1918.6472,0.007327
1919.5790,0.008677
1920.5108,0.009626
1921.4427,0.010283
1922.3745,0.009804
1923.3063,0.009225
1924.2382,0.009214
1925.1700,0.008951
1926.1018,0.007718
1927.0337,0.005754
1927.9655,0.006679
1928.8973,0.007258
1929.8292,0.007138
1930.7610,0.007385
1931.6928,0.006889
1932.6247,0.007709
1933.5565,0.007824
1934.4883,0.007167
1935.4202,0.009211
1936.3520,0.009898
1937.2838,0.008094
1938.2157,0.005757
1939.1475,0.005333
1940.0793,0.005862
1941.0112,0.006125
1941.9430,0.006546
1942.8748,0.006692
1943.8067,0.005913
1944.7385,0.005992
1945.6704,0.006670
1946.6022,0.006253
1947.5340,0.005608
1948.4659,0.006850
1949.3977,0.007747
1950.3295,0.007472
1951.2614,0.006659
1952.1932,0.005929
1953.1250,0.006616
1954.0569,0.009210
1954.9887,0.009026
1955.9205,0.004859
1956.8524,0.004524
1957.7842,0.005946
1958.7160,0.005386
1959.6479,0.003685
1960.5797,0.001842
1961.5115,0.003294
1962.4434,0.004209
1963.3752,0.003565
1964.3070,0.003389
1965.2389,0.005246
1966.1707,0.006254
1967.1025,0.004860
1968.0344,0.004765
1968.9662,0.004015
1969.8980,0.002837
1970.8299,0.003206
1971.7617,0.000765
1972.6936,0.001583
1973.6254,0.001368
1974.5572,0.001515
1975.4891,0.005527
1976.4209,0.007153
1977.3527,0.004638
1978.2846,0.005538
1979.2164,0.006450
1980.1482,0.002674
1981.0801,0.000953
1982.0119,0.003350
1982.9437,0.004707
1983.8756,0.002205
1984.8074,0.001768
1985.7392,0.002140
1986.6711,0.002256
1987.6029,0.003732
1988.5347,0.005244
1989.4666,0.006765
1990.3984,0.007456
1991.3302,0.007041
1992.2621,0.004318
1993.1939,0.003677
1994.1257,0.006364
1995.0576,0.007364
1995.9894,0.005755
1996.9212,0.004736
1997.8531,0.004227
1998.7849,0.004315
1999.7167,0.007332
2000.6486,0.009856
2001.5804,0.006872
2002.5123,0.005394
2003.4441,0.008041
2004.3759,0.008938
2005.3078,0.006157
2006.2396,0.006440
2007.1714,0.007105
2008.1033,0.006386
2009.0351,0.007324
2009.9669,0.005662
2010.8988,0.005071
2011.8306,0.006096
2012.7624,0.005296
2013.6943,0.005054
2014.6261,0.005606
2015.5579,0.006736
2016.4898,0.004684
2017.4216,0.003631
2018.3534,0.002124
2019.2853,-0.000521
2020.2171,0.001698
2021.1489,0.008180
2022.0808,0.010283
2023.0126,0.005683
2023.9444,0.003295
2024.8763,0.002496
2025.8081,0.002344
2026.7399,0.002578
2027.6718,0.004560
2028.6036,0.005960
2029.5355,0.007756
2030.4673,0.008178
2031.3991,0.009363
2032.3310,0.009055
2033.2628,0.005460
2034.1946,0.002678
2035.1265,0.003858
2036.0583,0.003126
2036.9901,0.003372
2037.9220,0.002215
2038.8538,0.004078
2039.7856,0.007621
2040.7175,0.005893
2041.6493,0.002447
2042.5811,0.002239
2043.5130,0.004539
2044.4448,0.007319
2045.3766,0.005464
2046.3085,0.004784
2047.2403,0.006984
2048.1721,0.007389
2049.1040,0.008396
2050.0358,0.009993
2050.9676,0.008574
2051.8995,0.009020
2052.8313,0.009948
2053.7631,0.009457
2054.6950,0.010652
2055.6268,0.009596
2056.5587,0.010240
2057.4905,0.011590
2058.4223,0.010950
2059.3542,0.011089
2060.2860,0.010985
2061.2178,0.011359
2062.1497,0.010941
2063.0815,0.010413
2064.0133,0.009802
2064.9452,0.009592
2065.8770,0.011472
2066.8088,0.013292
2067.7407,0.013440
2068.6725,0.011296
2069.6043,0.008829
2070.5362,0.008922
2071.4680,0.010427
2072.3998,0.011875
2073.3317,0.012180
2074.2635,0.012756
2075.1953,0.011972
2076.1272,0.010173
2077.0590,0.009866
2077.9908,0.012611
2078.9227,0.014231
2079.8545,0.013318
2080.7863,0.014249
2081.7182,0.013673
2082.6500,0.011316
2083.5819,0.011185
2084.5137,0.011674
2085.4455,0.012792
2086.3774,0.012934
2087.3092,0.012588
2088.2410,0.011671
2089.1729,0.011901
2090.1047,0.012986
2091.0365,0.013383
2091.9684,0.013785
2092.9002,0.013378
2093.8320,0.012911
2094.7639,0.013600
2095.6957,0.014477
2096.6275,0.013513
2097.5594,0.013032
2098.4912,0.012945
2099.4230,0.013386
2100.3549,0.013856
2101.2867,0.013024
2102.2185,0.013518
2103.1504,0.013116
2104.0822,0.011159
2105.0140,0.011715
2105.9459,0.012070
2106.8777,0.010907
2107.8095,0.011657
2108.7414,0.012030
2109.6732,0.012992
2110.6051,0.013488
2111.5369,0.013496
2112.4687,0.013853
2113.4006,0.012769
2114.3324,0.011751
2115.2642,0.012020
2116.1961,0.011772
2117.1279,0.011540
2118.0597,0.011525
2118.9916,0.013063
2119.9234,0.014555
2120.8552,0.013565
2121.7871,0.013218
2122.7189,0.014631
2123.6507,0.015127
2124.5826,0.013070
2125.5144,0.013668
2126.4462,0.014728
2127.3781,0.014295
2128.3099,0.014995
2129.2417,0.014146
2130.1736,0.012979
2131.1054,0.012837
2132.0372,0.012864
2132.9691,0.013228
2133.9009,0.013952
2134.8327,0.012080
2135.7646,0.011691
2136.6964,0.012722
2137.6282,0.012722
2138.5601,0.014713
2139.4919,0.016098
2140.4238,0.012207
2141.3556,0.008693
2142.2874,0.008234
2143.2193,0.009829
2144.1511,0.011013
2145.0829,0.010738
2146.0148,0.010348
2146.9466,0.009901
2147.8784,0.011148
2148.8103,0.009631
2149.7421,0.006932
2150.6739,0.006144
2151.6058,0.006587
2152.5376,0.005205
2153.4694,0.004560
2154.4013,0.005131
2155.3331,0.008873
2156.2649,0.010931
2157.1968,0.008373
2158.1286,0.004328
2159.0604,0.001012
2159.9923,0.003523
2160.9241,0.007518
2161.8559,0.006421
2162.7878,0.002245
2163.7196,0.000996
2164.6514,0.001869
2165.5833,0.002821
2166.5151,0.003655
2167.4470,0.003645
2168.3788,0.006004
2169.3106,0.009588
2170.2425,0.009516
2171.1743,0.008013
2172.1061,0.007194
2173.0380,0.006092
2173.9698,0.005101
2174.9016,0.004911
2175.8335,0.006523
2176.7653,0.008477
2177.6971,0.009947
2178.6290,0.011654
2179.5608,0.010740
2180.4926,0.009225
2181.4245,0.007739
2182.3563,0.005114
2183.2881,0.003547
2184.2200,0.006427
2185.1518,0.007597
2186.0836,0.006736
2187.0155,0.007041
2187.9473,0.003978
2188.8791,0.000981
2189.8110,0.005364
2190.7428,0.007047
2191.6746,0.005846
2192.6065,0.007590
2193.5383,0.008485
2194.4702,0.009499
2195.4020,0.010206
2196.3338,0.007739
2197.2657,0.008369
2198.1975,0.009680
2199.1293,0.009970
2200.0612,0.010401
2200.9930,0.010072
2201.9248,0.008785
2202.8567,0.008836
2203.7885,0.009509
2204.7203,0.008609
2205.6522,0.007654
2206.5840,0.009428
2207.5158,0.010660
2208.4477,0.009441
2209.3795,0.007039
2210.3113,0.005169
2211.2432,0.005459
2212.1750,0.007614
2213.1068,0.006553
2214.0387,0.004584
2214.9705,0.006498
2215.9023,0.006954
2216.8342,0.007551
2217.7660,0.010253
2218.6978,0.011978
2219.6297,0.012263
2220.5615,0.011188
2221.4934,0.011217
2222.4252,0.010958
2223.3570,0.009092
2224.2889,0.007974
2225.2207,0.008743
2226.1525,0.008943
2227.0844,0.007569
2228.0162,0.008512
2228.9480,0.011171
2229.8799,0.008919
2230.8117,0.007430
2231.7435,0.009299
2232.6754,0.009591
2233.6072,0.009664
2234.5390,0.009840
2235.4709,0.009084
2236.4027,0.009508
2237.3345,0.010235
2238.2664,0.009194
2239.1982,0.007342
2240.1300,0.007737
2241.0619,0.008743
2241.9937,0.008832
2242.9255,0.009083
2243.8574,0.009718
2244.7892,0.008983
2245.7210,0.008825
2246.6529,0.008102
2247.5847,0.007926
2248.5166,0.008681
2249.4484,0.008334
2250.3802,0.008927
2251.3121,0.009822
2252.2439,0.010417
2253.1757,0.009961
2254.1076,0.009098
2255.0394,0.008797
2255.9712,0.008669
2256.9031,0.009643
2257.8349,0.008362
2258.7667,0.006394
2259.6986,0.007657
2260.6304,0.008865
2261.5622,0.009125
2262.4941,0.008877
2263.4259,0.008294
2264.3577,0.008244
2265.2896,0.008067
2266.2214,0.008697
2267.1532,0.008804
2268.0851,0.008818
2269.0169,0.010556
2269.9487,0.009869
2270.8806,0.008730
2271.8124,0.008233
2272.7442,0.008381
2273.6761,0.009543
2274.6079,0.009477
2275.5397,0.009467
2276.4716,0.009313
2277.4034,0.009824
2278.3353,0.009656
2279.2671,0.009690
2280.1989,0.009983
2281.1308,0.008766
2282.0626,0.008217
2282.9944,0.007902
2283.9263,0.007187
2284.8581,0.007782
2285.7899,0.007952
2286.7218,0.007063
2287.6536,0.008382
2288.5854,0.010772
2289.5173,0.010536
2290.4491,0.009628
2291.3809,0.008526
2292.3128,0.008347
2293.2446,0.009327
2294.1764,0.009263
2295.1083,0.008774
2296.0401,0.008698
2296.9719,0.009004
2297.9038,0.008665
2298.8356,0.008762
2299.7674,0.008721
2300.6993,0.008480
2301.6311,0.008608
2302.5629,0.009212
2303.4948,0.009605
2304.4266,0.009130
2305.3585,0.009193
2306.2903,0.009679
2307.2221,0.009295
2308.1540,0.009430
2309.0858,0.009239
2310.0176,0.008140
2310.9495,0.008087
2311.8813,0.009509
2312.8131,0.009756
2313.7450,0.008300
2314.6768,0.007718
2315.6086,0.008494
2316.5405,0.008632
2317.4723,0.008196
2318.4041,0.008521
2319.3360,0.008682
2320.2678,0.009579
2321.1996,0.010549
2322.1315,0.009878
2323.0633,0.009133
2323.9951,0.009308
2324.9270,0.008901
2325.8588,0.008819
2326.7906,0.008672
2327.7225,0.007793
2328.6543,0.007507
2329.5861,0.007532
2330.5180,0.007393
2331.4498,0.008064
2332.3817,0.008844
2333.3135,0.008251
2334.2453,0.007635
2335.1772,0.008054
2336.1090,0.008357
2337.0408,0.008835
2337.9727,0.008470
2338.9045,0.007996
2339.8363,0.007915
2340.7682,0.008170
2341.7000,0.007955
2342.6318,0.007449
2343.5637,0.007685
2344.4955,0.008450
2345.4273,0.008931
2346.3592,0.008837
2347.2910,0.008065
2348.2228,0.008315
2349.1547,0.008166
2350.0865,0.007433
2351.0183,0.007788
2351.9502,0.008321
2352.8820,0.008660
2353.8138,0.008971
2354.7457,0.009564
2355.6775,0.008415
2356.6093,0.006765
2357.5412,0.006169
2358.4730,0.006470
2359.4049,0.006301
2360.3367,0.005610
2361.2685,0.006861
2362.2004,0.008111
2363.1322,0.007897
2364.0640,0.006999
2364.9959,0.005993
2365.9277,0.006536
2366.8595,0.007746
2367.7914,0.007967
2368.7232,0.007714
2369.6550,0.006834
2370.5869,0.006764
2371.5187,0.006161
2372.4505,0.006085
2373.3824,0.007474
2374.3142,0.007630
2375.2460,0.006898
2376.1779,0.006193
2377.1097,0.006472
2378.0415,0.006869
2378.9734,0.007136
2379.9052,0.007356
2380.8370,0.006643
2381.7689,0.006223
2382.7007,0.006607
2383.6325,0.007095
2384.5644,0.006843
2385.4962,0.006643
2386.4281,0.007297
2387.3599,0.007189
2388.2917,0.006920
2389.2236,0.006772
2390.1554,0.006653
2391.0872,0.007094
2392.0191,0.006882
2392.9509,0.006316
2393.8827,0.006580
2394.8146,0.006815
2395.7464,0.006585
2396.6782,0.006667
2397.6101,0.006677
2398.5419,0.006749
2399.4737,0.006458
2400.4056,0.006456
2401.3374,0.006228
2402.2692,0.006120
2403.2011,0.006609
2404.1329,0.006851
2405.0647,0.006540
2405.9966,0.005958
2406.9284,0.006106
2407.8602,0.006528
2408.7921,0.007020
2409.7239,0.006995
2410.6557,0.006139
2411.5876,0.005584
2412.5194,0.005894
2413.4512,0.005672
2414.3831,0.005746
2415.3149,0.006441
2416.2468,0.006829
2417.1786,0.006804
2418.1104,0.006431
2419.0423,0.006360
2419.9741,0.006693
2420.9059,0.006558
2421.8378,0.006198
2422.7696,0.006114
2423.7014,0.006282
2424.6333,0.006345
2425.5651,0.006408
2426.4969,0.006140
2427.4288,0.005550
2428.3606,0.005884
2429.2924,0.006177
2430.2243,0.006696
2431.1561,0.006923
2432.0879,0.006518
2433.0198,0.005484
2433.9516,0.004440
2434.8834,0.004561
2435.8153,0.005424
2436.7471,0.005710
2437.6789,0.005626
2438.6108,0.006234
2439.5426,0.006264
2440.4744,0.005398
2441.4063,0.004736
2442.3381,0.004990
2443.2700,0.005861
2444.2018,0.005854
2445.1336,0.005320
2446.0655,0.005230
2446.9973,0.004933
2447.9291,0.003877
2448.8610,0.003657
2449.7928,0.004243
2450.7246,0.005202
2451.6565,0.005832
2452.5883,0.005673
2453.5201,0.005757
2454.4520,0.005729
2455.3838,0.005298
2456.3156,0.005249
2457.2475,0.005328
2458.1793,0.005040
2459.1111,0.005206
2460.0430,0.006349
2460.9748,0.005998
2461.9066,0.004285
2462.8385,0.004254
2463.7703,0.005227
2464.7021,0.005287
2465.6340,0.005203
2466.5658,0.005109
2467.4976,0.005051
2468.4295,0.005371
2469.3613,0.005110
2470.2932,0.004834
2471.2250,0.005401
2472.1568,0.005641
2473.0887,0.005428
2474.0205,0.005093
2474.9523,0.005087
2475.8842,0.005614
2476.8160,0.005770
2477.7478,0.005983
2478.6797,0.005997
2479.6115,0.005319
2480.5433,0.004351
2481.4752,0.004230
2482.4070,0.005156
2483.3388,0.005265
2484.2707,0.004865
2485.2025,0.004750
2486.1343,0.004631
2487.0662,0.005078
2487.9980,0.005242
2488.9298,0.005529
2489.8617,0.005698
2490.7935,0.005133
2491.7253,0.005185
2492.6572,0.005092
2493.5890,0.004732
2494.5208,0.004351
2495.4527,0.004826
2496.3845,0.006041
2497.3164,0.006041
2498.2482,0.004962
2499.1800,0.004871
2500.1119,0.004777
2501.0437,0.004825
2501.9755,0.004869
2502.9074,0.004797
2503.8392,0.004819
2504.7710,0.005307
2505.7029,0.005972
2506.6347,0.005753
2507.5665,0.005187
2508.4984,0.005251
2509.4302,0.005732
2510.3620,0.005260
2511.2939,0.004962
2512.2257,0.005093
2513.1575,0.005089
2514.0894,0.005818
2515.0212,0.006090
2515.9530,0.005471
2516.8849,0.004859
2517.8167,0.004654
2518.7485,0.004905
2519.6804,0.005322
2520.6122,0.004878
2521.5440,0.004619
2522.4759,0.005265
2523.4077,0.005007
2524.3396,0.004856
2525.2714,0.005371
2526.2032,0.005368
2527.1351,0.005494
2528.0669,0.005589
2528.9987,0.005182
2529.9306,0.004776
2530.8624,0.004806
2531.7942,0.005086
2532.7261,0.005234
2533.6579,0.005171
2534.5897,0.004607
2535.5216,0.004397
2536.4534,0.004972
2537.3852,0.005740
2538.3171,0.005926
2539.2489,0.005566
2540.1807,0.005559
2541.1126,0.005414
2542.0444,0.005749
2542.9762,0.006002
2543.9081,0.005762
2544.8399,0.005512
2545.7717,0.005281
2546.7036,0.005124
2547.6354,0.005559
2548.5672,0.005638
2549.4991,0.005256
2550.4309,0.005301
2551.3627,0.004902
2552.2946,0.004358
2553.2264,0.005172
2554.1583,0.005840
2555.0901,0.005424
2556.0219,0.004699
2556.9538,0.003804
2557.8856,0.003200
2558.8174,0.003728
2559.7493,0.004535
2560.6811,0.004360
2561.6129,0.003642
2562.5448,0.003247
2563.4766,0.003681
2564.4084,0.004074
2565.3403,0.003477
2566.2721,0.002990
2567.2039,0.003294
2568.1358,0.004087
2569.0676,0.004573
2569.9994,0.004867
2570.9313,0.004903
2571.8631,0.004420
2572.7949,0.004570
2573.7268,0.004726
2574.6586,0.004313
2575.5904,0.004568
2576.5223,0.005215
2577.4541,0.004663
2578.3859,0.003475
2579.3178,0.003530
2580.2496,0.004313
2581.1815,0.004479
2582.1133,0.004076
2583.0451,0.004044
2583.9770,0.003854
2584.9088,0.004359
2585.8406,0.005550
2586.7725,0.005140
2587.7043,0.005045
2588.6361,0.005202
2589.5680,0.004296
2590.4998,0.003979
2591.4316,0.004297
2592.3635,0.003956
2593.2953,0.003648
2594.2271,0.004301
2595.1590,0.004734
2596.0908,0.004202
2597.0226,0.003762
2597.9545,0.004306
2598.8863,0.004713
2599.8181,0.004381
2600.7500,0.004246
2601.6818,0.003978
2602.6136,0.004075
2603.5455,0.004835
2604.4773,0.004968
2605.4091,0.005107
2606.3410,0.005177
2607.2728,0.005012
2608.2047,0.004998
2609.1365,0.004721
2610.0683,0.004740
2611.0002,0.005564
2611.9320,0.006097
2612.8638,0.005441
2613.7957,0.004858
2614.7275,0.004734
2615.6593,0.004678
2616.5912,0.004686
2617.5230,0.004486
2618.4548,0.004184
2619.3867,0.004320
2620.3185,0.004776
2621.2503,0.004821
2622.1822,0.005026
2623.1140,0.005470
2624.0458,0.005642
2624.9777,0.005636
2625.9095,0.005203
2626.8413,0.005351
2627.7732,0.006182
2628.7050,0.005943
2629.6368,0.005157
2630.5687,0.004790
2631.5005,0.005206
2632.4323,0.005991
2633.3642,0.005800
2634.2960,0.005370
2635.2279,0.005232
2636.1597,0.005162
2637.0915,0.005629
2638.0234,0.006060
2638.9552,0.005975
2639.8870,0.005506
2640.8189,0.005172
2641.7507,0.005297
2642.6825,0.005593
2643.6144,0.005735
2644.5462,0.005386
2645.4780,0.005005
2646.4099,0.005542
2647.3417,0.006324
2648.2735,0.006066
2649.2054,0.005524
2650.1372,0.005754
2651.0690,0.006368
2652.0009,0.006346
2652.9327,0.005836
2653.8645,0.005913
2654.7964,0.006310
2655.7282,0.006551
2656.6600,0.006529
2657.5919,0.006448
2658.5237,0.006457
2659.4555,0.006061
2660.3874,0.005867
2661.3192,0.006335
2662.2511,0.006670
2663.1829,0.006588
2664.1147,0.006711
2665.0466,0.006928
2665.9784,0.006421
2666.9102,0.006194
2667.8421,0.006984
2668.7739,0.007084
2669.7057,0.006528
2670.6376,0.006521
2671.5694,0.006622
2672.5012,0.006707
2673.4331,0.006905
2674.3649,0.006889
2675.2967,0.006777
2676.2286,0.007003
2677.1604,0.007051
2678.0922,0.006879
2679.0241,0.007165
2679.9559,0.007378
2680.8877,0.007417
2681.8196,0.007697
2682.7514,0.007562
2683.6832,0.007116
2684.6151,0.007182
2685.5469,0.007475
2686.4787,0.007451
2687.4106,0.007429
2688.3424,0.007605
2689.2742,0.007506
2690.2061,0.007648
2691.1379,0.007825
2692.0698,0.007639
2693.0016,0.008042
2693.9334,0.008754
2694.8653,0.008715
2695.7971,0.007899
2696.7289,0.007715
2697.6608,0.008286
2698.5926,0.008375
2699.5244,0.008313
2700.4563,0.008203
2701.3881,0.007998
2702.3199,0.008144
2703.2518,0.007996
2704.1836,0.007709
2705.1154,0.008260
2706.0473,0.008503
2706.9791,0.008056
2707.9109,0.008143
2708.8428,0.008452
2709.7746,0.008488
2710.7064,0.008577
2711.6383,0.008611
2712.5701,0.008788
2713.5019,0.009042
2714.4338,0.009019
2715.3656,0.008675
2716.2974,0.008364
2717.2293,0.008429
2718.1611,0.008614
2719.0930,0.008889
2720.0248,0.008985
2720.9566,0.008961
2721.8885,0.009071
2722.8203,0.009268
2723.7521,0.009384
2724.6840,0.009561
2725.6158,0.009989
2726.5476,0.010122
2727.4795,0.009927
2728.4113,0.009916
2729.3431,0.010248
2730.2750,0.010665
2731.2068,0.010569
2732.1386,0.010621
2733.0705,0.010935
2734.0023,0.010664
2734.9341,0.010186
2735.8660,0.010592
2736.7978,0.010910
2737.7296,0.010186
2738.6615,0.010221
2739.5933,0.010703
2740.5251,0.010714
2741.4570,0.010858
2742.3888,0.010844
2743.3206,0.010800
2744.2525,0.010627
2745.1843,0.010376
2746.1162,0.010702
2747.0480,0.010844
2747.9798,0.010676
2748.9117,0.010796
2749.8435,0.010906
2750.7753,0.011097
2751.7072,0.011326
2752.6390,0.011463
2753.5708,0.011401
2754.5027,0.011195
2755.4345,0.011481
2756.3663,0.011851
2757.2982,0.011515
2758.2300,0.011313
2759.1618,0.011609
2760.0937,0.011618
2761.0255,0.011518
2761.9573,0.011740
2762.8892,0.011729
2763.8210,0.011252
2764.7528,0.011089
2765.6847,0.011564
2766.6165,0.012226
2767.5483,0.012202
2768.4802,0.011728
2769.4120,0.011684
2770.3438,0.011906
2771.2757,0.011812
2772.2075,0.012290
2773.1394,0.012733
2774.0712,0.012410
2775.0030,0.012216
2775.9349,0.012358
2776.8667,0.012457
2777.7985,0.012266
2778.7304,0.012455
2779.6622,0.013189
2780.5940,0.013101
2781.5259,0.012620
2782.4577,0.012662
2783.3895,0.012870
2784.3214,0.012822
2785.2532,0.012754
2786.1850,0.013060
2787.1169,0.013251
2788.0487,0.013146
2788.9805,0.013106
2789.9124,0.013259
2790.8442,0.013971
2791.7760,0.014306
2792.7079,0.014297
2793.6397,0.014494
2794.5715,0.014671
2795.5034,0.014882
2796.4352,0.014902
2797.3670,0.014358
2798.2989,0.014232
2799.2307,0.014763
2800.1626,0.015376
2801.0944,0.015854
2802.0262,0.016004
2802.9581,0.016086
2803.8899,0.015534
2804.8217,0.015068
2805.7536,0.015706
2806.6854,0.016153
2807.6172,0.016415
2808.5491,0.016573
2809.4809,0.016146
2810.4127,0.016317
2811.3446,0.016965
2812.2764,0.017096
2813.2082,0.017088
2814.1401,0.017509
2815.0719,0.017737
2816.0037,0.017491
2816.9356,0.017902
2817.8674,0.018271
2818.7992,0.018140
2819.7311,0.018228
2820.6629,0.018520
2821.5947,0.018913
2822.5266,0.018865
2823.4584,0.018874
2824.3902,0.019159
2825.3221,0.019599
2826.2539,0.019808
2827.1857,0.019825
2828.1176,0.019903
2829.0494,0.019896
2829.9813,0.020253
2830.9131,0.020597
2831.8449,0.020427
2832.7768,0.020542
2833.7086,0.020947
2834.6404,0.021453
2835.5723,0.021843
2836.5041,0.021507
2837.4359,0.021244
2838.3678,0.021814
2839.2996,0.022502
2840.2314,0.022417
2841.1633,0.021637
2842.0951,0.021583
2843.0269,0.022565
2843.9588,0.023295
2844.8906,0.023315
2845.8224,0.023590
2846.7543,0.023943
2847.6861,0.023975
2848.6179,0.023459
2849.5498,0.023289
2850.4816,0.024142
2851.4134,0.025027
2852.3453,0.025624
2853.2771,0.025194
2854.2089,0.024838
2855.1408,0.025615
2856.0726,0.026395
2857.0045,0.026474
2857.9363,0.026257
2858.8681,0.026516
2859.8000,0.027194
2860.7318,0.027316
2861.6636,0.027473
2862.5955,0.028373
2863.5273,0.028914
2864.4591,0.028930
2865.3910,0.028905
2866.3228,0.029429
2867.2546,0.030286
2868.1865,0.031356
2869.1183,0.031975
2870.0501,0.031969
2870.9820,0.032488
2871.9138,0.033486
2872.8456,0.034227
2873.7775,0.034803
2874.7093,0.035336
2875.6411,0.036343
2876.5730,0.036770
2877.5048,0.036962
2878.4366,0.037240
2879.3685,0.037615
2880.3003,0.038309
2881.2321,0.039273
2882.1640,0.039422
2883.0958,0.039087
2884.0277,0.039426
2884.9595,0.040681
2885.8913,0.040894
2886.8232,0.040581
2887.7550,0.041033
2888.6868,0.041890
2889.6187,0.042091
2890.5505,0.042314
2891.4823,0.043689
2892.4142,0.044812
2893.3460,0.044667
2894.2778,0.044626
2895.2097,0.044698
2896.1415,0.045164
2897.0733,0.046546
2898.0052,0.046920
2898.9370,0.046887
2899.8688,0.047098
2900.8007,0.047273
2901.7325,0.047783
2902.6643,0.048039
2903.5962,0.047547
2904.5280,0.047164
2905.4598,0.047034
2906.3917,0.046877
2907.3235,0.047004
2908.2553,0.046820
2909.1872,0.046314
2910.1190,0.046282
2911.0509,0.046252
2911.9827,0.045989
2912.9145,0.045396
2913.8464,0.044948
2914.7782,0.044511
2915.7100,0.044122
2916.6419,0.044386
2917.5737,0.044376
2918.5055,0.043736
2919.4374,0.044047
2920.3692,0.044893
2921.3010,0.044879
2922.2329,0.044518
2923.1647,0.044670
2924.0965,0.045036
2925.0284,0.045339
2925.9602,0.045664
2926.8920,0.046061
2927.8239,0.046617
2928.7557,0.046230
2929.6875,0.046226
2930.6194,0.046736
2931.5512,0.046860
2932.4830,0.047231
2933.4149,0.047692
2934.3467,0.048072
2935.2785,0.047744
2936.2104,0.047135
2937.1422,0.047637
2938.0741,0.048800
2939.0059,0.049247
2939.9377,0.049133
2940.8696,0.048972
2941.8014,0.048841
2942.7332,0.048781
2943.6651,0.048347
2944.5969,0.048209
2945.5287,0.048685
2946.4606,0.048757
2947.3924,0.049048
2948.3242,0.049548
2949.2561,0.050448
2950.1879,0.051209
2951.1197,0.050781
2952.0516,0.049994
2952.9834,0.049565
2953.9152,0.049314
2954.8471,0.049851
2955.7789,0.050490
2956.7107,0.050515
2957.6426,0.050782
2958.5744,0.050799
2959.5062,0.051654
2960.4381,0.052975
2961.3699,0.054223
2962.3017,0.055158
2963.2336,0.056483
2964.1654,0.058103
2965.0972,0.059565
2966.0291,0.061254
2966.9609,0.063563
2967.8928,0.065782
2968.8246,0.067045
2969.7564,0.068599
2970.6883,0.070966
2971.6201,0.073604
2972.5519,0.076266
2973.4838,0.078403
2974.4156,0.080766
2975.3474,0.082937
2976.2793,0.084897
2977.2111,0.087309
2978.1429,0.089469
2979.0748,0.090156
2980.0066,0.090981
2980.9384,0.091590
2981.8703,0.091422
2982.8021,0.089742
2983.7339,0.088224
2984.6658,0.087060
2985.5976,0.085679
2986.5294,0.084050
2987.4613,0.082220
2988.3931,0.079393
2989.3249,0.076840
2990.2568,0.075541
2991.1886,0.073742
2992.1204,0.071369
2993.0523,0.069409
2993.9841,0.067047
2994.9160,0.064966
2995.8478,0.064047
2996.7796,0.062808
2997.7115,0.061520
2998.6433,0.061092
2999.5751,0.060700
3000.5070,0.059822
3001.4388,0.058222
3002.3706,0.057826
3003.3025,0.057125
3004.2343,0.056835
3005.1661,0.057650
3006.0980,0.057784
3007.0298,0.057208
3007.9616,0.057238
3008.8935,0.057336
3009.8253,0.057010
3010.7571,0.057008
3011.6890,0.057652
3012.6208,0.058357
3013.5526,0.058420
3014.4845,0.058117
3015.4163,0.058173
3016.3481,0.058664
3017.2800,0.059137
3018.2118,0.059957
3019.1436,0.060117
3020.0755,0.060189
3021.0073,0.060875
3021.9392,0.061829
3022.8710,0.062264
3023.8028,0.061720
3024.7347,0.061764
3025.6665,0.062309
3026.5983,0.062519
3027.5302,0.063165
3028.4620,0.064277
3029.3938,0.065414
3030.3257,0.064979
3031.2575,0.065063
3032.1893,0.066666
3033.1212,0.067750
3034.0530,0.068120
3034.9848,0.067785
3035.9167,0.068091
3036.8485,0.069965
3037.7803,0.070782
3038.7122,0.070622
3039.6440,0.070975
3040.5758,0.070674
3041.5077,0.071608
3042.4395,0.072716
3043.3713,0.072733
3044.3032,0.072754
3045.2350,0.073846
3046.1668,0.075153
3047.0987,0.076336
3048.0305,0.077003
3048.9624,0.076747
3049.8942,0.076796
3050.8260,0.077352
3051.7579,0.078452
3052.6897,0.080024
3053.6215,0.080934
3054.5534,0.081486
3055.4852,0.081777
3056.4170,0.082359
3057.3489,0.082897
3058.2807,0.084452
3059.2125,0.085507
3060.1444,0.085302
3061.0762,0.085558
3062.0080,0.086895
3062.9399,0.088525
3063.8717,0.089515
3064.8035,0.089393
3065.7354,0.089372
3066.6672,0.090212
3067.5990,0.091666
3068.5309,0.092639
3069.4627,0.093184
3070.3945,0.093842
3071.3264,0.094119
3072.2582,0.093927
3073.1900,0.094999
3074.1219,0.096576
3075.0537,0.098212
3075.9856,0.098885
3076.9174,0.099537
3077.8492,0.100292
3078.7811,0.101257
3079.7129,0.103091
3080.6447,0.105112
3081.5766,0.105261
3082.5084,0.105122
3083.4402,0.105174
3084.3721,0.106327
3085.3039,0.107042
3086.2357,0.107596
3087.1676,0.108657
3088.0994,0.109783
3089.0312,0.110919
3089.9631,0.112192
3090.8949,0.113335
3091.8267,0.114995
3092.7586,0.115150
3093.6904,0.115572
3094.6222,0.116877
3095.5541,0.118065
3096.4859,0.118860
3097.4177,0.120159
3098.3496,0.120730
3099.2814,0.121902
3100.2132,0.122699
3101.1451,0.123299
3102.0769,0.124967
3103.0087,0.126321
3103.9406,0.126506
3104.8724,0.127535
3105.8043,0.129202
3106.7361,0.129987
3107.6679,0.129853
3108.5998,0.131748
3109.5316,0.132806
3110.4634,0.132851
3111.3953,0.133949
3112.3271,0.135757
3113.2589,0.137367
3114.1908,0.138821
3115.1226,0.138952
3116.0544,0.139067
3116.9863,0.140896
3117.9181,0.143214
3118.8499,0.144958
3119.7818,0.145600
3120.7136,0.146025
3121.6454,0.147793
3122.5773,0.148410
3123.5091,0.149094
3124.4409,0.149699
3125.3728,0.150739
3126.3046,0.152971
3127.2364,0.154895
3128.1683,0.155310
3129.1001,0.156067
3130.0319,0.157979
3130.9638,0.160036
3131.8956,0.160575
3132.8275,0.162523
3133.7593,0.163419
3134.6911,0.164700
3135.6230,0.166404
3136.5548,0.168253
3137.4866,0.170078
3138.4185,0.171152
3139.3503,0.170769
3140.2821,0.172495
3141.2140,0.173637
3142.1458,0.173938
3143.0776,0.175292
3144.0095,0.178626
3144.9413,0.179265
3145.8731,0.180191
3146.8050,0.182793
3147.7368,0.182822
3148.6686,0.181595
3149.6005,0.184247
3150.5323,0.186198
3151.4641,0.187732
3152.3960,0.189432
3153.3278,0.191286
3154.2596,0.192131
3155.1915,0.192692
3156.1233,0.193663
3157.0551,0.195911
3157.9870,0.196180
3158.9188,0.196642
3159.8507,0.197814
3160.7825,0.198281
3161.7143,0.199579
3162.6462,0.203181
3163.5780,0.205005
3164.5098,0.205341
3165.4417,0.205370
3166.3735,0.207581
3167.3053,0.208025
3168.2372,0.209287
3169.1690,0.211610
3170.1008,0.212343
3171.0327,0.213468
3171.9645,0.215562
3172.8963,0.215957
3173.8282,0.217859
3174.7600,0.220402
3175.6918,0.221207
3176.6237,0.220794
3177.5555,0.223032
3178.4873,0.224392
3179.4192,0.225088
3180.3510,0.226058
3181.2828,0.227597
3182.2147,0.229564
3183.1465,0.230982
3184.0783,0.231768
3185.0102,0.232856
3185.9420,0.233349
3186.8739,0.234940
3187.8057,0.235886
3188.7375,0.237756
3189.6694,0.239138
3190.6012,0.240483
3191.5330,0.239411
3192.4649,0.240390
3193.3967,0.243918
3194.3285,0.246325
3195.2604,0.246997
3196.1922,0.248017
3197.1240,0.248348
3198.0559,0.248868
3198.9877,0.250619
3199.9195,0.252179
3200.8514,0.253450
3201.7832,0.254955
3202.7150,0.255428
3203.6469,0.256076
3204.5787,0.255141
3205.5105,0.255751
3206.4424,0.257433
3207.3742,0.258279
3208.3060,0.259390
3209.2379,0.261545
3210.1697,0.263264
3211.1015,0.264558
3212.0334,0.264786
3212.9652,0.265255
3213.8971,0.265359
3214.8289,0.267202
3215.7607,0.268719
3216.6926,0.268949
3217.6244,0.268240
3218.5562,0.269357
3219.4881,0.270914
3220.4199,0.273438
3221.3517,0.272810
3222.2836,0.272817
3223.2154,0.274221
3224.1472,0.274906
3225.0791,0.274952
3226.0109,0.276480
3226.9427,0.277094
3227.8746,0.276219
3228.8064,0.275588
3229.7382,0.278116
3230.6701,0.280027
3231.6019,0.282000
3232.5337,0.281166
3233.4656,0.280373
3234.3974,0.280975
3235.3292,0.281479
3236.2611,0.281343
3237.1929,0.281234
3238.1247,0.282002
3239.0566,0.284385
3239.9884,0.285321
3240.9202,0.284407
3241.8521,0.284193
3242.7839,0.285552
3243.7158,0.285074
3244.6476,0.285273
3245.5794,0.286021
3246.5113,0.288022
3247.4431,0.288901
3248.3749,0.287627
3249.3068,0.286886
3250.2386,0.288082
3251.1704,0.287311
3252.1023,0.288255
3253.0341,0.289603
3253.9659,0.289573
3254.8978,0.289886
3255.8296,0.289429
3256.7614,0.288060
3257.6933,0.289708
3258.6251,0.290291
3259.5569,0.292462
3260.4888,0.292533
3261.4206,0.291947
3262.3524,0.292326
3263.2843,0.291928
3264.2161,0.291134
3265.1479,0.292855
3266.0798,0.292052
3267.0116,0.291122
3267.9434,0.291341
3268.8753,0.293058
3269.8071,0.294021
3270.7390,0.292442
3271.6708,0.290126
3272.6026,0.290846
3273.5345,0.292817
3274.4663,0.294174
3275.3981,0.294171
3276.3300,0.294021
3277.2618,0.292407
3278.1936,0.291454
3279.1255,0.292694
3280.0573,0.295016
3280.9891,0.294469
3281.9210,0.294999
3282.8528,0.293443
3283.7846,0.293717
3284.7165,0.294294
3285.6483,0.294374
3286.5801,0.293734
3287.5120,0.296262
3288.4438,0.297329
3289.3756,0.297103
3290.3075,0.295657
3291.2393,0.295435
3292.1711,0.293250
3293.1030,0.292670
3294.0348,0.294712
3294.9666,0.295707
3295.8985,0.294758
3296.8303,0.296151
3297.7622,0.295658
3298.6940,0.294959
3299.6258,0.294258
3300.5577,0.294892
3301.4895,0.295619
3302.4213,0.296725
3303.3532,0.293787
3304.2850,0.292879
3305.2168,0.292623
3306.1487,0.294581
3307.0805,0.296061
3308.0123,0.296198
3308.9442,0.296421
3309.8760,0.297756
3310.8078,0.298159
3311.7397,0.297426
3312.6715,0.296206
3313.6033,0.297029
3314.5352,0.295900
3315.4670,0.296024
3316.3988,0.295323
3317.3307,0.296108
3318.2625,0.297786
3319.1943,0.297352
3320.1262,0.294428
3321.0580,0.294661
3321.9898,0.294730
3322.9217,0.296565
3323.8535,0.297265
3324.7854,0.298097
3325.7172,0.296669
3326.6490,0.296405
3327.5809,0.296896
3328.5127,0.297491
3329.4445,0.296293
3330.3764,0.296334
3331.3082,0.297442
3332.2400,0.298344
3333.1719,0.298649
3334.1037,0.300725
3335.0355,0.299614
3335.9674,0.298205
3336.8992,0.298479
3337.8310,0.299659
3338.7629,0.299886
3339.6947,0.300430
3340.6265,0.299908
3341.5584,0.298832
3342.4902,0.296661
3343.4220,0.297759
3344.3539,0.297729
3345.2857,0.299327
3346.2175,0.299776
3347.1494,0.298079
3348.0812,0.297627
3349.0130,0.299341
3349.9449,0.298130
3350.8767,0.296185
3351.8086,0.296296
3352.7404,0.297987
3353.6722,0.298419
3354.6041,0.297137
3355.5359,0.297904
3356.4677,0.298951
3357.3996,0.296666
3358.3314,0.296226
3359.2632,0.297804
3360.1951,0.299545
3361.1269,0.297748
3362.0587,0.298487
3362.9906,0.297017
3363.9224,0.296982
3364.8542,0.297032
3365.7861,0.297558
3366.7179,0.296384
3367.6497,0.292420
3368.5816,0.291252
3369.5134,0.294287
3370.4452,0.292983
3371.3771,0.292392
3372.3089,0.293862
3373.2407,0.293657
3374.1726,0.289966
3375.1044,0.291862
3376.0362,0.292933
3376.9681,0.291236
3377.8999,0.290599
3378.8317,0.290341
3379.7636,0.289113
3380.6954,0.287876
3381.6273,0.285805
3382.5591,0.286818
3383.4909,0.287185
3384.4228,0.287416
3385.3546,0.285787
3386.2864,0.285247
3387.2183,0.286524
3388.1501,0.287704
3389.0819,0.284389
3390.0138,0.286029
3390.9456,0.287717
3391.8774,0.286450
3392.8093,0.285739
3393.7411,0.286101
3394.6729,0.284293
3395.6048,0.283894
3396.5366,0.282177
3397.4684,0.280649
3398.4003,0.279912
3399.3321,0.281416
3400.2639,0.279954
3401.1958,0.277885
3402.1276,0.276033
3403.0594,0.275402
3403.9913,0.271807
3404.9231,0.268233
3405.8549,0.268422
3406.7868,0.269159
3407.7186,0.269574
3408.6505,0.270275
3409.5823,0.269163
3410.5141,0.271481
3411.4460,0.270341
3412.3778,0.268123
3413.3096,0.266545
3414.2415,0.265867
3415.1733,0.264542
3416.1051,0.264533
3417.0370,0.264435
3417.9688,0.261654
3418.9006,0.258837
3419.8325,0.262482
3420.7643,0.262757
3421.6961,0.260460
3422.6280,0.259194
3423.5598,0.259360
3424.4916,0.257870
3425.4235,0.255607
3426.3553,0.253450
3427.2871,0.254691
3428.2190,0.255925
3429.1508,0.253515
3430.0826,0.250890
3431.0145,0.252039
3431.9463,0.252202
3432.8781,0.251429
3433.8100,0.248685
3434.7418,0.243463
3435.6737,0.241303
3436.6055,0.244030
3437.5373,0.243695
3438.4692,0.240957
3439.4010,0.236559
3440.3328,0.233667
3441.2647,0.232268
3442.1965,0.234260
3443.1283,0.236788
3444.0602,0.236098
3444.9920,0.233774
3445.9238,0.234867
3446.8557,0.235363
3447.7875,0.234813
3448.7193,0.230036
3449.6512,0.226368
3450.5830,0.225896
3451.5148,0.225446
3452.4467,0.225017
3453.3785,0.225224
3454.3103,0.222755
3455.2422,0.220869
3456.1740,0.218364
3457.1058,0.219307
3458.0377,0.221356
3458.9695,0.220719
3459.9013,0.217854
3460.8332,0.217210
3461.7650,0.215614
3462.6969,0.211931
3463.6287,0.210480
3464.5605,0.213500
3465.4924,0.213853
3466.4242,0.211575
3467.3560,0.209714
3468.2879,0.208449
3469.2197,0.206036
3470.1515,0.206310
3471.0834,0.204784
3472.0152,0.203173
3472.9470,0.202110
3473.8789,0.200697
3474.8107,0.198798
3475.7425,0.199156
3476.6744,0.196491
3477.6062,0.194023
3478.5380,0.194673
3479.4699,0.192711
3480.4017,0.192029
3481.3335,0.194086
3482.2654,0.192923
3483.1972,0.191445
3484.1290,0.191987
3485.0609,0.193141
3485.9927,0.190545
3486.9245,0.186876
3487.8564,0.185594
3488.7882,0.185208
3489.7201,0.182921
3490.6519,0.180716
3491.5837,0.180704
3492.5156,0.182319
3493.4474,0.180605
3494.3792,0.178278
3495.3111,0.176404
3496.2429,0.177844
3497.1747,0.180586
3498.1066,0.178121
3499.0384,0.173732
3499.9702,0.173677
3500.9021,0.170341
3501.8339,0.166589
3502.7657,0.166164
3503.6976,0.166165
3504.6294,0.166423
3505.5612,0.165302
3506.4931,0.164739
3507.4249,0.167120
3508.3567,0.167461
3509.2886,0.166203
3510.2204,0.162161
3511.1522,0.158190
3512.0841,0.157060
3513.0159,0.158658
3513.9477,0.158400
3514.8796,0.157146
3515.8114,0.156259
3516.7432,0.153978
3517.6751,0.152856
3518.6069,0.154543
3519.5388,0.151890
3520.4706,0.147867
3521.4024,0.146967
3522.3343,0.146365
3523.2661,0.146686
3524.1979,0.147603
3525.1298,0.147263
3526.0616,0.148193
3526.9934,0.145690
3527.9253,0.141567
3528.8571,0.139956
3529.7889,0.140788
3530.7208,0.140738
3531.6526,0.140218
3532.5844,0.137524
3533.5163,0.136834
3534.4481,0.139644
3535.3799,0.138587
3536.3118,0.135706
3537.2436,0.133662
3538.1754,0.132529
3539.1073,0.132150
3540.0391,0.129086
3540.9709,0.126987
3541.9028,0.128686
3542.8346,0.130626
3543.7664,0.128059
3544.6983,0.125193
3545.6301,0.125139
3546.5620,0.127752
3547.4938,0.124870
3548.4256,0.121616
3549.3575,0.121746
3550.2893,0.121293
3551.2211,0.119135
3552.1530,0.117831
3553.0848,0.117039
3554.0166,0.114224
3554.9485,0.111981
3555.8803,0.113543
3556.8121,0.114746
3557.7440,0.112306
3558.6758,0.109419
3559.6076,0.110479
3560.5395,0.111168
3561.4713,0.109854
3562.4031,0.107542
3563.3350,0.105612
3564.2668,0.102452
3565.1986,0.101672
3566.1305,0.103591
3567.0623,0.106605
3567.9941,0.107782
3568.9260,0.104926
3569.8578,0.103570
3570.7896,0.101737
3571.7215,0.098593
3572.6533,0.098131
3573.5852,0.098597
3574.5170,0.098842
3575.4488,0.096016
3576.3807,0.093566
3577.3125,0.094270
3578.2443,0.095252
3579.1762,0.094280
3580.1080,0.091336
3581.0398,0.088191
3581.9717,0.086465
3582.9035,0.086519
3583.8353,0.088226
3584.7672,0.089231
3585.6990,0.088565
3586.6308,0.085795
3587.5627,0.083897
3588.4945,0.083231
3589.4263,0.083730
3590.3582,0.084679
3591.2900,0.082106
3592.2218,0.078831
3593.1537,0.078761
3594.0855,0.080580
3595.0173,0.080119
3595.9492,0.077933
3596.8810,0.077834
3597.8128,0.079536
3598.7447,0.077952
3599.6765,0.075090
3600.6084,0.075054
3601.5402,0.074169
3602.4720,0.072631
3603.4039,0.072288
3604.3357,0.072796
3605.2675,0.073748
3606.1994,0.072245
3607.1312,0.070014
3608.0630,0.069064
3608.9949,0.068161
3609.9267,0.066472
3610.8585,0.065353
3611.7904,0.066600
3612.7222,0.068206
3613.6540,0.068354
3614.5859,0.065621
3615.5177,0.063087
3616.4495,0.062202
3617.3814,0.063076
3618.3132,0.063084
3619.2450,0.060638
3620.1769,0.059497
3621.1087,0.059227
3622.0405,0.059062
3622.9724,0.058999
3623.9042,0.056960
3624.8360,0.055067
3625.7679,0.055823
3626.6997,0.055947
3627.6316,0.053508
3628.5634,0.053505
3629.4952,0.056295
3630.4271,0.054756
3631.3589,0.050005
3632.2907,0.049705
3633.2226,0.051362
3634.1544,0.051178
3635.0862,0.049930
3636.0181,0.048279
3636.9499,0.047273
3637.8817,0.047178
3638.8136,0.047162
3639.7454,0.047767
3640.6772,0.047554
3641.6091,0.045776
3642.5409,0.044835
3643.4727,0.044414
3644.4046,0.043607
3645.3364,0.042529
3646.2682,0.041181
3647.2001,0.040827
3648.1319,0.040583
3649.0637,0.040504
3649.9956,0.039146
3650.9274,0.037038
3651.8592,0.037165
3652.7911,0.035684
3653.7229,0.031253
3654.6547,0.031885
3655.5866,0.035020
3656.5184,0.035179
3657.4503,0.034114
3658.3821,0.033002
3659.3139,0.032161
3660.2458,0.032086
3661.1776,0.032062
3662.1094,0.030760
3663.0413,0.029957
3663.9731,0.029724
3664.9049,0.028151
3665.8368,0.027102
3666.7686,0.026622
3667.7004,0.026140
3668.6323,0.024987
3669.5641,0.023389
3670.4959,0.023236
3671.4278,0.022412
3672.3596,0.020831
3673.2914,0.021108
3674.2233,0.021647
3675.1551,0.020784
3676.0869,0.020144
3677.0188,0.020698
3677.9506,0.019308
3678.8824,0.017645
3679.8143,0.017725
3680.7461,0.016579
3681.6779,0.015225
3682.6098,0.014745
3683.5416,0.014992
3684.4735,0.015367
3685.4053,0.015127
3686.3371,0.014346
3687.2690,0.013699
3688.2008,0.013675
3689.1326,0.014789
3690.0645,0.014674
3690.9963,0.012100
3691.9281,0.010484
3692.8600,0.009914
3693.7918,0.008643
3694.7236,0.008016
3695.6555,0.009685
3696.5873,0.010662
3697.5191,0.010161
3698.4510,0.010193
3699.3828,0.009163
3700.3146,0.007834
3701.2465,0.007818
3702.1783,0.006756
3703.1101,0.006095
3704.0420,0.006650
3704.9738,0.006312
3705.9056,0.005646
3706.8375,0.005295
3707.7693,0.005470
3708.7011,0.006642
3709.6330,0.007172
3710.5648,0.006014
3711.4967,0.005256
3712.4285,0.006216
3713.3603,0.006935
3714.2922,0.006508
3715.2240,0.005465
3716.1558,0.004182
3717.0877,0.004756
3718.0195,0.005032
3718.9513,0.003899
3719.8832,0.003527
3720.8150,0.004164
3721.7468,0.005126
3722.6787,0.004990
3723.6105,0.004090
3724.5423,0.003444
3725.4742,0.002572
3726.4060,0.002290
3727.3378,0.002286
3728.2697,0.001421
3729.2015,0.001251
3730.1333,0.002172
3731.0652,0.002848
3731.9970,0.003733
3732.9288,0.002938
3733.8607,0.001430
3734.7925,0.002038
3735.7243,0.001802
3736.6562,0.000157
3737.5880,0.000490
3738.5199,0.002811
3739.4517,0.002727
3740.3835,0.000276
3741.3154,0.000570
3742.2472,0.001701
3743.1790,0.001053
3744.1109,0.000539
3745.0427,0.000777
3745.9745,0.000053
3746.9064,-0.000758
3747.8382,0.001733
3748.7700,0.003151
3749.7019,0.002598
3750.6337,0.002560
3751.5655,0.001613
3752.4974,0.000862
3753.4292,0.000215
3754.3610,-0.000830
3755.2929,0.000076
3756.2247,0.001099
3757.1565,0.001200
3758.0884,0.001968
3759.0202,0.001972
3759.9520,0.001269
3760.8839,0.001790
3761.8157,0.002166
3762.7475,0.001811
3763.6794,0.001823
3764.6112,0.003053
3765.5431,0.003484
3766.4749,0.002022
3767.4067,0.001281
3768.3386,0.001159
3769.2704,0.000347
3770.2022,0.000710
3771.1341,0.002383
3772.0659,0.002628
3772.9977,0.001506
3773.9296,0.001488
3774.8614,0.001399
3775.7932,0.001659
3776.7251,0.002229
3777.6569,0.001777
3778.5887,0.001095
3779.5206,0.000712
3780.4524,0.000887
3781.3842,0.001483
3782.3161,0.001507
3783.2479,0.001248
3784.1797,0.002123
3785.1116,0.002604
3786.0434,0.002336
3786.9752,0.002093
3787.9071,0.001798
3788.8389,0.002281
3789.7707,0.002396
3790.7026,0.001319
3791.6344,0.000964
3792.5662,0.001254
3793.4981,0.000690
3794.4299,0.000590
3795.3618,0.000968
3796.2936,0.001001
3797.2254,0.000871
3798.1573,0.000502
3799.0891,0.000563
3800.0209,0.000967
3800.9528,0.000481
3801.8846,0.000315
3802.8164,0.000550
3803.7483,-0.000175
3804.6801,0.000702
3805.6119,0.002588
3806.5438,0.002114
3807.4756,0.000178
3808.4074,-0.000603
3809.3393,0.000041
3810.2711,0.000136
3811.2029,-0.000062
3812.1348,0.000431
3813.0666,0.001237
3813.9984,0.001672
3814.9303,0.001695
3815.8621,0.001333
3816.7939,0.000604
3817.7258,0.000065
3818.6576,0.000420
3819.5894,0.000340
3820.5213,-0.000433
3821.4531,0.000022
3822.3850,0.000345
3823.3168,-0.000348
3824.2486,-0.001655
3825.1805,-0.001485
3826.1123,-0.000268
3827.0441,0.000596
3827.9760,0.000728
3828.9078,0.000005
3829.8396,-0.000039
3830.7715,0.001196
3831.7033,0.001830
3832.6351,0.001774
3833.5670,0.001447
3834.4988,0.000439
3835.4306,-0.000224
3836.3625,-0.000269
3837.2943,-0.000296
3838.2261,0.000199
3839.1580,0.000461
3840.0898,-0.000461
3841.0216,-0.001275
3841.9535,-0.000859
3842.8853,-0.000229
3843.8171,0.000736
3844.7490,0.001383
3845.6808,0.000764
3846.6126,-0.000096
3847.5445,0.000386
3848.4763,0.001644
3849.4082,0.001768
3850.3400,0.001433
3851.2718,0.000143
3852.2037,-0.001229
3853.1355,-0.000727
3854.0673,0.001083
3854.9992,0.000504
3855.9310,-0.001832
3856.8628,-0.002322
3857.7947,-0.000123
3858.7265,0.000972
3859.6583,0.000984
3860.5902,0.000905
3861.5220,0.000369
3862.4538,0.000143
3863.3857,0.000097
3864.3175,-0.000835
3865.2493,-0.001018
3866.1812,0.000005
3867.1130,-0.000224
3868.0448,-0.000702
3868.9767,0.000601
3869.9085,0.001463
3870.8403,0.001307
3871.7722,0.001432
3872.7040,0.001570
3873.6358,0.001806
3874.5677,0.000709
3875.4995,0.000060
3876.4314,0.000203
3877.3632,-0.000275
3878.2950,-0.000390
3879.2269,0.000566
3880.1587,0.001659
3881.0905,0.002031
3882.0224,0.002108
3882.9542,0.001211
3883.8860,0.000196
3884.8179,-0.000320
3885.7497,0.000288
3886.6815,0.001057
3887.6134,0.000872
3888.5452,0.000572
3889.4770,0.000781
3890.4089,0.000309
3891.3407,0.000108
3892.2725,0.000109
3893.2044,-0.000947
3894.1362,-0.001062
3895.0680,-0.000541
3895.9999,-0.000070
3896.9317,0.000906
3897.8635,0.001500
3898.7954,0.000710
3899.7272,0.000562
3900.6590,0.000366
3901.5909,-0.000136
3902.5227,0.000441
3903.4546,0.000665
3904.3864,0.001885
3905.3182,0.002437
3906.2501,0.000609
3907.1819,-0.000372
3908.1137,-0.000179
3909.0456,0.000472
3909.9774,0.001226
3910.9092,0.000816
3911.8411,0.000200
3912.7729,0.000444
3913.7047,0.001174
3914.6366,0.001405
3915.5684,0.000759
3916.5002,0.000088
3917.4321,0.000043
3918.3639,0.000652
3919.2957,0.001431
3920.2276,0.001330
3921.1594,0.000654
3922.0912,0.000595
3923.0231,-0.000312
3923.9549,-0.000957
3924.8867,-0.000674
3925.8186,0.000486
3926.7504,0.001277
3927.6822,0.001300
3928.6141,0.001095
3929.5459,0.001223
3930.4777,0.000552
3931.4096,0.000101
3932.3414,0.000535
3933.2733,0.000184
3934.2051,-0.000021
3935.1369,-0.000129
3936.0688,0.000509
3937.0006,0.001681
3937.9324,0.002610
3938.8643,0.002064
3939.7961,0.001258
3940.7279,0.001672
3941.6598,0.001324
3942.5916,0.000768
3943.5234,0.001124
3944.4553,0.001530
3945.3871,0.001279
3946.3189,0.000755
3947.2508,0.000993
3948.1826,0.000786
3949.1144,0.000457
3950.0463,0.000042
3950.9781,-0.000141
3951.9099,-0.000036
3952.8418,0.000883
3953.7736,0.001369
3954.7054,0.001493
3955.6373,0.001915
3956.5691,0.001475
3957.5009,0.001005
3958.4328,0.002105
3959.3646,0.002075
3960.2965,0.000303
3961.2283,0.000147
3962.1601,0.000626
3963.0920,-0.000579
3964.0238,-0.000334
3964.9556,0.001338
3965.8875,0.001323
3966.8193,0.001254
3967.7511,0.001460
3968.6830,0.001309
3969.6148,0.000908
3970.5466,0.000842
3971.4785,0.000970
3972.4103,0.000964
3973.3421,0.001957
3974.2740,0.002477
3975.2058,0.001344
3976.1376,0.000999
3977.0695,0.001541
3978.0013,0.002268
3978.9331,0.002468
3979.8650,0.001824
3980.7968,0.001789
3981.7286,0.001722
3982.6605,0.000992
3983.5923,0.000629
3984.5241,0.001200
3985.4560,0.001029
3986.3878,0.000772
3987.3197,0.001917
3988.2515,0.002552
3989.1833,0.001974
3990.1152,0.001363
3991.0470,0.000836
3991.9788,0.000011
3992.9107,-0.000372
3993.8425,0.000018
3994.7743,0.000591
3995.7062,0.000996
3996.6380,0.001930
3997.5698,0.001496
3998.5017,0.001210
3999.4335,0.002051
4000.3653,0.001940
