Wavenumber,Intensity
650.4205,0.364984
651.3523,0.354685
652.2841,0.347057
653.2160,0.360173
654.1478,0.377692
655.0796,0.378266
656.0115,0.362736
656.9433,0.359938
657.8751,0.370969
658.8070,0.374511
659.7388,0.367091
660.6706,0.362997
661.6025,0.353574
662.5343,0.352258
663.4661,0.360946
664.3980,0.360001
665.3298,0.356040
666.2616,0.354913
667.1935,0.347157
668.1253,0.346239
669.0571,0.368250
669.9890,0.370208
670.9208,0.360098
671.8526,0.355189
672.7845,0.351985
673.7163,0.349012
674.6481,0.344517
675.5800,0.345963
676.5118,0.352740
677.4437,0.350729
678.3755,0.337768
679.3073,0.332879
680.2392,0.335961
681.1710,0.337925
682.1028,0.334949
683.0347,0.329354
683.9665,0.329189
684.8983,0.333712
685.8302,0.333401
686.7620,0.332807
687.6938,0.329332
688.6257,0.323078
689.5575,0.323796
690.4893,0.328320
691.4212,0.327472
692.3530,0.321568
693.2848,0.314178
694.2167,0.313152
695.1485,0.312601
696.0803,0.314897
697.0122,0.320158
697.9440,0.319069
698.8758,0.313887
699.8077,0.312849
700.7395,0.311268
701.6713,0.310028
702.6032,0.311576
703.5350,0.311080
704.4669,0.306145
705.3987,0.301694
706.3305,0.299008
707.2624,0.300678
708.1942,0.303858
709.1260,0.304815
710.0579,0.300791
710.9897,0.299105
711.9215,0.297623
712.8534,0.294975
713.7852,0.295235
714.7170,0.296944
715.6489,0.295329
716.5807,0.293256
717.5125,0.291217
718.4444,0.289913
719.3762,0.287268
720.3080,0.285610
721.2399,0.287772
722.1717,0.289003
723.1035,0.283179
724.0354,0.278558
724.9672,0.276034
725.8990,0.274700
726.8309,0.275708
727.7627,0.276488
728.6945,0.275714
729.6264,0.275275
730.5582,0.273670
731.4901,0.271170
732.4219,0.268005
733.3537,0.266711
734.2856,0.267595
735.2174,0.267032
736.1492,0.264921
737.0811,0.262282
738.0129,0.259279
738.9447,0.258416
739.8766,0.258049
740.8084,0.257613
741.7402,0.257648
742.6721,0.257891
743.6039,0.257403
744.5357,0.255271
745.4676,0.251733
746.3994,0.249919
747.3312,0.249473
748.2631,0.248483
749.1949,0.246150
750.1267,0.245452
751.0586,0.244217
751.9904,0.242463
752.9222,0.242576
753.8541,0.242574
754.7859,0.239909
755.7177,0.237831
756.6496,0.236635
757.5814,0.235062
758.5132,0.234716
759.4451,0.234070
760.3769,0.232776
761.3088,0.231739
762.2406,0.230364
763.1724,0.229248
764.1043,0.227810
765.0361,0.226902
765.9679,0.225340
766.8998,0.223242
767.8316,0.221707
768.7634,0.220639
769.6953,0.220192
770.6271,0.219642
771.5589,0.218458
772.4908,0.216674
773.4226,0.215776
774.3544,0.215747
775.2863,0.212900
776.2181,0.209428
777.1499,0.208412
778.0818,0.208722
779.0136,0.207655
779.9454,0.206132
780.8773,0.204127
781.8091,0.202118
782.7409,0.202283
783.6728,0.203318
784.6046,0.202094
785.5364,0.201275
786.4683,0.199559
787.4001,0.197500
788.3320,0.195173
789.2638,0.194931
790.1956,0.195637
791.1275,0.193315
792.0593,0.190940
792.9911,0.191132
793.9230,0.190949
794.8548,0.189892
795.7866,0.187840
796.7185,0.185625
797.6503,0.184845
798.5821,0.184833
799.5140,0.184180
800.4458,0.182897
801.3776,0.181264
802.3095,0.180341
803.2413,0.180163
804.1731,0.179050
805.1050,0.176957
806.0368,0.175479
806.9686,0.173536
807.9005,0.171770
808.8323,0.170579
809.7641,0.170308
810.6960,0.169894
811.6278,0.168475
812.5596,0.167098
813.4915,0.166217
814.4233,0.164503
815.3552,0.162451
816.2870,0.160216
817.2188,0.158642
818.1507,0.158012
819.0825,0.157126
820.0143,0.156139
820.9462,0.155109
821.8780,0.153842
822.8098,0.152939
823.7417,0.152089
824.6735,0.150881
825.6053,0.149599
826.5372,0.148211
827.4690,0.146391
828.4008,0.145920
829.3327,0.145453
830.2645,0.143665
831.1963,0.142240
832.1282,0.141813
833.0600,0.141150
833.9918,0.140309
834.9237,0.139287
835.8555,0.139032
836.7873,0.138108
837.7192,0.136332
838.6510,0.135200
839.5828,0.134298
840.5147,0.133216
841.4465,0.132863
842.3784,0.132162
843.3102,0.130898
844.2420,0.129970
845.1739,0.129264
846.1057,0.128224
847.0375,0.127411
847.9694,0.126523
848.9012,0.125537
849.8330,0.125117
850.7649,0.125198
851.6967,0.124701
852.6285,0.123048
853.5604,0.121678
854.4922,0.121826
855.4240,0.121393
856.3559,0.120451
857.2877,0.119372
858.2195,0.118481
859.1514,0.118443
860.0832,0.118762
861.0150,0.118740
861.9469,0.118688
862.8787,0.119175
863.8105,0.119645
864.7424,0.120243
865.6742,0.120655
866.6060,0.121497
867.5379,0.122585
868.4697,0.124460
869.4016,0.127055
870.3334,0.129851
871.2652,0.133572
872.1971,0.137726
873.1289,0.142668
874.0607,0.148050
874.9926,0.153235
875.9244,0.157588
876.8562,0.160743
877.7881,0.162352
878.7199,0.161286
879.6517,0.157953
880.5836,0.152786
881.5154,0.146603
882.4472,0.139643
883.3791,0.131828
884.3109,0.124940
885.2427,0.118786
886.1746,0.112960
887.1064,0.107334
888.0382,0.103283
888.9701,0.099728
889.9019,0.096514
890.8337,0.094078
891.7656,0.092162
892.6974,0.090068
893.6292,0.088495
894.5611,0.086969
895.4929,0.085621
896.4247,0.084499
897.3566,0.083311
898.2884,0.082620
899.2203,0.081604
900.1521,0.080263
901.0839,0.079375
902.0158,0.078786
902.9476,0.078507
903.8794,0.078056
904.8113,0.077236
905.7431,0.076557
906.6749,0.076114
907.6068,0.075572
908.5386,0.074897
909.4704,0.074039
910.4023,0.073699
911.3341,0.073556
912.2659,0.072570
913.1978,0.071514
914.1296,0.071224
915.0614,0.071157
915.9933,0.070965
916.9251,0.070591
917.8569,0.069598
918.7888,0.068538
919.7206,0.068327
920.6524,0.068118
921.5843,0.067438
922.5161,0.066857
923.4479,0.066598
924.3798,0.066340
925.3116,0.065968
926.2435,0.065731
927.1753,0.065194
928.1071,0.064564
929.0390,0.064541
929.9708,0.064117
930.9026,0.063462
931.8345,0.063092
932.7663,0.062864
933.6981,0.062413
934.6300,0.062041
935.5618,0.061951
936.4936,0.061878
937.4255,0.061417
938.3573,0.060949
939.2891,0.060774
940.2210,0.060706
941.1528,0.060670
942.0846,0.060151
943.0165,0.059345
943.9483,0.059199
944.8801,0.059143
945.8120,0.058856
946.7438,0.058591
947.6756,0.058567
948.6075,0.058567
949.5393,0.058333
950.4711,0.058092
951.4030,0.057922
952.3348,0.057522
953.2667,0.057448
954.1985,0.057665
955.1303,0.057192
956.0622,0.056831
956.9940,0.056557
957.9258,0.056015
958.8577,0.055735
959.7895,0.055799
960.7213,0.055562
961.6532,0.055202
962.5850,0.055339
963.5168,0.055527
964.4487,0.055349
965.3805,0.055010
966.3123,0.054736
967.2442,0.054500
968.1760,0.054397
969.1078,0.054387
970.0397,0.054477
970.9715,0.054472
971.9033,0.053945
972.8352,0.053568
973.7670,0.053684
974.6988,0.053724
975.6307,0.053721
976.5625,0.053862
977.4943,0.053675
978.4262,0.053614
979.3580,0.053682
980.2899,0.053609
981.2217,0.053744
982.1535,0.053828
983.0854,0.053766
984.0172,0.053658
984.9490,0.053763
985.8809,0.053779
986.8127,0.053687
987.7445,0.053527
988.6764,0.053527
989.6082,0.053768
990.5400,0.053703
991.4719,0.053776
992.4037,0.053938
993.3355,0.054067
994.2674,0.054513
995.1992,0.054811
996.1310,0.054737
997.0629,0.054762
997.9947,0.054735
998.9265,0.055013
999.8584,0.055514
1000.7902,0.055952
1001.7220,0.056232
1002.6539,0.055948
1003.5857,0.055915
1004.5175,0.056623
1005.4494,0.056943
1006.3812,0.057054
1007.3131,0.057493
1008.2449,0.057865
1009.1767,0.058081
1010.1086,0.058873
1011.0404,0.059535
1011.9722,0.060083
1012.9041,0.060852
1013.8359,0.061749
1014.7677,0.062471
1015.6996,0.063229
1016.6314,0.064169
1017.5632,0.065205
1018.4951,0.066357
1019.4269,0.067918
1020.3587,0.069506
1021.2906,0.070960
1022.2224,0.072803
1023.1542,0.075034
1024.0861,0.077404
1025.0179,0.079980
1025.9497,0.082799
1026.8816,0.086064
1027.8134,0.089482
1028.7452,0.093260
1029.6771,0.097817
1030.6089,0.103080
1031.5407,0.108934
1032.4726,0.115851
1033.4044,0.123839
1034.3362,0.133012
1035.2681,0.143321
1036.1999,0.155076
1037.1318,0.168266
1038.0636,0.182390
1038.9954,0.197423
1039.9273,0.212509
1040.8591,0.226418
1041.7909,0.238601
1042.7228,0.248021
1043.6546,0.253624
1044.5864,0.254668
1045.5183,0.250896
1046.4501,0.242719
1047.3819,0.231195
1048.3138,0.217031
1049.2456,0.201288
1050.1774,0.185358
1051.1093,0.169443
1052.0411,0.154241
1052.9729,0.140499
1053.9048,0.128105
1054.8366,0.116860
1055.7684,0.106916
1056.7003,0.098611
1057.6321,0.091793
1058.5639,0.086152
1059.4958,0.081379
1060.4276,0.077701
1061.3594,0.075081
1062.2913,0.072913
1063.2231,0.071440
1064.1550,0.070638
1065.0868,0.070081
1066.0186,0.070013
1066.9505,0.070265
1067.8823,0.070617
1068.8141,0.071378
1069.7460,0.072334
1070.6778,0.073683
1071.6096,0.075331
1072.5415,0.077220
1073.4733,0.079357
1074.4051,0.081536
1075.3370,0.083738
1076.2688,0.086391
1077.2006,0.089584
1078.1325,0.092688
1079.0643,0.095530
1079.9961,0.098646
1080.9280,0.101530
1081.8598,0.103828
1082.7916,0.106105
1083.7235,0.107969
1084.6553,0.108863
1085.5871,0.109213
1086.5190,0.108773
1087.4508,0.107415
1088.3826,0.105302
1089.3145,0.102382
1090.2463,0.098810
1091.1782,0.094821
1092.1100,0.090739
1093.0418,0.086394
1093.9737,0.081808
1094.9055,0.077352
1095.8373,0.073234
1096.7692,0.069613
1097.7010,0.066502
1098.6328,0.063576
1099.5647,0.060834
1100.4965,0.058576
1101.4283,0.056514
1102.3602,0.054693
1103.2920,0.053049
1104.2238,0.051752
1105.1557,0.050793
1106.0875,0.049746
1107.0193,0.048809
1107.9512,0.048139
1108.8830,0.047615
1109.8148,0.047168
1110.7467,0.046622
1111.6785,0.046164
1112.6103,0.045867
1113.5422,0.045667
1114.4740,0.045516
1115.4058,0.045338
1116.3377,0.045082
1117.2695,0.045163
1118.2014,0.045077
1119.1332,0.044819
1120.0650,0.044717
1120.9969,0.044588
1121.9287,0.044390
1122.8605,0.044429
1123.7924,0.044633
1124.7242,0.044731
1125.6560,0.044721
1126.5879,0.044592
1127.5197,0.044365
1128.4515,0.044071
1129.3834,0.043964
1130.3152,0.043910
1131.2470,0.043788
1132.1789,0.043449
1133.1107,0.043417
1134.0425,0.043560
1134.9744,0.043317
1135.9062,0.042911
1136.8380,0.042891
1137.7699,0.042942
1138.7017,0.042752
1139.6335,0.042496
1140.5654,0.042470
1141.4972,0.042354
1142.4290,0.042107
1143.3609,0.042062
1144.2927,0.041994
1145.2246,0.042112
1146.1564,0.042293
1147.0882,0.042110
1148.0201,0.041970
1148.9519,0.041986
1149.8837,0.041955
1150.8156,0.041812
1151.7474,0.041780
1152.6792,0.042068
1153.6111,0.042078
1154.5429,0.041809
1155.4747,0.041669
1156.4066,0.041830
1157.3384,0.041619
1158.2702,0.041482
1159.2021,0.041471
1160.1339,0.041335
1161.0657,0.041209
1161.9976,0.041150
1162.9294,0.040973
1163.8612,0.040622
1164.7931,0.040280
1165.7249,0.040021
1166.6567,0.039984
1167.5886,0.039895
1168.5204,0.039739
1169.4522,0.039589
1170.3841,0.039373
1171.3159,0.039355
1172.2477,0.039566
1173.1796,0.039587
1174.1114,0.039458
1175.0433,0.039341
1175.9751,0.039148
1176.9069,0.039097
1177.8388,0.039009
1178.7706,0.038964
1179.7024,0.038976
1180.6343,0.039011
1181.5661,0.039057
1182.4979,0.039110
1183.4298,0.039094
1184.3616,0.039186
1185.2934,0.039211
1186.2253,0.038934
1187.1571,0.038810
1188.0889,0.039005
1189.0208,0.038944
1189.9526,0.038897
1190.8844,0.039054
1191.8163,0.039266
1192.7481,0.039324
1193.6799,0.039381
1194.6118,0.039264
1195.5436,0.039170
1196.4754,0.039211
1197.4073,0.039148
1198.3391,0.039136
1199.2709,0.039391
1200.2028,0.039619
1201.1346,0.039536
1202.0665,0.039358
1202.9983,0.039461
1203.9301,0.039654
1204.8620,0.039594
1205.7938,0.039451
1206.7256,0.039288
1207.6575,0.039431
1208.5893,0.039493
1209.5211,0.039274
1210.4530,0.039482
1211.3848,0.039888
1212.3166,0.039657
1213.2485,0.039483
1214.1803,0.039722
1215.1121,0.039951
1216.0440,0.040157
1216.9758,0.040239
1217.9076,0.040056
1218.8395,0.040001
1219.7713,0.040292
1220.7031,0.040221
1221.6350,0.040042
1222.5668,0.040095
1223.4986,0.040217
1224.4305,0.040521
1225.3623,0.040678
1226.2941,0.040539
1227.2260,0.040383
1228.1578,0.040369
1229.0897,0.040592
1230.0215,0.040593
1230.9533,0.040552
1231.8852,0.040756
1232.8170,0.040895
1233.7488,0.041139
1234.6807,0.041386
1235.6125,0.041279
1236.5443,0.041155
1237.4762,0.041225
1238.4080,0.041562
1239.3398,0.041847
1240.2717,0.041816
1241.2035,0.041705
1242.1353,0.041749
1243.0672,0.042033
1243.9990,0.042334
1244.9308,0.042476
1245.8627,0.042560
1246.7945,0.042701
1247.7263,0.042685
1248.6582,0.042921
1249.5900,0.043336
1250.5218,0.043543
1251.4537,0.043744
1252.3855,0.043718
1253.3173,0.043605
1254.2492,0.043949
1255.1810,0.044350
1256.1129,0.044732
1257.0447,0.045022
1257.9765,0.045297
1258.9084,0.045762
1259.8402,0.046425
1260.7720,0.046986
1261.7039,0.047136
1262.6357,0.047497
1263.5675,0.048140
1264.4994,0.048683
1265.4312,0.049273
1266.3630,0.049661
1267.2949,0.049953
1268.2267,0.050560
1269.1585,0.051346
1270.0904,0.051925
1271.0222,0.052436
1271.9540,0.052704
1272.8859,0.053151
1273.8177,0.053568
1274.7495,0.053638
1275.6814,0.053505
1276.6132,0.053105
1277.5450,0.052532
1278.4769,0.052057
1279.4087,0.051570
1280.3405,0.051208
1281.2724,0.050959
1282.2042,0.050644
1283.1361,0.050240
1284.0679,0.049827
1284.9997,0.049542
1285.9316,0.049247
1286.8634,0.049156
1287.7952,0.049172
1288.7271,0.049126
1289.6589,0.049138
1290.5907,0.049098
1291.5226,0.049177
1292.4544,0.049479
1293.3862,0.049427
1294.3181,0.049383
1295.2499,0.049662
1296.1817,0.049701
1297.1136,0.049948
1298.0454,0.050249
1298.9772,0.050367
1299.9091,0.050544
1300.8409,0.050893
1301.7727,0.051400
1302.7046,0.051555
1303.6364,0.051649
1304.5682,0.051809
1305.5001,0.052152
1306.4319,0.052441
1307.3637,0.052667
1308.2956,0.052891
1309.2274,0.053323
1310.1592,0.053577
1311.0911,0.053466
1312.0229,0.053393
1312.9548,0.053610
1313.8866,0.054065
1314.8184,0.054487
1315.7503,0.054696
1316.6821,0.054683
1317.6139,0.054809
1318.5458,0.055361
1319.4776,0.055803
1320.4094,0.056117
1321.3413,0.056113
1322.2731,0.055863
1323.2049,0.055848
1324.1368,0.055744
1325.0686,0.055727
1326.0004,0.055955
1326.9323,0.055808
1327.8641,0.055563
1328.7959,0.055619
1329.7278,0.055546
1330.6596,0.055254
1331.5914,0.055087
1332.5233,0.055141
1333.4551,0.054821
1334.3869,0.054319
1335.3188,0.053914
1336.2506,0.053515
1337.1824,0.053168
1338.1143,0.052940
1339.0461,0.052931
1339.9780,0.053251
1340.9098,0.053552
1341.8416,0.053281
1342.7735,0.052319
1343.7053,0.051666
1344.6371,0.051397
1345.5690,0.051163
1346.5008,0.050846
1347.4326,0.050438
1348.3645,0.050158
1349.2963,0.049934
1350.2281,0.049540
1351.1600,0.049252
1352.0918,0.049010
1353.0236,0.049116
1353.9555,0.049283
1354.8873,0.049072
1355.8191,0.048931
1356.7510,0.048970
1357.6828,0.048928
1358.6146,0.048683
1359.5465,0.048403
1360.4783,0.048182
1361.4101,0.048650
1362.3420,0.049224
1363.2738,0.049622
1364.2056,0.050807
1365.1375,0.050895
1366.0693,0.050346
1367.0012,0.050612
1367.9330,0.051330
1368.8648,0.051901
1369.7967,0.052606
1370.7285,0.053468
1371.6603,0.054179
1372.5922,0.055102
1373.5240,0.056399
1374.4558,0.058713
1375.3877,0.061251
1376.3195,0.062157
1377.2513,0.062218
1378.1832,0.062596
1379.1150,0.063291
1380.0468,0.063763
1380.9787,0.064300
1381.9105,0.064902
1382.8423,0.065389
1383.7742,0.065548
1384.7060,0.065321
1385.6378,0.064807
1386.5697,0.064623
1387.5015,0.065102
1388.4333,0.065884
1389.3652,0.065532
1390.2970,0.064140
1391.2288,0.063180
1392.1607,0.062706
1393.0925,0.062131
1394.0244,0.061397
1394.9562,0.061583
1395.8880,0.062698
1396.8199,0.062899
1397.7517,0.062092
1398.6835,0.061790
1399.6154,0.062860
1400.5472,0.063932
1401.4790,0.063281
1402.4109,0.062507
1403.3427,0.062110
1404.2745,0.061975
1405.2064,0.062840
1406.1382,0.064155
1407.0700,0.064363
1408.0019,0.063749
1408.9337,0.063490
1409.8655,0.063621
1410.7974,0.063948
1411.7292,0.064068
1412.6610,0.064116
1413.5929,0.064133
1414.5247,0.063601
1415.4565,0.063094
1416.3884,0.062681
1417.3202,0.062594
1418.2520,0.063207
1419.1839,0.064025
1420.1157,0.065748
1421.0476,0.066155
1421.9794,0.064289
1422.9112,0.062936
1423.8431,0.062247
1424.7749,0.062550
1425.7067,0.062506
1426.6386,0.061322
1427.5704,0.060294
1428.5022,0.059586
1429.4341,0.059165
1430.3659,0.059452
1431.2977,0.059826
1432.2296,0.058866
1433.1614,0.057649
1434.0932,0.057001
1435.0251,0.056358
1435.9569,0.055610
1436.8887,0.055961
1437.8206,0.058050
1438.7524,0.058129
1439.6842,0.056397
1440.6161,0.055425
1441.5479,0.055306
1442.4797,0.055366
1443.4116,0.055541
1444.3434,0.055655
1445.2752,0.055745
1446.2071,0.056354
1447.1389,0.057387
1448.0707,0.058875
1449.0026,0.060912
1449.9344,0.061906
1450.8663,0.061346
1451.7981,0.060496
1452.7299,0.060313
1453.6618,0.060288
1454.5936,0.059755
1455.5254,0.059055
1456.4573,0.058699
1457.3891,0.059213
1458.3209,0.060711
1459.2528,0.059681
1460.1846,0.056921
1461.1164,0.054139
1462.0483,0.051872
1462.9801,0.050045
1463.9119,0.048798
1464.8438,0.048652
1465.7756,0.049065
1466.7074,0.048227
1467.6393,0.046505
1468.5711,0.045286
1469.5029,0.044540
1470.4348,0.043915
1471.3666,0.043168
1472.2984,0.042830
1473.2303,0.043947
1474.1621,0.045525
1475.0939,0.045585
1476.0258,0.045115
1476.9576,0.045363
1477.8895,0.045699
1478.8213,0.045136
1479.7531,0.044909
1480.6850,0.045234
1481.6168,0.045482
1482.5486,0.045527
1483.4805,0.045307
1484.4123,0.044982
1485.3441,0.044420
1486.2760,0.043562
1487.2078,0.043243
1488.1396,0.043775
1489.0715,0.044392
1490.0033,0.044334
1490.9351,0.044105
1491.8670,0.043833
1492.7988,0.042733
1493.7306,0.041525
1494.6625,0.040803
1495.5943,0.040218
1496.5261,0.039887
1497.4580,0.040908
1498.3898,0.041278
1499.3216,0.040869
1500.2535,0.040858
1501.1853,0.039868
1502.1171,0.038701
1503.0490,0.038434
1503.9808,0.038220
1504.9127,0.037257
1505.8445,0.036605
1506.7763,0.038271
1507.7082,0.042047
1508.6400,0.043543
1509.5718,0.042002
1510.5037,0.040544
1511.4355,0.039917
1512.3673,0.038911
1513.2992,0.038968
1514.2310,0.039202
1515.1628,0.038576
1516.0947,0.038599
1517.0265,0.038573
1517.9583,0.038698
1518.8902,0.039094
1519.8220,0.038006
1520.7538,0.037325
1521.6857,0.038701
1522.6175,0.040798
1523.5493,0.040970
1524.4812,0.040187
1525.4130,0.039488
1526.3448,0.040057
1527.2767,0.040240
1528.2085,0.039671
1529.1403,0.039747
1530.0722,0.040074
1531.0040,0.039744
1531.9359,0.039211
1532.8677,0.039325
1533.7995,0.040024
1534.7314,0.040729
1535.6632,0.040780
1536.5950,0.039844
1537.5269,0.038715
1538.4587,0.038155
1539.3905,0.038599
1540.3224,0.040746
1541.2542,0.042732
1542.1860,0.042491
1543.1179,0.042362
1544.0497,0.042408
1544.9815,0.042321
1545.9134,0.043098
1546.8452,0.043418
1547.7770,0.042166
1548.7089,0.041470
1549.6407,0.041557
1550.5725,0.041924
1551.5044,0.042630
1552.4362,0.042704
1553.3680,0.042084
1554.2999,0.041631
1555.2317,0.042120
1556.1635,0.042460
1557.0954,0.041716
1558.0272,0.042131
1558.9591,0.045671
1559.8909,0.050945
1560.8227,0.051678
1561.7546,0.049672
1562.6864,0.047156
1563.6182,0.045682
1564.5501,0.045500
1565.4819,0.045968
1566.4137,0.045972
1567.3456,0.045942
1568.2774,0.046160
1569.2092,0.046602
1570.1411,0.048407
1571.0729,0.050579
1572.0047,0.049789
1572.9366,0.048537
1573.8684,0.048391
1574.8002,0.048649
1575.7321,0.049345
1576.6639,0.051395
1577.5957,0.054341
1578.5276,0.054845
1579.4594,0.053969
1580.3912,0.053524
1581.3231,0.053473
1582.2549,0.053933
1583.1867,0.054631
1584.1186,0.055516
1585.0504,0.056648
1585.9822,0.057190
1586.9141,0.057085
1587.8459,0.057761
1588.7778,0.058893
1589.7096,0.059620
1590.6414,0.060660
1591.5733,0.061641
1592.5051,0.062364
1593.4369,0.063462
1594.3688,0.064588
1595.3006,0.066007
1596.2324,0.067275
1597.1643,0.068010
1598.0961,0.069171
1599.0279,0.070183
1599.9598,0.071065
1600.8916,0.072449
1601.8234,0.073724
1602.7553,0.075031
1603.6871,0.076539
1604.6189,0.078312
1605.5508,0.079979
1606.4826,0.081162
1607.4144,0.082804
1608.3463,0.085305
1609.2781,0.087115
1610.2099,0.088454
1611.1418,0.089871
1612.0736,0.091078
1613.0054,0.092052
1613.9373,0.093221
1614.8691,0.095171
1615.8010,0.097588
1616.7328,0.101594
1617.6646,0.108278
1618.5965,0.111862
1619.5283,0.109560
1620.4601,0.108293
1621.3920,0.109752
1622.3238,0.112256
1623.2556,0.115396
1624.1875,0.119884
1625.1193,0.123528
1626.0511,0.124329
1626.9830,0.125029
1627.9148,0.126840
1628.8466,0.130056
1629.7785,0.131734
1630.7103,0.130679
1631.6421,0.130093
1632.5740,0.130663
1633.5058,0.131209
1634.4376,0.131533
1635.3695,0.133434
1636.3013,0.140579
1637.2331,0.147206
1638.1650,0.145130
1639.0968,0.142497
1640.0286,0.140523
1640.9605,0.138920
1641.8923,0.138009
1642.8242,0.137101
1643.7560,0.136132
1644.6878,0.134944
1645.6197,0.133769
1646.5515,0.134865
1647.4833,0.138145
1648.4152,0.138441
1649.3470,0.136235
1650.2788,0.132989
1651.2107,0.129653
1652.1425,0.127629
1653.0743,0.129813
1654.0062,0.138114
1654.9380,0.139765
1655.8698,0.133886
1656.8017,0.128513
1657.7335,0.124686
1658.6653,0.122271
1659.5972,0.120572
1660.5290,0.118760
1661.4608,0.116697
1662.3927,0.115294
1663.3245,0.114718
1664.2563,0.113853
1665.1882,0.111364
1666.1200,0.108572
1667.0518,0.106494
1667.9837,0.104861
1668.9155,0.103314
1669.8474,0.102558
1670.7792,0.102177
1671.7110,0.100528
1672.6429,0.098916
1673.5747,0.096590
1674.5065,0.093803
1675.4384,0.091785
1676.3702,0.091015
1677.3020,0.090698
1678.2339,0.088332
1679.1657,0.085189
1680.0975,0.082995
1681.0294,0.081879
1681.9612,0.080092
1682.8930,0.077332
1683.8249,0.075274
1684.7567,0.075822
1685.6885,0.078075
1686.6204,0.075726
1687.5522,0.072428
1688.4840,0.070329
1689.4159,0.068732
1690.3477,0.066767
1691.2795,0.064727
1692.2114,0.063188
1693.1432,0.061902
1694.0750,0.060283
1695.0069,0.058514
1695.9387,0.057102
1696.8706,0.056277
1697.8024,0.055416
1698.7342,0.053666
1699.6661,0.051715
1700.5979,0.050647
1701.5297,0.051187
1702.4616,0.049871
1703.3934,0.048125
1704.3252,0.047325
1705.2571,0.046491
1706.1889,0.045960
1707.1207,0.045495
1708.0526,0.044026
1708.9844,0.042362
1709.9162,0.041374
1710.8481,0.040642
1711.7799,0.039869
1712.7117,0.038861
1713.6436,0.037849
1714.5754,0.036713
1715.5072,0.035620
1716.4391,0.035285
1717.3709,0.034714
1718.3027,0.034133
1719.2346,0.034013
1720.1664,0.033199
1721.0982,0.032359
1722.0301,0.031734
1722.9619,0.030914
1723.8937,0.030221
1724.8256,0.029978
1725.7574,0.029482
1726.6893,0.028592
1727.6211,0.027926
1728.5529,0.027494
1729.4848,0.027087
1730.4166,0.026461
1731.3484,0.026031
1732.2803,0.025764
1733.2121,0.024991
1734.1439,0.024493
1735.0758,0.024567
1736.0076,0.024908
1736.9394,0.024637
1737.8713,0.023616
1738.8031,0.022799
1739.7349,0.022324
1740.6668,0.021850
1741.5986,0.021841
1742.5304,0.021474
1743.4623,0.021102
1744.3941,0.021144
1745.3259,0.020936
1746.2578,0.020521
1747.1896,0.020343
1748.1214,0.020263
1749.0533,0.019942
1749.9851,0.019592
1750.9169,0.019691
1751.8488,0.019754
1752.7806,0.019524
1753.7125,0.019288
1754.6443,0.018794
1755.5761,0.018175
1756.5080,0.017836
1757.4398,0.017459
1758.3716,0.017164
1759.3035,0.017487
1760.2353,0.017631
1761.1671,0.017238
1762.0990,0.016809
1763.0308,0.016785
1763.9626,0.016960
1764.8945,0.016816
1765.8263,0.016440
1766.7581,0.016038
1767.6900,0.015940
1768.6218,0.015919
1769.5536,0.015534
1770.4855,0.015056
1771.4173,0.014727
1772.3491,0.014542
1773.2810,0.014456
1774.2128,0.014356
1775.1446,0.014464
1776.0765,0.014656
1777.0083,0.014350
1777.9401,0.014044
1778.8720,0.013984
1779.8038,0.013945
1780.7357,0.013820
1781.6675,0.013897
1782.5993,0.014059
1783.5312,0.013612
1784.4630,0.013457
1785.3948,0.013571
1786.3267,0.013260
1787.2585,0.013184
1788.1903,0.013341
1789.1222,0.012930
1790.0540,0.012439
1790.9858,0.012461
1791.9177,0.012515
1792.8495,0.012013
1793.7813,0.011781
1794.7132,0.012069
1795.6450,0.012416
1796.5768,0.012275
1797.5087,0.011696
1798.4405,0.011731
1799.3723,0.011930
1800.3042,0.011817
1801.2360,0.011566
1802.1678,0.010978
1803.0997,0.010939
1804.0315,0.011253
1804.9633,0.011196
1805.8952,0.011377
1806.8270,0.011376
1807.7589,0.011009
1808.6907,0.010872
1809.6225,0.010860
1810.5544,0.010871
1811.4862,0.010695
1812.4180,0.010722
1813.3499,0.011157
1814.2817,0.011430
1815.2135,0.011512
1816.1454,0.011217
1817.0772,0.010527
1818.0090,0.010040
1818.9409,0.010107
1819.8727,0.010480
1820.8045,0.010808
1821.7364,0.010919
1822.6682,0.010337
1823.6000,0.010136
1824.5319,0.010316
1825.4637,0.009342
1826.3955,0.008670
1827.3274,0.009912
1828.2592,0.010342
1829.1910,0.009764
1830.1229,0.009252
1831.0547,0.009421
1831.9865,0.010230
1832.9184,0.010068
1833.8502,0.009937
1834.7821,0.010022
1835.7139,0.009807
1836.6457,0.009431
1837.5776,0.009260
1838.5094,0.009007
1839.4412,0.009230
1840.3731,0.009216
1841.3049,0.009065
1842.2367,0.009591
1843.1686,0.009609
1844.1004,0.008673
1845.0322,0.008058
1845.9641,0.008851
1846.8959,0.009094
1847.8277,0.009269
1848.7596,0.009936
1849.6914,0.010014
1850.6232,0.009436
1851.5551,0.008940
1852.4869,0.009064
1853.4187,0.008952
1854.3506,0.008246
1855.2824,0.008224
1856.2142,0.008716
1857.1461,0.008645
1858.0779,0.008457
1859.0097,0.008792
1859.9416,0.009112
1860.8734,0.008392
1861.8052,0.007800
1862.7371,0.008825
1863.6689,0.009392
1864.6008,0.009278
1865.5326,0.009232
1866.4644,0.009373
1867.3963,0.009240
1868.3281,0.008758
1869.2599,0.008869
1870.1918,0.008331
1871.1236,0.007215
1872.0554,0.007107
1872.9873,0.006937
1873.9191,0.006919
1874.8509,0.007238
1875.7828,0.007987
1876.7146,0.007773
1877.6464,0.007148
1878.5783,0.007950
1879.5101,0.008034
1880.4419,0.007494
1881.3738,0.008170
1882.3056,0.008890
1883.2374,0.008533
1884.1693,0.008357
1885.1011,0.008267
1886.0329,0.008031
1886.9648,0.008522
1887.8966,0.008942
1888.8284,0.008149
1889.7603,0.007518
1890.6921,0.007416
1891.6240,0.008227
1892.5558,0.008200
1893.4876,0.007421
1894.4195,0.007500
1895.3513,0.007871
1896.2831,0.008996
1897.2150,0.008322
1898.1468,0.007085
1899.0786,0.008458
1900.0105,0.009930
1900.9423,0.009147
1901.8741,0.008409
1902.8060,0.008796
1903.7378,0.008353
1904.6696,0.007865
1905.6015,0.008255
1906.5333,0.007395
1907.4651,0.006824
1908.3970,0.007978
1909.3288,0.008421
1910.2606,0.008797
1911.1925,0.009288
1912.1243,0.008413
1913.0561,0.007202
1913.9880,0.007673
1914.9198,0.008350
1915.8516,0.009111
1916.7835,0.010107
1917.7153,0.010301
1918.6472,0.009613
1919.5790,0.008842
1920.5108,0.010288
1921.4427,0.010492
1922.3745,0.009193
1923.3063,0.008190
1924.2382,0.007746
1925.1700,0.008034
1926.1018,0.006339
1927.0337,0.005663
1927.9655,0.007589
1928.8973,0.007800
1929.8292,0.007240
1930.7610,0.007650
1931.6928,0.009054
1932.6247,0.008643
1933.5565,0.006246
1934.4883,0.005663
1935.4202,0.005922
1936.3520,0.006457
1937.2838,0.008238
1938.2157,0.008599
1939.1475,0.007263
1940.0793,0.006374
1941.0112,0.007036
1941.9430,0.009230
1942.8748,0.009065
1943.8067,0.006730
1944.7385,0.005128
1945.6704,0.004395
1946.6022,0.004085
1947.5340,0.005513
1948.4659,0.007064
1949.3977,0.006387
1950.3295,0.004180
1951.2614,0.004203
1952.1932,0.006432
1953.1250,0.007567
1954.0569,0.007550
1954.9887,0.006872
1955.9205,0.006152
1956.8524,0.005620
1957.7842,0.004841
1958.7160,0.004031
1959.6479,0.004062
1960.5797,0.006890
1961.5115,0.006541
1962.4434,0.004559
1963.3752,0.005759
1964.3070,0.006731
1965.2389,0.005514
1966.1707,0.005232
1967.1025,0.002465
1968.0344,0.001002
1968.9662,0.001622
1969.8980,0.004585
1970.8299,0.006221
1971.7617,0.003548
1972.6936,0.000514
1973.6254,0.001750
1974.5572,0.002134
1975.4891,0.002090
1976.4209,0.004596
1977.3527,0.004172
1978.2846,0.002194
1979.2164,0.002590
1980.1482,0.003900
1981.0801,0.004222
1982.0119,0.004064
1982.9437,0.003964
1983.8756,0.004793
1984.8074,0.004559
1985.7392,0.004797
1986.6711,0.006214
1987.6029,0.006767
1988.5347,0.005472
1989.4666,0.004624
1990.3984,0.005130
1991.3302,0.004534
1992.2621,0.000700
1993.1939,-0.000074
1994.1257,0.002826
1995.0576,0.003537
1995.9894,0.003748
1996.9212,0.004471
1997.8531,0.005124
1998.7849,0.006210
1999.7167,0.006048
2000.6486,0.004422
2001.5804,0.003569
2002.5123,0.003957
2003.4441,0.003890
2004.3759,0.004774
2005.3078,0.007011
2006.2396,0.005279
2007.1714,0.004986
2008.1033,0.007001
2009.0351,0.004826
2009.9669,0.003418
2010.8988,0.004138
2011.8306,0.004704
2012.7624,0.005047
2013.6943,0.003577
2014.6261,0.003190
2015.5579,0.004981
2016.4898,0.004254
2017.4216,0.006914
2018.3534,0.008517
2019.2853,0.006334
2020.2171,0.003552
2021.1489,0.001696
2022.0808,0.000407
2023.0126,0.001440
2023.9444,0.004538
2024.8763,0.003172
2025.8081,0.002546
2026.7399,0.004302
2027.6718,0.003641
2028.6036,0.001449
2029.5355,0.000397
2030.4673,0.002309
2031.3991,0.004186
2032.3310,0.007639
2033.2628,0.006629
2034.1946,0.002748
2035.1265,0.002559
2036.0583,0.003732
2036.9901,0.004925
2037.9220,0.005075
2038.8538,0.006253
2039.7856,0.007256
2040.7175,0.007247
2041.6493,0.006217
2042.5811,0.006077
2043.5130,0.007225
2044.4448,0.008810
2045.3766,0.006777
2046.3085,0.004289
2047.2403,0.006121
2048.1721,0.009023
2049.1040,0.010176
2050.0358,0.010428
2050.9676,0.009773
2051.8995,0.008220
2052.8313,0.008723
2053.7631,0.008950
2054.6950,0.008590
2055.6268,0.009313
2056.5587,0.009030
2057.4905,0.008968
2058.4223,0.008876
2059.3542,0.006995
2060.2860,0.008224
2061.2178,0.011202
2062.1497,0.011068
2063.0815,0.009529
2064.0133,0.009102
2064.9452,0.010134
2065.8770,0.011381
2066.8088,0.012527
2067.7407,0.012832
2068.6725,0.013054
2069.6043,0.012144
2070.5362,0.010593
2071.4680,0.008201
2072.3998,0.007310
2073.3317,0.010150
2074.2635,0.011274
2075.1953,0.012049
2076.1272,0.011787
2077.0590,0.010753
2077.9908,0.011804
2078.9227,0.011836
2079.8545,0.011486
2080.7863,0.011374
2081.7182,0.011357
2082.6500,0.013004
2083.5819,0.013963
2084.5137,0.012503
2085.4455,0.010423
2086.3774,0.010641
2087.3092,0.013027
2088.2410,0.013341
2089.1729,0.012684
2090.1047,0.012308
2091.0365,0.011872
2091.9684,0.010991
2092.9002,0.011434
2093.8320,0.012765
2094.7639,0.012689
2095.6957,0.011728
2096.6275,0.011960
2097.5594,0.013920
2098.4912,0.013467
2099.4230,0.011699
2100.3549,0.011748
2101.2867,0.011463
2102.2185,0.011628
2103.1504,0.011611
2104.0822,0.010960
2105.0140,0.012197
2105.9459,0.013455
2106.8777,0.013666
2107.8095,0.013561
2108.7414,0.013282
2109.6732,0.012471
2110.6051,0.012255
2111.5369,0.011749
2112.4687,0.010864
2113.4006,0.013114
2114.3324,0.014424
2115.2642,0.012560
2116.1961,0.011414
2117.1279,0.011532
2118.0597,0.013785
2118.9916,0.014926
2119.9234,0.013445
2120.8552,0.012305
2121.7871,0.013317
2122.7189,0.013976
2123.6507,0.014414
2124.5826,0.013929
2125.5144,0.012359
2126.4462,0.011368
2127.3781,0.011337
2128.3099,0.012700
2129.2417,0.013814
2130.1736,0.011541
2131.1054,0.011802
2132.0372,0.012003
2132.9691,0.010766
2133.9009,0.011312
2134.8327,0.011893
2135.7646,0.010947
2136.6964,0.011169
2137.6282,0.012624
2138.5601,0.012795
2139.4919,0.011128
2140.4238,0.010733
2141.3556,0.010114
2142.2874,0.008761
2143.2193,0.007259
2144.1511,0.008105
2145.0829,0.010342
2146.0148,0.010674
2146.9466,0.009810
2147.8784,0.010205
2148.8103,0.008875
2149.7421,0.008253
2150.6739,0.008393
2151.6058,0.008444
2152.5376,0.008059
2153.4694,0.008434
2154.4013,0.008472
2155.3331,0.007736
2156.2649,0.007661
2157.1968,0.006875
2158.1286,0.005113
2159.0604,0.005988
2159.9923,0.004505
2160.9241,0.003364
2161.8559,-0.001048
2162.7878,-0.001805
2163.7196,0.003917
2164.6514,0.006360
2165.5833,0.007864
2166.5151,0.009850
2167.4470,0.008683
2168.3788,0.006524
2169.3106,0.006810
2170.2425,0.006009
2171.1743,0.005772
2172.1061,0.007681
2173.0380,0.007866
2173.9698,0.009618
2174.9016,0.009662
2175.8335,0.007093
2176.7653,0.005269
2177.6971,0.004398
2178.6290,0.005812
2179.5608,0.002977
2180.4926,0.001349
2181.4245,0.003714
2182.3563,0.005711
2183.2881,0.007081
2184.2200,0.008790
2185.1518,0.006157
2186.0836,0.003817
2187.0155,0.006624
2187.9473,0.006370
2188.8791,0.005967
2189.8110,0.009244
2190.7428,0.007951
2191.6746,0.007854
2192.6065,0.008669
2193.5383,0.005855
2194.4702,0.006852
2195.4020,0.011650
2196.3338,0.011804
2197.2657,0.009093
2198.1975,0.008096
2199.1293,0.006637
2200.0612,0.007248
2200.9930,0.004585
2201.9248,0.003440
2202.8567,0.006607
2203.7885,0.007781
2204.7203,0.006463
2205.6522,0.007042
2206.5840,0.008176
2207.5158,0.008262
2208.4477,0.006828
2209.3795,0.007236
2210.3113,0.008468
2211.2432,0.008595
2212.1750,0.006904
2213.1068,0.006406
2214.0387,0.007543
2214.9705,0.006680
2215.9023,0.005705
2216.8342,0.006191
2217.7660,0.008134
2218.6978,0.007091
2219.6297,0.006058
2220.5615,0.008871
2221.4934,0.009065
2222.4252,0.007420
2223.3570,0.008705
2224.2889,0.010741
2225.2207,0.009578
2226.1525,0.008109
2227.0844,0.008270
2228.0162,0.010121
2228.9480,0.010282
2229.8799,0.009207
2230.8117,0.009380
2231.7435,0.009051
2232.6754,0.006973
2233.6072,0.007260
2234.5390,0.008906
2235.4709,0.008390
2236.4027,0.009671
2237.3345,0.010350
2238.2664,0.009238
2239.1982,0.009362
2240.1300,0.009555
2241.0619,0.007854
2241.9937,0.008207
2242.9255,0.009413
2243.8574,0.010223
2244.7892,0.008692
2245.7210,0.009052
2246.6529,0.010721
2247.5847,0.010840
2248.5166,0.011179
2249.4484,0.010631
2250.3802,0.008611
2251.3121,0.008203
2252.2439,0.009687
2253.1757,0.009935
2254.1076,0.008581
2255.0394,0.007982
2255.9712,0.008393
2256.9031,0.008883
2257.8349,0.008696
2258.7667,0.008644
2259.6986,0.009111
2260.6304,0.009521
2261.5622,0.007877
2262.4941,0.007600
2263.4259,0.008222
2264.3577,0.008280
2265.2896,0.009192
2266.2214,0.008221
2267.1532,0.007646
2268.0851,0.006471
2269.0169,0.006615
2269.9487,0.008314
2270.8806,0.008528
2271.8124,0.008484
2272.7442,0.007632
2273.6761,0.008162
2274.6079,0.009499
2275.5397,0.009594
2276.4716,0.009666
2277.4034,0.009635
2278.3353,0.009814
2279.2671,0.009708
2280.1989,0.009298
2281.1308,0.009133
2282.0626,0.008692
2282.9944,0.008888
2283.9263,0.009158
2284.8581,0.009166
2285.7899,0.008945
2286.7218,0.009474
2287.6536,0.009519
2288.5854,0.009162
2289.5173,0.008845
2290.4491,0.008979
2291.3809,0.008963
2292.3128,0.008455
2293.2446,0.008412
2294.1764,0.009096
2295.1083,0.009582
2296.0401,0.009403
2296.9719,0.008975
2297.9038,0.007945
2298.8356,0.008544
2299.7674,0.008806
2300.6993,0.008740
2301.6311,0.008490
2302.5629,0.008133
2303.4948,0.008763
2304.4266,0.009650
2305.3585,0.009632
2306.2903,0.009548
2307.2221,0.010040
2308.1540,0.009271
2309.0858,0.008685
2310.0176,0.009074
2310.9495,0.008801
2311.8813,0.008952
2312.8131,0.009746
2313.7450,0.009722
2314.6768,0.008024
2315.6086,0.007163
2316.5405,0.007366
2317.4723,0.007241
2318.4041,0.008045
2319.3360,0.008888
2320.2678,0.008820
2321.1996,0.008954
2322.1315,0.009570
2323.0633,0.009158
2323.9951,0.008439
2324.9270,0.007782
2325.8588,0.008264
2326.7906,0.008805
2327.7225,0.008220
2328.6543,0.008176
2329.5861,0.007340
2330.5180,0.007605
2331.4498,0.008797
2332.3817,0.007999
2333.3135,0.007668
2334.2453,0.008914
2335.1772,0.009667
2336.1090,0.008516
2337.0408,0.007595
2337.9727,0.007442
2338.9045,0.007510
2339.8363,0.007872
2340.7682,0.008331
2341.7000,0.007522
2342.6318,0.006402
2343.5637,0.007388
2344.4955,0.008684
2345.4273,0.009413
2346.3592,0.009840
2347.2910,0.008484
2348.2228,0.007318
2349.1547,0.007230
2350.0865,0.007501
2351.0183,0.007486
2351.9502,0.006986
2352.8820,0.007226
2353.8138,0.007789
2354.7457,0.008134
2355.6775,0.007248
2356.6093,0.007081
2357.5412,0.007160
2358.4730,0.007479
2359.4049,0.006975
2360.3367,0.006283
2361.2685,0.006566
2362.2004,0.007206
2363.1322,0.008092
2364.0640,0.008873
2364.9959,0.008549
2365.9277,0.007150
2366.8595,0.006959
2367.7914,0.006362
2368.7232,0.006627
2369.6550,0.007401
2370.5869,0.007191
2371.5187,0.006788
2372.4505,0.006766
2373.3824,0.006245
2374.3142,0.005706
2375.2460,0.006307
2376.1779,0.007443
2377.1097,0.007112
2378.0415,0.005708
2378.9734,0.005860
2379.9052,0.006436
2380.8370,0.006658
2381.7689,0.006652
2382.7007,0.006568
2383.6325,0.006534
2384.5644,0.007150
2385.4962,0.007230
2386.4281,0.006965
2387.3599,0.007588
2388.2917,0.007529
2389.2236,0.007127
2390.1554,0.006576
2391.0872,0.006315
2392.0191,0.006446
2392.9509,0.006707
2393.8827,0.006584
2394.8146,0.006126
2395.7464,0.006188
2396.6782,0.006359
2397.6101,0.006441
2398.5419,0.006380
2399.4737,0.006431
2400.4056,0.006627
2401.3374,0.006783
2402.2692,0.006848
2403.2011,0.005880
2404.1329,0.004499
2405.0647,0.004918
2405.9966,0.006011
2406.9284,0.006175
2407.8602,0.006087
2408.7921,0.006307
2409.7239,0.006128
2410.6557,0.005926
2411.5876,0.006112
2412.5194,0.006373
2413.4512,0.006370
2414.3831,0.006694
2415.3149,0.006607
2416.2468,0.006583
2417.1786,0.005996
2418.1104,0.005831
2419.0423,0.006347
2419.9741,0.005954
2420.9059,0.005959
2421.8378,0.006107
2422.7696,0.006293
2423.7014,0.005815
2424.6333,0.005644
2425.5651,0.005761
2426.4969,0.005862
2427.4288,0.006251
2428.3606,0.006176
2429.2924,0.006038
2430.2243,0.005707
2431.1561,0.005341
2432.0879,0.005283
2433.0198,0.005205
2433.9516,0.004846
2434.8834,0.004619
2435.8153,0.005473
2436.7471,0.006475
2437.6789,0.005763
2438.6108,0.005202
2439.5426,0.005142
2440.4744,0.004920
2441.4063,0.005217
2442.3381,0.005767
2443.2700,0.005396
2444.2018,0.004226
2445.1336,0.003731
2446.0655,0.004227
2446.9973,0.004857
2447.9291,0.005053
2448.8610,0.004647
2449.7928,0.004238
2450.7246,0.004355
2451.6565,0.005131
2452.5883,0.005535
2453.5201,0.005366
2454.4520,0.005839
2455.3838,0.005944
2456.3156,0.005116
2457.2475,0.005109
2458.1793,0.005434
2459.1111,0.004859
2460.0430,0.004449
2460.9748,0.004988
2461.9066,0.005187
2462.8385,0.004413
2463.7703,0.003750
2464.7021,0.004598
2465.6340,0.005266
2466.5658,0.004947
2467.4976,0.004762
2468.4295,0.005068
2469.3613,0.004781
2470.2932,0.005101
2471.2250,0.005597
2472.1568,0.005153
2473.0887,0.005514
2474.0205,0.005333
2474.9523,0.004832
2475.8842,0.005208
2476.8160,0.005939
2477.7478,0.006075
2478.6797,0.005644
2479.6115,0.005009
2480.5433,0.005009
2481.4752,0.005179
2482.4070,0.005972
2483.3388,0.006622
2484.2707,0.005679
2485.2025,0.005262
2486.1343,0.004650
2487.0662,0.004002
2487.9980,0.004542
2488.9298,0.004690
2489.8617,0.005423
2490.7935,0.006246
2491.7253,0.005487
2492.6572,0.004724
2493.5890,0.005369
2494.5208,0.005596
2495.4527,0.004490
2496.3845,0.004647
2497.3164,0.005693
2498.2482,0.005293
2499.1800,0.004752
2500.1119,0.004152
2501.0437,0.004501
2501.9755,0.005194
2502.9074,0.005178
2503.8392,0.004968
2504.7710,0.004760
2505.7029,0.004904
2506.6347,0.004750
2507.5665,0.004863
2508.4984,0.005156
2509.4302,0.005244
2510.3620,0.004818
2511.2939,0.004709
2512.2257,0.005200
2513.1575,0.005329
2514.0894,0.004755
2515.0212,0.004919
2515.9530,0.004984
2516.8849,0.005035
2517.8167,0.005500
2518.7485,0.005469
2519.6804,0.005629
2520.6122,0.005256
2521.5440,0.004653
2522.4759,0.005189
2523.4077,0.005546
2524.3396,0.004988
2525.2714,0.005149
2526.2032,0.005233
2527.1351,0.005501
2528.0669,0.005631
2528.9987,0.005664
2529.9306,0.005769
2530.8624,0.005357
2531.7942,0.005167
2532.7261,0.005640
2533.6579,0.005551
2534.5897,0.004755
2535.5216,0.004061
2536.4534,0.004770
2537.3852,0.005713
2538.3171,0.005320
2539.2489,0.004377
2540.1807,0.004187
2541.1126,0.004277
2542.0444,0.004138
2542.9762,0.004192
2543.9081,0.004579
2544.8399,0.004429
2545.7717,0.004391
2546.7036,0.004537
2547.6354,0.004621
2548.5672,0.005008
2549.4991,0.004636
2550.4309,0.003938
2551.3627,0.004175
2552.2946,0.004806
2553.2264,0.004757
2554.1583,0.004619
2555.0901,0.005210
2556.0219,0.005075
2556.9538,0.004486
2557.8856,0.004610
2558.8174,0.005029
2559.7493,0.005122
2560.6811,0.004993
2561.6129,0.005053
2562.5448,0.004240
2563.4766,0.004098
2564.4084,0.005429
2565.3403,0.004994
2566.2721,0.003132
2567.2039,0.002814
2568.1358,0.003737
2569.0676,0.004392
2569.9994,0.003959
2570.9313,0.004048
2571.8631,0.004911
2572.7949,0.004999
2573.7268,0.005011
2574.6586,0.004839
2575.5904,0.003895
2576.5223,0.003569
2577.4541,0.003562
2578.3859,0.003760
2579.3178,0.005005
2580.2496,0.005020
2581.1815,0.004372
2582.1133,0.004416
2583.0451,0.004421
2583.9770,0.004200
2584.9088,0.003937
2585.8406,0.003617
2586.7725,0.003765
2587.7043,0.004662
2588.6361,0.004513
2589.5680,0.004379
2590.4998,0.004365
2591.4316,0.003654
2592.3635,0.003845
2593.2953,0.004899
2594.2271,0.005730
2595.1590,0.005180
2596.0908,0.004455
2597.0226,0.005036
2597.9545,0.005257
2598.8863,0.005032
2599.8181,0.004514
2600.7500,0.003666
2601.6818,0.003771
2602.6136,0.004491
2603.5455,0.004527
2604.4773,0.004240
2605.4091,0.003818
2606.3410,0.004368
2607.2728,0.005614
2608.2047,0.005653
2609.1365,0.005016
2610.0683,0.004952
2611.0002,0.004806
2611.9320,0.004447
2612.8638,0.004481
2613.7957,0.004750
2614.7275,0.004997
2615.6593,0.005048
2616.5912,0.004701
2617.5230,0.004409
2618.4548,0.004654
2619.3867,0.005232
2620.3185,0.005484
2621.2503,0.005626
2622.1822,0.005706
2623.1140,0.005271
2624.0458,0.005106
2624.9777,0.005221
2625.9095,0.005021
2626.8413,0.004994
2627.7732,0.005041
2628.7050,0.005339
2629.6368,0.005393
2630.5687,0.005353
2631.5005,0.005452
2632.4323,0.005081
2633.3642,0.005315
2634.2960,0.005701
2635.2279,0.005674
2636.1597,0.005646
2637.0915,0.005309
2638.0234,0.005305
2638.9552,0.005634
2639.8870,0.006007
2640.8189,0.006214
2641.7507,0.006053
2642.6825,0.006209
2643.6144,0.006155
2644.5462,0.005719
2645.4780,0.005926
2646.4099,0.006528
2647.3417,0.006306
2648.2735,0.005849
2649.2054,0.006048
2650.1372,0.006154
2651.0690,0.006302
2652.0009,0.006603
2652.9327,0.006575
2653.8645,0.006786
2654.7964,0.006710
2655.7282,0.006252
2656.6600,0.006344
2657.5919,0.006473
2658.5237,0.006274
2659.4555,0.006078
2660.3874,0.005848
2661.3192,0.005724
2662.2511,0.005991
2663.1829,0.006585
2664.1147,0.006880
2665.0466,0.006942
2665.9784,0.007243
2666.9102,0.007206
2667.8421,0.006701
2668.7739,0.006537
2669.7057,0.006661
2670.6376,0.006667
2671.5694,0.006771
2672.5012,0.006826
2673.4331,0.006526
2674.3649,0.006628
2675.2967,0.007022
2676.2286,0.006974
2677.1604,0.006992
2678.0922,0.007037
2679.0241,0.006833
2679.9559,0.007013
2680.8877,0.007329
2681.8196,0.007535
2682.7514,0.007440
2683.6832,0.007231
2684.6151,0.007287
2685.5469,0.007199
2686.4787,0.007186
2687.4106,0.007592
2688.3424,0.007671
2689.2742,0.007458
2690.2061,0.007641
2691.1379,0.007925
2692.0698,0.007490
2693.0016,0.007067
2693.9334,0.007553
2694.8653,0.007361
2695.7971,0.007064
2696.7289,0.007434
2697.6608,0.007658
2698.5926,0.008000
2699.5244,0.008368
2700.4563,0.008087
2701.3881,0.007928
2702.3199,0.008210
2703.2518,0.008248
2704.1836,0.008156
2705.1154,0.008115
2706.0473,0.008316
2706.9791,0.008355
2707.9109,0.008435
2708.8428,0.008374
2709.7746,0.007978
2710.7064,0.007930
2711.6383,0.008093
2712.5701,0.008515
2713.5019,0.009170
2714.4338,0.009120
2715.3656,0.008691
2716.2974,0.008977
2717.2293,0.009228
2718.1611,0.009094
2719.0930,0.009347
2720.0248,0.009647
2720.9566,0.009366
2721.8885,0.009562
2722.8203,0.009929
2723.7521,0.009633
2724.6840,0.009507
2725.6158,0.009706
2726.5476,0.009810
2727.4795,0.009654
2728.4113,0.009671
2729.3431,0.010192
2730.2750,0.010617
2731.2068,0.010763
2732.1386,0.010775
2733.0705,0.010186
2734.0023,0.009966
2734.9341,0.010736
2735.8660,0.011151
2736.7978,0.011004
2737.7296,0.010675
2738.6615,0.010685
2739.5933,0.011009
2740.5251,0.010962
2741.4570,0.011110
2742.3888,0.011197
2743.3206,0.010845
2744.2525,0.010837
2745.1843,0.010891
2746.1162,0.010842
2747.0480,0.011078
2747.9798,0.010983
2748.9117,0.010795
2749.8435,0.011144
2750.7753,0.011305
2751.7072,0.011493
2752.6390,0.011824
2753.5708,0.011715
2754.5027,0.011425
2755.4345,0.011487
2756.3663,0.011568
2757.2982,0.011305
2758.2300,0.011283
2759.1618,0.011326
2760.0937,0.011156
2761.0255,0.011431
2761.9573,0.011723
2762.8892,0.011602
2763.8210,0.011577
2764.7528,0.011410
2765.6847,0.011336
2766.6165,0.011679
2767.5483,0.011767
2768.4802,0.011505
2769.4120,0.011365
2770.3438,0.011688
2771.2757,0.012205
2772.2075,0.012256
2773.1394,0.011776
2774.0712,0.011446
2775.0030,0.011531
2775.9349,0.011778
2776.8667,0.012173
2777.7985,0.012812
2778.7304,0.013271
2779.6622,0.012995
2780.5940,0.012574
2781.5259,0.012529
2782.4577,0.012772
2783.3895,0.013034
2784.3214,0.012866
2785.2532,0.012619
2786.1850,0.012761
2787.1169,0.013246
2788.0487,0.013496
2788.9805,0.013434
2789.9124,0.013602
2790.8442,0.013888
2791.7760,0.014018
2792.7079,0.014070
2793.6397,0.014647
2794.5715,0.015188
2795.5034,0.014872
2796.4352,0.014493
2797.3670,0.014635
2798.2989,0.014961
2799.2307,0.015142
2800.1626,0.014933
2801.0944,0.014620
2802.0262,0.015139
2802.9581,0.015808
2803.8899,0.015829
2804.8217,0.016112
2805.7536,0.016545
2806.6854,0.016242
2807.6172,0.016032
2808.5491,0.016615
2809.4809,0.017152
2810.4127,0.017354
2811.3446,0.017830
2812.2764,0.018458
2813.2082,0.018335
2814.1401,0.017797
2815.0719,0.017514
2816.0037,0.017752
2816.9356,0.018579
2817.8674,0.019026
2818.7992,0.019010
2819.7311,0.019228
2820.6629,0.019114
2821.5947,0.018759
2822.5266,0.018944
2823.4584,0.019290
2824.3902,0.019256
2825.3221,0.019174
2826.2539,0.019557
2827.1857,0.020080
2828.1176,0.020380
2829.0494,0.020575
2829.9813,0.020659
2830.9131,0.020820
2831.8449,0.020968
2832.7768,0.021019
2833.7086,0.021193
2834.6404,0.021582
2835.5723,0.021778
2836.5041,0.021872
2837.4359,0.022291
2838.3678,0.022639
2839.2996,0.022438
2840.2314,0.022209
2841.1633,0.022560
2842.0951,0.023154
2843.0269,0.023348
2843.9588,0.023132
2844.8906,0.023196
2845.8224,0.023773
2846.7543,0.024339
2847.6861,0.024668
2848.6179,0.024839
2849.5498,0.025468
2850.4816,0.025552
2851.4134,0.024912
2852.3453,0.025338
2853.2771,0.025601
2854.2089,0.025379
2855.1408,0.025503
2856.0726,0.025915
2857.0045,0.026516
2857.9363,0.026982
2858.8681,0.027410
2859.8000,0.027557
2860.7318,0.027846
2861.6636,0.028682
2862.5955,0.029326
2863.5273,0.029268
2864.4591,0.029464
2865.3910,0.030197
2866.3228,0.030649
2867.2546,0.031099
2868.1865,0.032206
2869.1183,0.033113
2870.0501,0.033378
2870.9820,0.033664
2871.9138,0.034339
2872.8456,0.034909
2873.7775,0.035026
2874.7093,0.035384
2875.6411,0.036660
2876.5730,0.037793
2877.5048,0.038501
2878.4366,0.039545
2879.3685,0.040026
2880.3003,0.039802
2881.2321,0.039953
2882.1640,0.040533
2883.0958,0.040991
2884.0277,0.040878
2884.9595,0.041226
2885.8913,0.042167
2886.8232,0.042682
2887.7550,0.042997
2888.6868,0.043708
2889.6187,0.043857
2890.5505,0.044182
2891.4823,0.045133
2892.4142,0.045787
2893.3460,0.046089
2894.2778,0.046140
2895.2097,0.046273
2896.1415,0.046781
2897.0733,0.047758
2898.0052,0.048187
2898.9370,0.047618
2899.8688,0.047847
2900.8007,0.048404
2901.7325,0.048292
2902.6643,0.048439
2903.5962,0.048608
2904.5280,0.048512
2905.4598,0.048911
2906.3917,0.048735
2907.3235,0.047811
2908.2553,0.047594
2909.1872,0.047600
2910.1190,0.047030
2911.0509,0.046379
2911.9827,0.046057
2912.9145,0.046132
2913.8464,0.046183
2914.7782,0.046024
2915.7100,0.045710
2916.6419,0.045535
2917.5737,0.044868
2918.5055,0.044439
2919.4374,0.045039
2920.3692,0.045585
2921.3010,0.045663
2922.2329,0.045613
2923.1647,0.045279
2924.0965,0.044734
2925.0284,0.044647
2925.9602,0.045425
2926.8920,0.046738
2927.8239,0.047070
2928.7557,0.046432
2929.6875,0.046356
2930.6194,0.047672
2931.5512,0.048449
2932.4830,0.048063
2933.4149,0.047765
2934.3467,0.047937
2935.2785,0.048408
2936.2104,0.048917
2937.1422,0.049436
2938.0741,0.049574
2939.0059,0.048838
2939.9377,0.048456
2940.8696,0.049392
2941.8014,0.049986
2942.7332,0.049972
2943.6651,0.049571
2944.5969,0.049197
2945.5287,0.049246
2946.4606,0.049513
2947.3924,0.049813
2948.3242,0.050172
2949.2561,0.049735
2950.1879,0.048812
2951.1197,0.048879
2952.0516,0.049188
2952.9834,0.049600
2953.9152,0.050852
2954.8471,0.051424
2955.7789,0.050979
2956.7107,0.050635
2957.6426,0.051246
2958.5744,0.052849
2959.5062,0.053319
2960.4381,0.053198
2961.3699,0.054576
2962.3017,0.056085
2963.2336,0.056929
2964.1654,0.058751
2965.0972,0.060587
2966.0291,0.061530
2966.9609,0.063498
2967.8928,0.065883
2968.8246,0.068151
2969.7564,0.070681
2970.6883,0.073158
2971.6201,0.075157
2972.5519,0.077261
2973.4838,0.079932
2974.4156,0.082684
2975.3474,0.085746
2976.2793,0.088469
2977.2111,0.090330
2978.1429,0.092032
2979.0748,0.093480
2980.0066,0.093832
2980.9384,0.093518
2981.8703,0.093205
2982.8021,0.092518
2983.7339,0.090825
2984.6658,0.088205
2985.5976,0.086159
2986.5294,0.084170
2987.4613,0.081549
2988.3931,0.078844
2989.3249,0.075963
2990.2568,0.073493
2991.1886,0.071335
2992.1204,0.069392
2993.0523,0.068156
2993.9841,0.065635
2994.9160,0.062672
2995.8478,0.061559
2996.7796,0.061384
2997.7115,0.060563
2998.6433,0.059795
2999.5751,0.058830
3000.5070,0.057404
3001.4388,0.056531
3002.3706,0.056276
3003.3025,0.055795
3004.2343,0.055683
3005.1661,0.055797
3006.0980,0.055056
3007.0298,0.054807
3007.9616,0.054514
3008.8935,0.053561
3009.8253,0.053297
3010.7571,0.054542
3011.6890,0.055018
3012.6208,0.054771
3013.5526,0.055873
3014.4845,0.056493
3015.4163,0.056829
3016.3481,0.056655
3017.2800,0.056650
3018.2118,0.057248
3019.1436,0.057419
3020.0755,0.057657
3021.0073,0.058419
3021.9392,0.058539
3022.8710,0.058708
3023.8028,0.058984
3024.7347,0.059195
3025.6665,0.060174
3026.5983,0.060864
3027.5302,0.061058
3028.4620,0.061696
3029.3938,0.062695
3030.3257,0.063026
3031.2575,0.063246
3032.1893,0.063829
3033.1212,0.063553
3034.0530,0.063525
3034.9848,0.064076
3035.9167,0.065164
3036.8485,0.066446
3037.7803,0.066909
3038.7122,0.067040
3039.6440,0.066887
3040.5758,0.066547
3041.5077,0.067756
3042.4395,0.069987
3043.3713,0.070421
3044.3032,0.069965
3045.2350,0.070829
3046.1668,0.071766
3047.0987,0.072680
3048.0305,0.073095
3048.9624,0.073589
3049.8942,0.074326
3050.8260,0.074876
3051.7579,0.075785
3052.6897,0.075789
3053.6215,0.075161
3054.5534,0.076251
3055.4852,0.078121
3056.4170,0.078953
3057.3489,0.078422
3058.2807,0.079014
3059.2125,0.080159
3060.1444,0.081293
3061.0762,0.082516
3062.0080,0.083453
3062.9399,0.083620
3063.8717,0.083007
3064.8035,0.083759
3065.7354,0.085615
3066.6672,0.085818
3067.5990,0.086531
3068.5309,0.087694
3069.4627,0.088824
3070.3945,0.089396
3071.3264,0.089778
3072.2582,0.090620
3073.1900,0.091331
3074.1219,0.091433
3075.0537,0.092379
3075.9856,0.093459
3076.9174,0.093736
3077.8492,0.095192
3078.7811,0.097368
3079.7129,0.097886
3080.6447,0.098239
3081.5766,0.099091
3082.5084,0.099888
3083.4402,0.100513
3084.3721,0.101468
3085.3039,0.101655
3086.2357,0.102276
3087.1676,0.103088
3088.0994,0.103618
3089.0312,0.105029
3089.9631,0.106487
3090.8949,0.106514
3091.8267,0.107143
3092.7586,0.108968
3093.6904,0.110611
3094.6222,0.111730
3095.5541,0.111980
3096.4859,0.112324
3097.4177,0.112826
3098.3496,0.114139
3099.2814,0.116516
3100.2132,0.117986
3101.1451,0.118652
3102.0769,0.119293
3103.0087,0.119913
3103.9406,0.120548
3104.8724,0.122475
3105.8043,0.123601
3106.7361,0.123812
3107.6679,0.124378
3108.5998,0.125891
3109.5316,0.127336
3110.4634,0.127767
3111.3953,0.127672
3112.3271,0.129393
3113.2589,0.131661
3114.1908,0.133529
3115.1226,0.134803
3116.0544,0.135046
3116.9863,0.134840
3117.9181,0.135164
3118.8499,0.137213
3119.7818,0.139504
3120.7136,0.140023
3121.6454,0.140032
3122.5773,0.140021
3123.5091,0.140641
3124.4409,0.142461
3125.3728,0.144628
3126.3046,0.145826
3127.2364,0.147951
3128.1683,0.150532
3129.1001,0.150799
3130.0319,0.151216
3130.9638,0.152873
3131.8956,0.153252
3132.8275,0.154199
3133.7593,0.155386
3134.6911,0.156291
3135.6230,0.157856
3136.5548,0.159306
3137.4866,0.160161
3138.4185,0.161618
3139.3503,0.162260
3140.2821,0.162918
3141.2140,0.164355
3142.1458,0.165281
3143.0776,0.166433
3144.0095,0.168538
3144.9413,0.169912
3145.8731,0.171363
3146.8050,0.172548
3147.7368,0.173948
3148.6686,0.175186
3149.6005,0.176567
3150.5323,0.177511
3151.4641,0.179002
3152.3960,0.179690
3153.3278,0.179960
3154.2596,0.181852
3155.1915,0.185276
3156.1233,0.185597
3157.0551,0.185756
3157.9870,0.186917
3158.9188,0.187903
3159.8507,0.188000
3160.7825,0.189100
3161.7143,0.191787
3162.6462,0.194554
3163.5780,0.195588
3164.5098,0.196389
3165.4417,0.196208
3166.3735,0.198919
3167.3053,0.201913
3168.2372,0.202025
3169.1690,0.201786
3170.1008,0.203714
3171.0327,0.205635
3171.9645,0.206304
3172.8963,0.206977
3173.8282,0.208281
3174.7600,0.209659
3175.6918,0.210631
3176.6237,0.210881
3177.5555,0.212206
3178.4873,0.215009
3179.4192,0.216680
3180.3510,0.217795
3181.2828,0.219712
3182.2147,0.220694
3183.1465,0.221063
3184.0783,0.220891
3185.0102,0.222627
3185.9420,0.224243
3186.8739,0.225645
3187.8057,0.226406
3188.7375,0.227507
3189.6694,0.228401
3190.6012,0.229706
3191.5330,0.230583
3192.4649,0.232566
3193.3967,0.233147
3194.3285,0.233642
3195.2604,0.234424
3196.1922,0.236315
3197.1240,0.237800
3198.0559,0.239464
3198.9877,0.241509
3199.9195,0.243340
3200.8514,0.243969
3201.7832,0.243534
3202.7150,0.243545
3203.6469,0.244901
3204.5787,0.246043
3205.5105,0.247206
3206.4424,0.247794
3207.3742,0.248606
3208.3060,0.248720
3209.2379,0.250732
3210.1697,0.252852
3211.1015,0.253594
3212.0334,0.253651
3212.9652,0.255209
3213.8971,0.256260
3214.8289,0.255407
3215.7607,0.255062
3216.6926,0.257779
3217.6244,0.258315
3218.5562,0.259372
3219.4881,0.260797
3220.4199,0.261116
3221.3517,0.262156
3222.2836,0.263558
3223.2154,0.264207
3224.1472,0.265101
3225.0791,0.265714
3226.0109,0.265709
3226.9427,0.264669
3227.8746,0.266448
3228.8064,0.267746
3229.7382,0.268918
3230.6701,0.268147
3231.6019,0.268985
3232.5337,0.271601
3233.4656,0.272299
3234.3974,0.270118
3235.3292,0.269472
3236.2611,0.270621
3237.1929,0.271890
3238.1247,0.271891
3239.0566,0.272642
3239.9884,0.272373
3240.9202,0.272287
3241.8521,0.271517
3242.7839,0.274006
3243.7158,0.277060
3244.6476,0.275962
3245.5794,0.273026
3246.5113,0.276324
3247.4431,0.279045
3248.3749,0.278727
3249.3068,0.278477
3250.2386,0.279003
3251.1704,0.277580
3252.1023,0.278060
3253.0341,0.277834
3253.9659,0.278988
3254.8978,0.279265
3255.8296,0.278914
3256.7614,0.279589
3257.6933,0.281313
3258.6251,0.280970
3259.5569,0.279961
3260.4888,0.278915
3261.4206,0.279844
3262.3524,0.280886
3263.2843,0.281558
3264.2161,0.281194
3265.1479,0.281639
3266.0798,0.282321
3267.0116,0.283459
3267.9434,0.282487
3268.8753,0.281564
3269.8071,0.281742
3270.7390,0.282720
3271.6708,0.283703
3272.6026,0.286521
3273.5345,0.284444
3274.4663,0.281545
3275.3981,0.281179
3276.3300,0.281901
3277.2618,0.282123
3278.1936,0.283924
3279.1255,0.284581
3280.0573,0.284562
3280.9891,0.284587
3281.9210,0.283875
3282.8528,0.283621
3283.7846,0.284713
3284.7165,0.284598
3285.6483,0.284899
3286.5801,0.283250
3287.5120,0.284051
3288.4438,0.285230
3289.3756,0.284923
3290.3075,0.284666
3291.2393,0.286061
3292.1711,0.285864
3293.1030,0.284361
3294.0348,0.282207
3294.9666,0.283019
3295.8985,0.283405
3296.8303,0.283859
3297.7622,0.284006
3298.6940,0.286016
3299.6258,0.287810
3300.5577,0.288278
3301.4895,0.288536
3302.4213,0.289631
3303.3532,0.286674
3304.2850,0.284284
3305.2168,0.284006
3306.1487,0.286702
3307.0805,0.285247
3308.0123,0.284735
3308.9442,0.287591
3309.8760,0.289269
3310.8078,0.287507
3311.7397,0.285715
3312.6715,0.283997
3313.6033,0.284371
3314.5352,0.285345
3315.4670,0.287475
3316.3988,0.286143
3317.3307,0.285867
3318.2625,0.288063
3319.1943,0.290215
3320.1262,0.288996
3321.0580,0.288799
3321.9898,0.287050
3322.9217,0.286734
3323.8535,0.287812
3324.7854,0.289785
3325.7172,0.290920
3326.6490,0.291565
3327.5809,0.289276
3328.5127,0.286343
3329.4445,0.286596
3330.3764,0.289585
3331.3082,0.289102
3332.2400,0.287580
3333.1719,0.286132
3334.1037,0.286060
3335.0355,0.288785
3335.9674,0.291232
3336.8992,0.291779
3337.8310,0.291296
3338.7629,0.289870
3339.6947,0.290843
3340.6265,0.292461
3341.5584,0.291925
3342.4902,0.288787
3343.4220,0.289071
3344.3539,0.289789
3345.2857,0.291823
3346.2175,0.290988
3347.1494,0.287249
3348.0812,0.284774
3349.0130,0.289278
3349.9449,0.291268
3350.8767,0.291607
3351.8086,0.292362
3352.7404,0.291230
3353.6722,0.288314
3354.6041,0.286363
3355.5359,0.285659
3356.4677,0.286618
3357.3996,0.287988
3358.3314,0.291657
3359.2632,0.291586
3360.1951,0.290180
3361.1269,0.285225
3362.0587,0.286500
3362.9906,0.287524
3363.9224,0.287561
3364.8542,0.289594
3365.7861,0.290591
3366.7179,0.288640
3367.6497,0.288971
3368.5816,0.289557
3369.5134,0.288718
3370.4452,0.287430
3371.3771,0.288286
3372.3089,0.287162
3373.2407,0.285678
3374.1726,0.283494
3375.1044,0.284527
3376.0362,0.286015
3376.9681,0.285018
3377.8999,0.282373
3378.8317,0.284294
3379.7636,0.284546
3380.6954,0.282825
3381.6273,0.282467
3382.5591,0.284448
3383.4909,0.283445
3384.4228,0.277441
3385.3546,0.275445
3386.2864,0.280194
3387.2183,0.281397
3388.1501,0.279792
3389.0819,0.278573
3390.0138,0.278354
3390.9456,0.278345
3391.8774,0.278639
3392.8093,0.274638
3393.7411,0.272914
3394.6729,0.273755
3395.6048,0.273412
3396.5366,0.272839
3397.4684,0.273482
3398.4003,0.274869
3399.3321,0.274459
3400.2639,0.270315
3401.1958,0.267945
3402.1276,0.268007
3403.0594,0.267755
3403.9913,0.266909
3404.9231,0.266869
3405.8549,0.266694
3406.7868,0.265720
3407.7186,0.262655
3408.6505,0.263204
3409.5823,0.264288
3410.5141,0.265641
3411.4460,0.263360
3412.3778,0.260831
3413.3096,0.258398
3414.2415,0.258921
3415.1733,0.259069
3416.1051,0.260028
3417.0370,0.259454
3417.9688,0.259218
3418.9006,0.255950
3419.8325,0.254535
3420.7643,0.252908
3421.6961,0.252735
3422.6280,0.254227
3423.5598,0.252351
3424.4916,0.248906
3425.4235,0.248215
3426.3553,0.250783
3427.2871,0.252389
3428.2190,0.247818
3429.1508,0.244846
3430.0826,0.243375
3431.0145,0.242797
3431.9463,0.242790
3432.8781,0.242683
3433.8100,0.238969
3434.7418,0.239113
3435.6737,0.238603
3436.6055,0.237067
3437.5373,0.234641
3438.4692,0.233910
3439.4010,0.230983
3440.3328,0.230309
3441.2647,0.230144
3442.1965,0.229009
3443.1283,0.228002
3444.0602,0.228693
3444.9920,0.227751
3445.9238,0.227468
3446.8557,0.224468
3447.7875,0.225770
3448.7193,0.228688
3449.6512,0.225795
3450.5830,0.221391
3451.5148,0.220180
3452.4467,0.221091
3453.3785,0.221771
3454.3103,0.218002
3455.2422,0.216034
3456.1740,0.216226
3457.1058,0.216043
3458.0377,0.215374
3458.9695,0.213264
3459.9013,0.211893
3460.8332,0.214644
3461.7650,0.210525
3462.6969,0.209381
3463.6287,0.208826
3464.5605,0.207598
3465.4924,0.204760
3466.4242,0.203245
3467.3560,0.203463
3468.2879,0.202750
3469.2197,0.200645
3470.1515,0.200974
3471.0834,0.201653
3472.0152,0.199551
3472.9470,0.196807
3473.8789,0.193788
3474.8107,0.192918
3475.7425,0.192959
3476.6744,0.190294
3477.6062,0.191849
3478.5380,0.193676
3479.4699,0.193350
3480.4017,0.190625
3481.3335,0.187164
3482.2654,0.184487
3483.1972,0.185362
3484.1290,0.184819
3485.0609,0.182230
3485.9927,0.181281
3486.9245,0.183475
3487.8564,0.182899
3488.7882,0.181971
3489.7201,0.181239
3490.6519,0.181292
3491.5837,0.178263
3492.5156,0.177698
3493.4474,0.177061
3494.3792,0.175891
3495.3111,0.174735
3496.2429,0.174019
3497.1747,0.170944
3498.1066,0.169715
3499.0384,0.168471
3499.9702,0.168145
3500.9021,0.169250
3501.8339,0.167235
3502.7657,0.163122
3503.6976,0.164014
3504.6294,0.168045
3505.5612,0.167257
3506.4931,0.160563
3507.4249,0.158577
3508.3567,0.159972
3509.2886,0.161874
3510.2204,0.161245
3511.1522,0.160415
3512.0841,0.159419
3513.0159,0.158788
3513.9477,0.156459
3514.8796,0.151154
3515.8114,0.148552
3516.7432,0.151291
3517.6751,0.151648
3518.6069,0.152483
3519.5388,0.146987
3520.4706,0.142600
3521.4024,0.143092
3522.3343,0.145215
3523.2661,0.146028
3524.1979,0.146532
3525.1298,0.147878
3526.0616,0.145376
3526.9934,0.141776
3527.9253,0.137532
3528.8571,0.134978
3529.7889,0.135629
3530.7208,0.138259
3531.6526,0.139523
3532.5844,0.137773
3533.5163,0.135717
3534.4481,0.133501
3535.3799,0.134021
3536.3118,0.130409
3537.2436,0.126779
3538.1754,0.126115
3539.1073,0.124669
3540.0391,0.123479
3540.9709,0.125243
3541.9028,0.127311
3542.8346,0.126417
3543.7664,0.124611
3544.6983,0.123310
3545.6301,0.120241
3546.5620,0.120502
3547.4938,0.121479
3548.4256,0.120616
3549.3575,0.116842
3550.2893,0.114396
3551.2211,0.114638
3552.1530,0.113751
3553.0848,0.113253
3554.0166,0.115754
3554.9485,0.115271
3555.8803,0.113829
3556.8121,0.111284
3557.7440,0.110571
3558.6758,0.111082
3559.6076,0.109013
3560.5395,0.108833
3561.4713,0.108950
3562.4031,0.105664
3563.3350,0.103405
3564.2668,0.101888
3565.1986,0.102052
3566.1305,0.103030
3567.0623,0.102285
3567.9941,0.099792
3568.9260,0.097688
3569.8578,0.098198
3570.7896,0.099773
3571.7215,0.100010
3572.6533,0.098611
3573.5852,0.098475
3574.5170,0.098029
3575.4488,0.094966
3576.3807,0.092649
3577.3125,0.090355
3578.2443,0.089550
3579.1762,0.090912
3580.1080,0.090311
3581.0398,0.090215
3581.9717,0.090783
3582.9035,0.089251
3583.8353,0.087378
3584.7672,0.086195
3585.6990,0.084233
3586.6308,0.081178
3587.5627,0.079114
3588.4945,0.080033
3589.4263,0.081444
3590.3582,0.083274
3591.2900,0.081797
3592.2218,0.078655
3593.1537,0.077842
3594.0855,0.077188
3595.0173,0.075465
3595.9492,0.074905
3596.8810,0.073870
3597.8128,0.073370
3598.7447,0.075830
3599.6765,0.076352
3600.6084,0.073284
3601.5402,0.072181
3602.4720,0.073049
3603.4039,0.072190
3604.3357,0.069575
3605.2675,0.068211
3606.1994,0.068287
3607.1312,0.068215
3608.0630,0.066424
3608.9949,0.066029
3609.9267,0.065219
3610.8585,0.064000
3611.7904,0.063836
3612.7222,0.063645
3613.6540,0.062361
3614.5859,0.061095
3615.5177,0.061777
3616.4495,0.061505
3617.3814,0.058329
3618.3132,0.056991
3619.2450,0.058717
3620.1769,0.058699
3621.1087,0.057591
3622.0405,0.058616
3622.9724,0.058424
3623.9042,0.055922
3624.8360,0.054560
3625.7679,0.053952
3626.6997,0.053583
3627.6316,0.053676
3628.5634,0.052601
3629.4952,0.051146
3630.4271,0.052229
3631.3589,0.052136
3632.2907,0.051184
3633.2226,0.049572
3634.1544,0.048021
3635.0862,0.048065
3636.0181,0.048961
3636.9499,0.047620
3637.8817,0.046570
3638.8136,0.047212
3639.7454,0.047210
3640.6772,0.045898
3641.6091,0.043044
3642.5409,0.040926
3643.4727,0.042271
3644.4046,0.042619
3645.3364,0.042013
3646.2682,0.041260
3647.2001,0.039717
3648.1319,0.038824
3649.0637,0.038931
3649.9956,0.038816
3650.9274,0.037092
3651.8592,0.035218
3652.7911,0.035087
3653.7229,0.035700
3654.6547,0.036149
3655.5866,0.035030
3656.5184,0.033972
3657.4503,0.034659
3658.3821,0.033578
3659.3139,0.031018
3660.2458,0.029925
3661.1776,0.029818
3662.1094,0.029905
3663.0413,0.029278
3663.9731,0.027922
3664.9049,0.026921
3665.8368,0.026151
3666.7686,0.026159
3667.7004,0.026826
3668.6323,0.025588
3669.5641,0.023530
3670.4959,0.023972
3671.4278,0.023774
3672.3596,0.022481
3673.2914,0.021376
3674.2233,0.020804
3675.1551,0.021332
3676.0869,0.021391
3677.0188,0.018977
3677.9506,0.016907
3678.8824,0.017346
3679.8143,0.016533
3680.7461,0.014972
3681.6779,0.014851
3682.6098,0.015297
3683.5416,0.015783
3684.4735,0.015323
3685.4053,0.014389
3686.3371,0.013769
3687.2690,0.013788
3688.2008,0.015038
3689.1326,0.015032
3690.0645,0.011618
3690.9963,0.008283
3691.9281,0.008871
3692.8600,0.009017
3693.7918,0.008879
3694.7236,0.010435
3695.6555,0.011195
3696.5873,0.010800
3697.5191,0.010415
3698.4510,0.009934
3699.3828,0.008854
3700.3146,0.007370
3701.2465,0.006620
3702.1783,0.006046
3703.1101,0.006222
3704.0420,0.006462
3704.9738,0.005846
3705.9056,0.005138
3706.8375,0.005289
3707.7693,0.006531
3708.7011,0.007570
3709.6330,0.005812
3710.5648,0.004492
3711.4967,0.004566
3712.4285,0.004180
3713.3603,0.004233
3714.2922,0.003878
3715.2240,0.003841
3716.1558,0.003552
3717.0877,0.003727
3718.0195,0.004212
3718.9513,0.003191
3719.8832,0.001838
3720.8150,0.002484
3721.7468,0.003046
3722.6787,0.003391
3723.6105,0.003365
3724.5423,0.002630
3725.4742,0.002254
3726.4060,0.002180
3727.3378,0.003352
3728.2697,0.003186
3729.2015,0.002623
3730.1333,0.002498
3731.0652,0.001868
3731.9970,0.001997
3732.9288,0.002202
3733.8607,0.000787
3734.7925,-0.000607
3735.7243,-0.000163
3736.6562,0.000992
3737.5880,0.001097
3738.5199,0.000561
3739.4517,0.000081
3740.3835,0.001869
3741.3154,0.003240
3742.2472,0.001952
3743.1790,0.001240
3744.1109,0.001603
3745.0427,0.001053
3745.9745,-0.001098
3746.9064,-0.003338
3747.8382,-0.003896
3748.7700,-0.002059
3749.7019,0.000982
3750.6337,0.002719
3751.5655,0.001571
3752.4974,0.000498
3753.4292,0.000041
3754.3610,-0.000875
3755.2929,-0.000287
3756.2247,0.001117
3757.1565,0.002555
3758.0884,0.002482
3759.0202,0.002055
3759.9520,0.002337
3760.8839,0.001815
3761.8157,0.001635
3762.7475,0.001713
3763.6794,0.000876
3764.6112,0.001310
3765.5431,0.002187
3766.4749,0.000943
3767.4067,-0.000410
3768.3386,-0.000035
3769.2704,0.000711
3770.2022,0.001313
3771.1341,0.001933
3772.0659,0.002248
3772.9977,0.002627
3773.9296,0.002001
3774.8614,0.001459
3775.7932,0.001748
3776.7251,0.001754
3777.6569,0.001816
3778.5887,0.001681
3779.5206,0.001816
3780.4524,0.002429
3781.3842,0.002016
3782.3161,0.000679
3783.2479,0.001037
3784.1797,0.001824
3785.1116,0.001953
3786.0434,0.001966
3786.9752,0.001657
3787.9071,0.001182
3788.8389,0.001585
3789.7707,0.002335
3790.7026,0.001684
3791.6344,0.000707
3792.5662,0.000662
3793.4981,0.001053
3794.4299,0.001559
3795.3618,0.001719
3796.2936,0.000842
3797.2254,-0.000669
3798.1573,-0.001395
3799.0891,-0.000527
3800.0209,0.001126
3800.9528,0.002352
3801.8846,0.001930
3802.8164,0.000513
3803.7483,0.000006
3804.6801,0.001116
3805.6119,0.001204
3806.5438,0.000175
3807.4756,0.000211
3808.4074,0.000294
3809.3393,0.000425
3810.2711,0.001221
3811.2029,0.001178
3812.1348,0.000592
3813.0666,0.000711
3813.9984,0.000738
3814.9303,0.000215
3815.8621,-0.000400
3816.7939,-0.000940
3817.7258,-0.001360
3818.6576,-0.000649
3819.5894,0.001050
3820.5213,0.001024
3821.4531,0.000496
3822.3850,0.000478
3823.3168,-0.000028
3824.2486,-0.000034
3825.1805,0.000544
3826.1123,0.000727
3827.0441,0.001251
3827.9760,0.000635
3828.9078,0.000009
3829.8396,0.000874
3830.7715,0.001287
3831.7033,0.000989
3832.6351,0.000259
3833.5670,-0.000286
3834.4988,-0.000268
3835.4306,0.000054
3836.3625,0.000329
3837.2943,0.000803
3838.2261,0.001006
3839.1580,-0.000290
3840.0898,-0.001454
3841.0216,-0.001637
3841.9535,-0.001608
3842.8853,-0.000903
3843.8171,0.000417
3844.7490,0.001656
3845.6808,0.001504
3846.6126,0.000783
3847.5445,0.001262
3848.4763,0.001835
3849.4082,0.001678
3850.3400,0.000829
3851.2718,-0.000126
3852.2037,-0.000007
3853.1355,-0.000081
3854.0673,-0.000878
3854.9992,-0.000097
3855.9310,0.001109
3856.8628,0.000358
3857.7947,-0.000024
3858.7265,-0.000134
3859.6583,-0.000445
3860.5902,-0.000160
3861.5220,-0.000139
3862.4538,0.000315
3863.3857,0.000399
3864.3175,-0.000868
3865.2493,-0.001421
3866.1812,-0.000854
3867.1130,-0.000149
3868.0448,0.000245
3868.9767,0.000971
3869.9085,0.000837
3870.8403,-0.000327
3871.7722,-0.000598
3872.7040,0.000157
3873.6358,0.001837
3874.5677,0.002549
3875.4995,0.001885
3876.4314,0.000993
3877.3632,0.001574
3878.2950,0.002139
3879.2269,0.001174
3880.1587,0.000125
3881.0905,-0.000383
3882.0224,-0.000408
3882.9542,-0.000546
3883.8860,-0.001348
3884.8179,-0.000492
3885.7497,0.001099
3886.6815,0.001314
3887.6134,0.001010
3888.5452,0.000874
3889.4770,0.001388
3890.4089,0.002144
3891.3407,0.002290
3892.2725,0.001656
3893.2044,0.000777
3894.1362,0.000348
3895.0680,0.000408
3895.9999,0.000890
3896.9317,0.001747
3897.8635,0.001260
3898.7954,0.000330
3899.7272,0.000777
3900.6590,0.000886
3901.5909,0.000128
3902.5227,-0.000606
3903.4546,-0.000743
3904.3864,-0.001002
3905.3182,-0.000619
3906.2501,0.000852
3907.1819,0.001462
3908.1137,0.001318
3909.0456,0.000813
3909.9774,-0.000432
3910.9092,-0.000963
3911.8411,0.000115
3912.7729,0.000775
3913.7047,0.001107
3914.6366,0.000917
3915.5684,0.000206
3916.5002,0.000478
3917.4321,0.001345
3918.3639,0.001411
3919.2957,0.000389
3920.2276,0.000768
3921.1594,0.001134
3922.0912,-0.000323
3923.0231,-0.000536
3923.9549,0.000004
3924.8867,0.000434
3925.8186,0.000706
3926.7504,0.000188
3927.6822,-0.000207
3928.6141,0.000609
3929.5459,0.001800
3930.4777,0.001747
3931.4096,0.001049
3932.3414,0.000905
3933.2733,0.000663
3934.2051,0.000481
3935.1369,0.000412
3936.0688,0.000339
3937.0006,0.001139
3937.9324,0.001581
3938.8643,0.000916
3939.7961,0.001011
3940.7279,0.001854
3941.6598,0.001985
3942.5916,0.001350
3943.5234,0.000556
3944.4553,-0.000611
3945.3871,-0.000747
3946.3189,0.000598
3947.2508,0.000893
3948.1826,0.000155
3949.1144,-0.000254
3950.0463,-0.000884
3950.9781,-0.000865
3951.9099,0.001227
3952.8418,0.002365
3953.7736,0.001627
3954.7054,0.000917
3955.6373,0.000799
3956.5691,0.001186
3957.5009,0.001419
3958.4328,0.001362
3959.3646,0.001462
3960.2965,0.001840
3961.2283,0.001624
3962.1601,0.000261
3963.0920,0.000284
3964.0238,0.000996
3964.9556,0.000651
3965.8875,0.000196
3966.8193,0.000236
3967.7511,0.000488
3968.6830,0.000999
3969.6148,0.001840
3970.5466,0.001829
3971.4785,0.000432
3972.4103,0.000250
3973.3421,0.001346
3974.2740,0.001884
3975.2058,0.001976
3976.1376,0.001372
3977.0695,0.000819
3978.0013,0.000606
3978.9331,0.000509
3979.8650,0.001125
3980.7968,0.001136
3981.7286,-0.000200
3982.6605,-0.000887
3983.5923,0.000299
3984.5241,0.000932
3985.4560,0.000850
3986.3878,0.002006
3987.3197,0.001952
3988.2515,0.000603
3989.1833,-0.000121
3990.1152,0.000148
3991.0470,0.000942
3991.9788,0.001445
3992.9107,0.001542
3993.8425,0.001050
3994.7743,0.000569
3995.7062,0.000311
3996.6380,0.000445
3997.5698,0.000619
3998.5017,0.001300
3999.4335,0.002150
4000.3653,0.001181
