Wavenumber,Intensity
650.4205,0.400852
651.3523,0.405042
652.2841,0.383721
653.2160,0.375260
654.1478,0.381462
655.0796,0.390024
656.0115,0.401775
656.9433,0.403220
657.8751,0.385168
658.8070,0.377406
659.7388,0.376065
660.6706,0.384992
661.6025,0.386218
662.5343,0.381105
663.4661,0.376430
664.3980,0.382964
665.3298,0.379887
666.2616,0.378761
667.1935,0.378995
668.1253,0.380186
669.0571,0.377672
669.9890,0.381301
670.9208,0.375239
671.8526,0.367874
672.7845,0.364917
673.7163,0.363489
674.6481,0.363721
675.5800,0.365400
676.5118,0.360543
677.4437,0.358479
678.3755,0.357575
679.3073,0.364915
680.2392,0.363505
681.1710,0.358870
682.1028,0.357664
683.0347,0.355334
683.9665,0.354865
684.8983,0.358060
685.8302,0.352641
686.7620,0.347131
687.6938,0.346548
688.6257,0.351770
689.5575,0.352862
690.4893,0.348823
691.4212,0.343626
692.3530,0.343324
693.2848,0.341554
694.2167,0.339728
695.1485,0.340043
696.0803,0.345116
697.0122,0.344237
697.9440,0.340055
698.8758,0.338247
699.8077,0.336043
700.7395,0.333287
701.6713,0.330825
702.6032,0.328202
703.5350,0.331496
704.4669,0.333736
705.3987,0.330226
706.3305,0.327452
707.2624,0.328286
708.1942,0.322269
709.1260,0.318452
710.0579,0.317695
710.9897,0.320248
711.9215,0.323325
712.8534,0.319299
713.7852,0.314543
714.7170,0.313185
715.6489,0.310329
716.5807,0.308650
717.5125,0.310716
718.4444,0.310303
719.3762,0.306065
720.3080,0.303953
721.2399,0.303728
722.1717,0.303834
723.1035,0.305079
724.0354,0.303910
724.9672,0.299062
725.8990,0.297581
726.8309,0.297808
727.7627,0.296509
728.6945,0.295903
729.6264,0.295480
730.5582,0.291926
731.4901,0.289441
732.4219,0.288506
733.3537,0.287018
734.2856,0.285889
735.2174,0.284113
736.1492,0.283528
737.0811,0.285215
738.0129,0.283537
738.9447,0.282487
739.8766,0.279016
740.8084,0.276746
741.7402,0.277682
742.6721,0.277329
743.6039,0.273552
744.5357,0.270614
745.4676,0.268982
746.3994,0.267792
747.3312,0.266229
748.2631,0.265284
749.1949,0.264723
750.1267,0.264290
751.0586,0.262424
751.9904,0.260345
752.9222,0.259348
753.8541,0.260119
754.7859,0.259453
755.7177,0.257936
756.6496,0.255862
757.5814,0.255114
758.5132,0.253791
759.4451,0.251282
760.3769,0.249567
761.3088,0.247983
762.2406,0.247551
763.1724,0.249354
764.1043,0.248189
765.0361,0.245363
765.9679,0.243034
766.8998,0.240600
767.8316,0.238773
768.7634,0.239108
769.6953,0.238550
770.6271,0.237745
771.5589,0.236350
772.4908,0.234986
773.4226,0.233244
774.3544,0.231592
775.2863,0.230501
776.2181,0.229184
777.1499,0.227261
778.0818,0.225943
779.0136,0.224747
779.9454,0.223103
780.8773,0.220300
781.8091,0.219071
782.7409,0.219108
783.6728,0.218322
784.6046,0.217151
785.5364,0.215466
786.4683,0.214032
787.4001,0.213832
788.3320,0.212533
789.2638,0.209359
790.1956,0.206890
791.1275,0.206782
792.0593,0.206548
792.9911,0.205712
793.9230,0.204376
794.8548,0.202206
795.7866,0.201223
796.7185,0.201945
797.6503,0.202055
798.5821,0.200611
799.5140,0.197451
800.4458,0.194891
801.3776,0.193964
802.3095,0.194043
803.2413,0.194049
804.1731,0.193105
805.1050,0.191918
806.0368,0.190536
806.9686,0.189185
807.9005,0.187933
808.8323,0.185516
809.7641,0.183431
810.6960,0.181693
811.6278,0.179927
812.5596,0.178310
813.4915,0.176801
814.4233,0.176454
815.3552,0.175518
816.2870,0.173475
817.2188,0.171381
818.1507,0.169626
819.0825,0.169220
820.0143,0.169475
820.9462,0.168832
821.8780,0.166750
822.8098,0.165213
823.7417,0.164158
824.6735,0.162685
825.6053,0.160568
826.5372,0.159193
827.4690,0.158437
828.4008,0.157581
829.3327,0.156940
830.2645,0.155922
831.1963,0.154581
832.1282,0.153824
833.0600,0.152912
833.9918,0.151359
834.9237,0.149813
835.8555,0.149024
836.7873,0.148657
837.7192,0.148208
838.6510,0.147063
839.5828,0.145751
840.5147,0.144757
841.4465,0.143624
842.3784,0.142367
843.3102,0.141362
844.2420,0.140450
845.1739,0.140144
846.1057,0.139241
847.0375,0.137164
847.9694,0.135936
848.9012,0.135927
849.8330,0.135590
850.7649,0.134714
851.6967,0.133216
852.6285,0.132167
853.5604,0.131699
854.4922,0.130891
855.4240,0.129966
856.3559,0.129553
857.2877,0.129315
858.2195,0.128961
859.1514,0.128734
860.0832,0.128192
861.0150,0.127299
861.9469,0.126810
862.8787,0.126651
863.8105,0.126760
864.7424,0.127334
865.6742,0.128578
866.6060,0.129587
867.5379,0.129824
868.4697,0.131136
869.4016,0.133774
870.3334,0.137067
871.2652,0.140662
872.1971,0.144571
873.1289,0.149371
874.0607,0.153908
874.9926,0.158315
875.9244,0.163063
876.8562,0.166458
877.7881,0.166982
878.7199,0.164945
879.6517,0.161185
880.5836,0.155857
881.5154,0.149383
882.4472,0.142322
883.3791,0.134893
884.3109,0.128077
885.2427,0.121837
886.1746,0.116468
887.1064,0.112430
888.0382,0.108575
888.9701,0.104995
889.9019,0.102456
890.8337,0.100084
891.7656,0.097440
892.6974,0.095280
893.6292,0.093482
894.5611,0.092122
895.4929,0.091101
896.4247,0.089490
897.3566,0.088048
898.2884,0.087364
899.2203,0.086772
900.1521,0.085969
901.0839,0.085107
902.0158,0.084014
902.9476,0.082895
903.8794,0.082272
904.8113,0.081730
905.7431,0.081054
906.6749,0.080061
907.6068,0.079101
908.5386,0.078633
909.4704,0.078214
910.4023,0.077664
911.3341,0.077377
912.2659,0.076991
913.1978,0.076092
914.1296,0.075209
915.0614,0.074812
915.9933,0.074396
916.9251,0.073763
917.8569,0.073376
918.7888,0.072932
919.7206,0.072242
920.6524,0.071665
921.5843,0.071301
922.5161,0.070837
923.4479,0.070238
924.3798,0.069714
925.3116,0.069409
926.2435,0.068765
927.1753,0.067935
928.1071,0.067578
929.0390,0.067420
929.9708,0.067028
930.9026,0.066629
931.8345,0.066133
932.7663,0.065566
933.6981,0.065552
934.6300,0.065342
935.5618,0.064919
936.4936,0.064607
937.4255,0.064012
938.3573,0.063401
939.2891,0.062988
940.2210,0.062788
941.1528,0.062561
942.0846,0.062336
943.0165,0.062021
943.9483,0.061708
944.8801,0.061373
945.8120,0.061144
946.7438,0.061216
947.6756,0.061234
948.6075,0.060872
949.5393,0.060355
950.4711,0.059977
951.4030,0.059674
952.3348,0.059433
953.2667,0.059180
954.1985,0.058921
955.1303,0.058478
956.0622,0.057950
956.9940,0.057870
957.9258,0.057783
958.8577,0.057634
959.7895,0.057555
960.7213,0.057540
961.6532,0.057677
962.5850,0.057554
963.5168,0.057113
964.4487,0.056608
965.3805,0.056305
966.3123,0.056442
967.2442,0.056572
968.1760,0.056372
969.1078,0.056189
970.0397,0.055946
970.9715,0.055610
971.9033,0.055579
972.8352,0.055587
973.7670,0.055450
974.6988,0.055167
975.6307,0.054993
976.5625,0.054842
977.4943,0.054649
978.4262,0.054577
979.3580,0.054504
980.2899,0.054269
981.2217,0.054236
982.1535,0.054273
983.0854,0.054402
984.0172,0.054669
984.9490,0.054580
985.8809,0.054334
986.8127,0.054128
987.7445,0.054079
988.6764,0.054320
989.6082,0.054419
990.5400,0.054135
991.4719,0.053970
992.4037,0.053962
993.3355,0.054308
994.2674,0.054585
995.1992,0.054560
996.1310,0.054849
997.0629,0.055227
997.9947,0.055351
998.9265,0.055354
999.8584,0.055490
1000.7902,0.055752
1001.7220,0.055914
1002.6539,0.056086
1003.5857,0.056146
1004.5175,0.056193
1005.4494,0.056293
1006.3812,0.056581
1007.3131,0.057167
1008.2449,0.057562
1009.1767,0.057811
1010.1086,0.058269
1011.0404,0.058927
1011.9722,0.059598
1012.9041,0.060304
1013.8359,0.060841
1014.7677,0.061208
1015.6996,0.061817
1016.6314,0.063031
1017.5632,0.064339
1018.4951,0.065281
1019.4269,0.066171
1020.3587,0.067548
1021.2906,0.069215
1022.2224,0.070836
1023.1542,0.072498
1024.0861,0.074652
1025.0179,0.077099
1025.9497,0.079605
1026.8816,0.082713
1027.8134,0.086231
1028.7452,0.089728
1029.6771,0.093677
1030.6089,0.098650
1031.5407,0.104206
1032.4726,0.110585
1033.4044,0.118449
1034.3362,0.127475
1035.2681,0.137492
1036.1999,0.148752
1037.1318,0.161834
1038.0636,0.176222
1038.9954,0.191170
1039.9273,0.206309
1040.8591,0.220508
1041.7909,0.232419
1042.7228,0.241266
1043.6546,0.246330
1044.5864,0.247063
1045.5183,0.243231
1046.4501,0.234650
1047.3819,0.222379
1048.3138,0.208418
1049.2456,0.193306
1050.1774,0.177414
1051.1093,0.162074
1052.0411,0.147109
1052.9729,0.133519
1053.9048,0.121601
1054.8366,0.110721
1055.7684,0.101042
1056.7003,0.092924
1057.6321,0.086366
1058.5639,0.080986
1059.4958,0.076829
1060.4276,0.073544
1061.3594,0.070670
1062.2913,0.068745
1063.2231,0.067617
1064.1550,0.066645
1065.0868,0.065948
1066.0186,0.065901
1066.9505,0.066103
1067.8823,0.066425
1068.8141,0.067157
1069.7460,0.068071
1070.6778,0.069300
1071.6096,0.070935
1072.5415,0.072730
1073.4733,0.074665
1074.4051,0.076792
1075.3370,0.079136
1076.2688,0.082027
1077.2006,0.084980
1078.1325,0.087941
1079.0643,0.090846
1079.9961,0.093760
1080.9280,0.096666
1081.8598,0.099268
1082.7916,0.101727
1083.7235,0.103653
1084.6553,0.104976
1085.5871,0.105584
1086.5190,0.105145
1087.4508,0.103804
1088.3826,0.101676
1089.3145,0.098733
1090.2463,0.095181
1091.1782,0.091337
1092.1100,0.087127
1093.0418,0.082637
1093.9737,0.078418
1094.9055,0.074446
1095.8373,0.070727
1096.7692,0.067425
1097.7010,0.064279
1098.6328,0.061115
1099.5647,0.058408
1100.4965,0.056447
1101.4283,0.054705
1102.3602,0.052945
1103.2920,0.051533
1104.2238,0.050501
1105.1557,0.049359
1106.0875,0.048436
1107.0193,0.047818
1107.9512,0.047119
1108.8830,0.046609
1109.8148,0.046110
1110.7467,0.045457
1111.6785,0.045063
1112.6103,0.044832
1113.5422,0.044799
1114.4740,0.044717
1115.4058,0.044452
1116.3377,0.044369
1117.2695,0.044455
1118.2014,0.044366
1119.1332,0.044225
1120.0650,0.044109
1120.9969,0.044018
1121.9287,0.044143
1122.8605,0.044294
1123.7924,0.044390
1124.7242,0.044505
1125.6560,0.044204
1126.5879,0.043889
1127.5197,0.043982
1128.4515,0.044201
1129.3834,0.044035
1130.3152,0.043642
1131.2470,0.043542
1132.1789,0.043660
1133.1107,0.043731
1134.0425,0.043690
1134.9744,0.043490
1135.9062,0.043360
1136.8380,0.043275
1137.7699,0.042983
1138.7017,0.042740
1139.6335,0.042740
1140.5654,0.042808
1141.4972,0.042783
1142.4290,0.042749
1143.3609,0.042829
1144.2927,0.042841
1145.2246,0.042721
1146.1564,0.042684
1147.0882,0.042679
1148.0201,0.042653
1148.9519,0.042507
1149.8837,0.042704
1150.8156,0.042969
1151.7474,0.042887
1152.6792,0.042679
1153.6111,0.042736
1154.5429,0.042845
1155.4747,0.042745
1156.4066,0.042790
1157.3384,0.042781
1158.2702,0.042526
1159.2021,0.042291
1160.1339,0.042346
1161.0657,0.042159
1161.9976,0.041871
1162.9294,0.041825
1163.8612,0.041430
1164.7931,0.041234
1165.7249,0.041148
1166.6567,0.041083
1167.5886,0.040869
1168.5204,0.040735
1169.4522,0.040824
1170.3841,0.040858
1171.3159,0.040655
1172.2477,0.040499
1173.1796,0.040365
1174.1114,0.040289
1175.0433,0.040260
1175.9751,0.040294
1176.9069,0.040359
1177.8388,0.040283
1178.7706,0.040167
1179.7024,0.040256
1180.6343,0.040246
1181.5661,0.040272
1182.4979,0.040355
1183.4298,0.040320
1184.3616,0.040312
1185.2934,0.040467
1186.2253,0.040396
1187.1571,0.040242
1188.0889,0.040149
1189.0208,0.040152
1189.9526,0.040469
1190.8844,0.040513
1191.8163,0.040554
1192.7481,0.040516
1193.6799,0.040467
1194.6118,0.040602
1195.5436,0.040524
1196.4754,0.040542
1197.4073,0.040771
1198.3391,0.040686
1199.2709,0.040786
1200.2028,0.040749
1201.1346,0.040575
1202.0665,0.040426
1202.9983,0.040467
1203.9301,0.040808
1204.8620,0.040941
1205.7938,0.040940
1206.7256,0.040823
1207.6575,0.040719
1208.5893,0.040741
1209.5211,0.040732
1210.4530,0.040781
1211.3848,0.040876
1212.3166,0.041041
1213.2485,0.040837
1214.1803,0.040762
1215.1121,0.040982
1216.0440,0.041175
1216.9758,0.041068
1217.9076,0.041022
1218.8395,0.041039
1219.7713,0.041062
1220.7031,0.041020
1221.6350,0.040948
1222.5668,0.041080
1223.4986,0.041182
1224.4305,0.041187
1225.3623,0.041348
1226.2941,0.041319
1227.2260,0.041416
1228.1578,0.041552
1229.0897,0.041649
1230.0215,0.041490
1230.9533,0.041421
1231.8852,0.041662
1232.8170,0.041713
1233.7488,0.041625
1234.6807,0.041325
1235.6125,0.041346
1236.5443,0.041665
1237.4762,0.041732
1238.4080,0.041693
1239.3398,0.041615
1240.2717,0.041686
1241.2035,0.042112
1242.1353,0.042441
1243.0672,0.042365
1243.9990,0.042520
1244.9308,0.042936
1245.8627,0.042979
1246.7945,0.042748
1247.7263,0.042800
1248.6582,0.043100
1249.5900,0.043342
1250.5218,0.043528
1251.4537,0.043729
1252.3855,0.043798
1253.3173,0.043948
1254.2492,0.044459
1255.1810,0.044914
1256.1129,0.044916
1257.0447,0.045132
1257.9765,0.045735
1258.9084,0.046089
1259.8402,0.046295
1260.7720,0.046711
1261.7039,0.047159
1262.6357,0.047608
1263.5675,0.048052
1264.4994,0.048792
1265.4312,0.049461
1266.3630,0.050089
1267.2949,0.050586
1268.2267,0.051042
1269.1585,0.051557
1270.0904,0.052248
1271.0222,0.052836
1271.9540,0.053131
1272.8859,0.053626
1273.8177,0.053815
1274.7495,0.053647
1275.6814,0.053631
1276.6132,0.053685
1277.5450,0.053485
1278.4769,0.052972
1279.4087,0.052560
1280.3405,0.052163
1281.2724,0.051665
1282.2042,0.051175
1283.1361,0.050759
1284.0679,0.050588
1284.9997,0.050304
1285.9316,0.050094
1286.8634,0.050113
1287.7952,0.050065
1288.7271,0.049841
1289.6589,0.049666
1290.5907,0.049625
1291.5226,0.049737
1292.4544,0.049953
1293.3862,0.049917
1294.3181,0.049881
1295.2499,0.050159
1296.1817,0.050695
1297.1136,0.050982
1298.0454,0.050892
1298.9772,0.050839
1299.9091,0.051132
1300.8409,0.051554
1301.7727,0.051671
1302.7046,0.051712
1303.6364,0.051966
1304.5682,0.052149
1305.5001,0.052554
1306.4319,0.053006
1307.3637,0.053245
1308.2956,0.053574
1309.2274,0.054149
1310.1592,0.054290
1311.0911,0.054291
1312.0229,0.054511
1312.9548,0.054926
1313.8866,0.055327
1314.8184,0.055406
1315.7503,0.055509
1316.6821,0.055535
1317.6139,0.055647
1318.5458,0.055989
1319.4776,0.056437
1320.4094,0.056763
1321.3413,0.056715
1322.2731,0.056893
1323.2049,0.057004
1324.1368,0.056893
1325.0686,0.056871
1326.0004,0.056808
1326.9323,0.056700
1327.8641,0.056885
1328.7959,0.056883
1329.7278,0.056801
1330.6596,0.056765
1331.5914,0.056582
1332.5233,0.056287
1333.4551,0.056159
1334.3869,0.055797
1335.3188,0.055186
1336.2506,0.054778
1337.1824,0.054819
1338.1143,0.054664
1339.0461,0.054704
1339.9780,0.054953
1340.9098,0.054898
1341.8416,0.054266
1342.7735,0.053278
1343.7053,0.052763
1344.6371,0.052470
1345.5690,0.052237
1346.5008,0.051714
1347.4326,0.051380
1348.3645,0.051137
1349.2963,0.050493
1350.2281,0.050300
1351.1600,0.050361
1352.0918,0.049982
1353.0236,0.049774
1353.9555,0.049844
1354.8873,0.049848
1355.8191,0.049886
1356.7510,0.049703
1357.6828,0.049557
1358.6146,0.049849
1359.5465,0.049939
1360.4783,0.049704
1361.4101,0.049895
1362.3420,0.050358
1363.2738,0.050554
1364.2056,0.051206
1365.1375,0.050929
1366.0693,0.050564
1367.0012,0.051049
1367.9330,0.051763
1368.8648,0.052402
1369.7967,0.053095
1370.7285,0.053574
1371.6603,0.054438
1372.5922,0.055608
1373.5240,0.056933
1374.4558,0.059006
1375.3877,0.061027
1376.3195,0.062035
1377.2513,0.062342
1378.1832,0.062915
1379.1150,0.063843
1380.0468,0.064298
1380.9787,0.064864
1381.9105,0.065307
1382.8423,0.065507
1383.7742,0.065726
1384.7060,0.065917
1385.6378,0.066037
1386.5697,0.065947
1387.5015,0.066032
1388.4333,0.066419
1389.3652,0.065425
1390.2970,0.063927
1391.2288,0.063061
1392.1607,0.062445
1393.0925,0.061827
1394.0244,0.061317
1394.9562,0.061950
1395.8880,0.063089
1396.8199,0.062644
1397.7517,0.061993
1398.6835,0.062203
1399.6154,0.063110
1400.5472,0.063493
1401.4790,0.062633
1402.4109,0.062209
1403.3427,0.062331
1404.2745,0.062643
1405.2064,0.063392
1406.1382,0.064136
1407.0700,0.063585
1408.0019,0.063099
1408.9337,0.063187
1409.8655,0.063708
1410.7974,0.064347
1411.7292,0.064534
1412.6610,0.064558
1413.5929,0.064434
1414.5247,0.064294
1415.4565,0.063953
1416.3884,0.063819
1417.3202,0.064073
1418.2520,0.064288
1419.1839,0.064506
1420.1157,0.066379
1421.0476,0.066457
1421.9794,0.064759
1422.9112,0.064009
1423.8431,0.063861
1424.7749,0.064419
1425.7067,0.063723
1426.6386,0.062478
1427.5704,0.061762
1428.5022,0.061434
1429.4341,0.061324
1430.3659,0.061379
1431.2977,0.061062
1432.2296,0.059974
1433.1614,0.058910
1434.0932,0.058195
1435.0251,0.057808
1435.9569,0.057493
1436.8887,0.058197
1437.8206,0.059862
1438.7524,0.058805
1439.6842,0.057378
1440.6161,0.056851
1441.5479,0.056899
1442.4797,0.057083
1443.4116,0.056967
1444.3434,0.056935
1445.2752,0.057511
1446.2071,0.058478
1447.1389,0.059418
1448.0707,0.060603
1449.0026,0.062168
1449.9344,0.062567
1450.8663,0.062335
1451.7981,0.062373
1452.7299,0.062990
1453.6618,0.063115
1454.5936,0.062296
1455.5254,0.062206
1456.4573,0.062569
1457.3891,0.063212
1458.3209,0.063037
1459.2528,0.061512
1460.1846,0.058790
1461.1164,0.055823
1462.0483,0.054133
1462.9801,0.053054
1463.9119,0.051962
1464.8438,0.051095
1465.7756,0.051199
1466.7074,0.050161
1467.6393,0.048789
1468.5711,0.047950
1469.5029,0.047159
1470.4348,0.046401
1471.3666,0.046066
1472.2984,0.046871
1473.2303,0.047853
1474.1621,0.048285
1475.0939,0.048007
1476.0258,0.047334
1476.9576,0.047742
1477.8895,0.047446
1478.8213,0.046934
1479.7531,0.047083
1480.6850,0.047327
1481.6168,0.047400
1482.5486,0.047712
1483.4805,0.047747
1484.4123,0.047448
1485.3441,0.046860
1486.2760,0.046368
1487.2078,0.046565
1488.1396,0.047398
1489.0715,0.047078
1490.0033,0.046883
1490.9351,0.047276
1491.8670,0.046513
1492.7988,0.044921
1493.7306,0.043994
1494.6625,0.043515
1495.5943,0.043228
1496.5261,0.043855
1497.4580,0.044697
1498.3898,0.043683
1499.3216,0.043405
1500.2535,0.043199
1501.1853,0.042509
1502.1171,0.041930
1503.0490,0.041421
1503.9808,0.041114
1504.9127,0.040882
1505.8445,0.041498
1506.7763,0.043580
1507.7082,0.045956
1508.6400,0.045918
1509.5718,0.044658
1510.5037,0.043687
1511.4355,0.042840
1512.3673,0.042507
1513.2992,0.042491
1514.2310,0.042433
1515.1628,0.042394
1516.0947,0.042467
1517.0265,0.042947
1517.9583,0.043832
1518.8902,0.043217
1519.8220,0.042045
1520.7538,0.042185
1521.6857,0.043923
1522.6175,0.045453
1523.5493,0.045078
1524.4812,0.043760
1525.4130,0.043400
1526.3448,0.043758
1527.2767,0.043718
1528.2085,0.043892
1529.1403,0.043476
1530.0722,0.042680
1531.0040,0.042229
1531.9359,0.043072
1532.8677,0.043841
1533.7995,0.044204
1534.7314,0.044621
1535.6632,0.043676
1536.5950,0.042861
1537.5269,0.042427
1538.4587,0.042723
1539.3905,0.043984
1540.3224,0.045608
1541.2542,0.045749
1542.1860,0.045799
1543.1179,0.046344
1544.0497,0.045969
1544.9815,0.045672
1545.9134,0.045750
1546.8452,0.045492
1547.7770,0.044775
1548.7089,0.044403
1549.6407,0.044851
1550.5725,0.046070
1551.5044,0.046420
1552.4362,0.045822
1553.3680,0.045300
1554.2999,0.045558
1555.2317,0.046359
1556.1635,0.045713
1557.0954,0.045115
1558.0272,0.045904
1558.9591,0.048633
1559.8909,0.051945
1560.8227,0.052397
1561.7546,0.050363
1562.6864,0.048802
1563.6182,0.048306
1564.5501,0.048148
1565.4819,0.048634
1566.4137,0.049145
1567.3456,0.048962
1568.2774,0.048973
1569.2092,0.049728
1570.1411,0.051871
1571.0729,0.053218
1572.0047,0.052200
1572.9366,0.051158
1573.8684,0.051113
1574.8002,0.051991
1575.7321,0.053179
1576.6639,0.055305
1577.5957,0.057114
1578.5276,0.056540
1579.4594,0.055563
1580.3912,0.055408
1581.3231,0.055908
1582.2549,0.056637
1583.1867,0.057102
1584.1186,0.057627
1585.0504,0.058386
1585.9822,0.059091
1586.9141,0.060011
1587.8459,0.060884
1588.7778,0.061651
1589.7096,0.062238
1590.6414,0.062771
1591.5733,0.063681
1592.5051,0.064902
1593.4369,0.065731
1594.3688,0.066240
1595.3006,0.067423
1596.2324,0.068997
1597.1643,0.070190
1598.0961,0.071357
1599.0279,0.072466
1599.9598,0.073371
1600.8916,0.074491
1601.8234,0.076081
1602.7553,0.077728
1603.6871,0.079146
1604.6189,0.079968
1605.5508,0.081049
1606.4826,0.082528
1607.4144,0.084402
1608.3463,0.086722
1609.2781,0.088970
1610.2099,0.090627
1611.1418,0.091691
1612.0736,0.093048
1613.0054,0.094171
1613.9373,0.095130
1614.8691,0.096757
1615.8010,0.099033
1616.7328,0.102675
1617.6646,0.108218
1618.5965,0.111073
1619.5283,0.110228
1620.4601,0.109933
1621.3920,0.111483
1622.3238,0.113715
1623.2556,0.116366
1624.1875,0.120000
1625.1193,0.123421
1626.0511,0.124075
1626.9830,0.124083
1627.9148,0.125944
1628.8466,0.128149
1629.7785,0.129769
1630.7103,0.130090
1631.6421,0.129834
1632.5740,0.130459
1633.5058,0.131212
1634.4376,0.131948
1635.3695,0.134381
1636.3013,0.141292
1637.2331,0.146354
1638.1650,0.144126
1639.0968,0.141592
1640.0286,0.140224
1640.9605,0.139177
1641.8923,0.138733
1642.8242,0.137972
1643.7560,0.137097
1644.6878,0.136359
1645.6197,0.136390
1646.5515,0.138632
1647.4833,0.141037
1648.4152,0.140340
1649.3470,0.137375
1650.2788,0.133716
1651.2107,0.131402
1652.1425,0.130385
1653.0743,0.132522
1654.0062,0.140124
1654.9380,0.141957
1655.8698,0.135407
1656.8017,0.130329
1657.7335,0.127118
1658.6653,0.125353
1659.5972,0.123741
1660.5290,0.122171
1661.4608,0.120802
1662.3927,0.119925
1663.3245,0.119461
1664.2563,0.118283
1665.1882,0.115745
1666.1200,0.112931
1667.0518,0.111280
1667.9837,0.109489
1668.9155,0.108126
1669.8474,0.107946
1670.7792,0.106854
1671.7110,0.104884
1672.6429,0.103163
1673.5747,0.101477
1674.5065,0.098878
1675.4384,0.097470
1676.3702,0.097133
1677.3020,0.095111
1678.2339,0.092325
1679.1657,0.090070
1680.0975,0.088134
1681.0294,0.086508
1681.9612,0.085012
1682.8930,0.083340
1683.8249,0.082236
1684.7567,0.083030
1685.6885,0.083190
1686.6204,0.079610
1687.5522,0.076583
1688.4840,0.074965
1689.4159,0.073436
1690.3477,0.071575
1691.2795,0.069656
1692.2114,0.068054
1693.1432,0.066681
1694.0750,0.064981
1695.0069,0.063542
1695.9387,0.062826
1696.8706,0.062407
1697.8024,0.060851
1698.7342,0.058935
1699.6661,0.057659
1700.5979,0.057704
1701.5297,0.057490
1702.4616,0.055430
1703.3934,0.052673
1704.3252,0.050959
1705.2571,0.049960
1706.1889,0.049410
1707.1207,0.048963
1708.0526,0.047557
1708.9844,0.045883
1709.9162,0.044721
1710.8481,0.044072
1711.7799,0.043447
1712.7117,0.042097
1713.6436,0.041068
1714.5754,0.040602
1715.5072,0.040321
1716.4391,0.039825
1717.3709,0.038503
1718.3027,0.038351
1719.2346,0.038413
1720.1664,0.036486
1721.0982,0.035073
1722.0301,0.034602
1722.9619,0.033936
1723.8937,0.032996
1724.8256,0.032171
1725.7574,0.031496
1726.6893,0.031029
1727.6211,0.030425
1728.5529,0.029753
1729.4848,0.029451
1730.4166,0.029318
1731.3484,0.028751
1732.2803,0.028066
1733.2121,0.027492
1734.1439,0.027347
1735.0758,0.027159
1736.0076,0.026266
1736.9394,0.025252
1737.8713,0.025015
1738.8031,0.024400
1739.7349,0.023882
1740.6668,0.024217
1741.5986,0.023782
1742.5304,0.022776
1743.4623,0.022507
1744.3941,0.022599
1745.3259,0.022772
1746.2578,0.022339
1747.1896,0.022384
1748.1214,0.022468
1749.0533,0.022559
1749.9851,0.022246
1750.9169,0.021942
1751.8488,0.021193
1752.7806,0.020445
1753.7125,0.020642
1754.6443,0.020380
1755.5761,0.020193
1756.5080,0.020063
1757.4398,0.019861
1758.3716,0.019761
1759.3035,0.019344
1760.2353,0.018841
1761.1671,0.018914
1762.0990,0.019155
1763.0308,0.019059
1763.9626,0.018560
1764.8945,0.017874
1765.8263,0.017663
1766.7581,0.017528
1767.6900,0.017405
1768.6218,0.017674
1769.5536,0.017893
1770.4855,0.017448
1771.4173,0.016739
1772.3491,0.017124
1773.2810,0.016889
1774.2128,0.016174
1775.1446,0.016362
1776.0765,0.016011
1777.0083,0.016086
1777.9401,0.015790
1778.8720,0.015298
1779.8038,0.015405
1780.7357,0.015621
1781.6675,0.015641
1782.5993,0.015277
1783.5312,0.014802
1784.4630,0.015278
1785.3948,0.015265
1786.3267,0.014348
1787.2585,0.014192
1788.1903,0.014493
1789.1222,0.014325
1790.0540,0.014328
1790.9858,0.014403
1791.9177,0.014595
1792.8495,0.014437
1793.7813,0.013775
1794.7132,0.013839
1795.6450,0.013362
1796.5768,0.013310
1797.5087,0.013875
1798.4405,0.014020
1799.3723,0.013789
1800.3042,0.013549
1801.2360,0.013446
1802.1678,0.013485
1803.0997,0.013456
1804.0315,0.013138
1804.9633,0.012647
1805.8952,0.012790
1806.8270,0.012709
1807.7589,0.012468
1808.6907,0.012038
1809.6225,0.012384
1810.5544,0.012870
1811.4862,0.012882
1812.4180,0.013200
1813.3499,0.012868
1814.2817,0.012152
1815.2135,0.011716
1816.1454,0.011462
1817.0772,0.011805
1818.0090,0.012090
1818.9409,0.012197
1819.8727,0.012095
1820.8045,0.011672
1821.7364,0.011550
1822.6682,0.011783
1823.6000,0.011409
1824.5319,0.011397
1825.4637,0.011715
1826.3955,0.011892
1827.3274,0.011737
1828.2592,0.011146
1829.1910,0.010983
1830.1229,0.010988
1831.0547,0.010715
1831.9865,0.009987
1832.9184,0.010276
1833.8502,0.011238
1834.7821,0.011059
1835.7139,0.010886
1836.6457,0.010870
1837.5776,0.010668
1838.5094,0.010385
1839.4412,0.010471
1840.3731,0.010603
1841.3049,0.010626
1842.2367,0.010966
1843.1686,0.011200
1844.1004,0.011446
1845.0322,0.011015
1845.9641,0.010957
1846.8959,0.010208
1847.8277,0.010459
1848.7596,0.010763
1849.6914,0.010505
1850.6232,0.010441
1851.5551,0.010280
1852.4869,0.010002
1853.4187,0.009618
1854.3506,0.009369
1855.2824,0.009461
1856.2142,0.009496
1857.1461,0.010156
1858.0779,0.009660
1859.0097,0.008980
1859.9416,0.009728
1860.8734,0.010021
1861.8052,0.009465
1862.7371,0.009445
1863.6689,0.010252
1864.6008,0.009958
1865.5326,0.009316
1866.4644,0.009870
1867.3963,0.009818
1868.3281,0.010153
1869.2599,0.010896
1870.1918,0.011538
1871.1236,0.010588
1872.0554,0.009415
1872.9873,0.008983
1873.9191,0.008494
1874.8509,0.008810
1875.7828,0.008292
1876.7146,0.008301
1877.6464,0.009572
1878.5783,0.009941
1879.5101,0.009727
1880.4419,0.009302
1881.3738,0.009031
1882.3056,0.009701
1883.2374,0.010315
1884.1693,0.008800
1885.1011,0.008042
1886.0329,0.009225
1886.9648,0.009895
1887.8966,0.009900
1888.8284,0.009613
1889.7603,0.009320
1890.6921,0.009123
1891.6240,0.008407
1892.5558,0.009304
1893.4876,0.009854
1894.4195,0.008751
1895.3513,0.009046
1896.2831,0.009857
1897.2150,0.009910
1898.1468,0.009785
1899.0786,0.008761
1900.0105,0.008424
1900.9423,0.009060
1901.8741,0.009555
1902.8060,0.009965
1903.7378,0.009662
1904.6696,0.009549
1905.6015,0.009572
1906.5333,0.009943
1907.4651,0.010789
1908.3970,0.011689
1909.3288,0.011722
1910.2606,0.011514
1911.1925,0.011506
1912.1243,0.011258
1913.0561,0.010620
1913.9880,0.010651
1914.9198,0.009728
1915.8516,0.009754
1916.7835,0.011030
1917.7153,0.011280
1918.6472,0.010740
1919.5790,0.009915
1920.5108,0.008610
1921.4427,0.008635
1922.3745,0.009549
1923.3063,0.009484
1924.2382,0.008703
1925.1700,0.007860
1926.1018,0.007289
1927.0337,0.007952
1927.9655,0.009269
1928.8973,0.010176
1929.8292,0.009252
1930.7610,0.008610
1931.6928,0.009344
1932.6247,0.009683
1933.5565,0.008687
1934.4883,0.008630
1935.4202,0.010013
1936.3520,0.010646
1937.2838,0.008452
1938.2157,0.007137
1939.1475,0.008056
1940.0793,0.008363
1941.0112,0.008030
1941.9430,0.008354
1942.8748,0.008257
1943.8067,0.008617
1944.7385,0.007985
1945.6704,0.006935
1946.6022,0.007116
1947.5340,0.008916
1948.4659,0.010203
1949.3977,0.009462
1950.3295,0.008748
1951.2614,0.008408
1952.1932,0.007599
1953.1250,0.006955
1954.0569,0.006642
1954.9887,0.006751
1955.9205,0.007079
1956.8524,0.007349
1957.7842,0.008611
1958.7160,0.007485
1959.6479,0.004075
1960.5797,0.003072
1961.5115,0.003662
1962.4434,0.004159
1963.3752,0.006526
1964.3070,0.006948
1965.2389,0.005535
1966.1707,0.005870
1967.1025,0.006247
1968.0344,0.007497
1968.9662,0.007773
1969.8980,0.005882
1970.8299,0.005955
1971.7617,0.007146
1972.6936,0.005144
1973.6254,0.003704
1974.5572,0.007263
1975.4891,0.009435
1976.4209,0.004944
1977.3527,0.001259
1978.2846,0.002890
1979.2164,0.005768
1980.1482,0.006003
1981.0801,0.006531
1982.0119,0.005139
1982.9437,0.003294
1983.8756,0.004163
1984.8074,0.006508
1985.7392,0.007794
1986.6711,0.009167
1987.6029,0.008449
1988.5347,0.006653
1989.4666,0.004959
1990.3984,0.005086
1991.3302,0.006872
1992.2621,0.008400
1993.1939,0.007381
1994.1257,0.005997
1995.0576,0.006350
1995.9894,0.006424
1996.9212,0.006304
1997.8531,0.005662
1998.7849,0.005422
1999.7167,0.007164
2000.6486,0.007990
2001.5804,0.006328
2002.5123,0.006170
2003.4441,0.005750
2004.3759,0.003306
2005.3078,0.003688
2006.2396,0.005140
2007.1714,0.006273
2008.1033,0.008367
2009.0351,0.009620
2009.9669,0.008451
2010.8988,0.007271
2011.8306,0.006126
2012.7624,0.006063
2013.6943,0.007494
2014.6261,0.008041
2015.5579,0.007882
2016.4898,0.008784
2017.4216,0.007908
2018.3534,0.006711
2019.2853,0.006619
2020.2171,0.006503
2021.1489,0.004235
2022.0808,0.004634
2023.0126,0.007068
2023.9444,0.006574
2024.8763,0.004872
2025.8081,0.004831
2026.7399,0.006371
2027.6718,0.008334
2028.6036,0.010279
2029.5355,0.008762
2030.4673,0.005161
2031.3991,0.004208
2032.3310,0.003462
2033.2628,0.005536
2034.1946,0.008789
2035.1265,0.008134
2036.0583,0.006427
2036.9901,0.006854
2037.9220,0.008272
2038.8538,0.009858
2039.7856,0.009339
2040.7175,0.005565
2041.6493,0.004904
2042.5811,0.008871
2043.5130,0.009072
2044.4448,0.007203
2045.3766,0.007098
2046.3085,0.008655
2047.2403,0.009573
2048.1721,0.010402
2049.1040,0.010704
2050.0358,0.010210
2050.9676,0.009496
2051.8995,0.009493
2052.8313,0.010817
2053.7631,0.011566
2054.6950,0.009871
2055.6268,0.007344
2056.5587,0.008548
2057.4905,0.011287
2058.4223,0.011727
2059.3542,0.011154
2060.2860,0.010494
2061.2178,0.010716
2062.1497,0.010870
2063.0815,0.011213
2064.0133,0.012227
2064.9452,0.013018
2065.8770,0.012591
2066.8088,0.011861
2067.7407,0.012063
2068.6725,0.013380
2069.6043,0.013623
2070.5362,0.013934
2071.4680,0.012970
2072.3998,0.011966
2073.3317,0.012450
2074.2635,0.012079
2075.1953,0.011145
2076.1272,0.011471
2077.0590,0.012475
2077.9908,0.013862
2078.9227,0.014277
2079.8545,0.013852
2080.7863,0.013768
2081.7182,0.013163
2082.6500,0.013159
2083.5819,0.013574
2084.5137,0.012627
2085.4455,0.013501
2086.3774,0.014985
2087.3092,0.014092
2088.2410,0.013125
2089.1729,0.013677
2090.1047,0.014481
2091.0365,0.014478
2091.9684,0.013973
2092.9002,0.014012
2093.8320,0.014065
2094.7639,0.013934
2095.6957,0.013284
2096.6275,0.013162
2097.5594,0.013869
2098.4912,0.014376
2099.4230,0.014369
2100.3549,0.014239
2101.2867,0.013338
2102.2185,0.013509
2103.1504,0.014294
2104.0822,0.014527
2105.0140,0.014596
2105.9459,0.014211
2106.8777,0.014464
2107.8095,0.015602
2108.7414,0.015144
2109.6732,0.014075
2110.6051,0.014175
2111.5369,0.014850
2112.4687,0.014848
2113.4006,0.015292
2114.3324,0.016095
2115.2642,0.015804
2116.1961,0.014368
2117.1279,0.014120
2118.0597,0.015429
2118.9916,0.015033
2119.9234,0.014113
2120.8552,0.014628
2121.7871,0.015401
2122.7189,0.015297
2123.6507,0.015158
2124.5826,0.015697
2125.5144,0.016001
2126.4462,0.015865
2127.3781,0.014451
2128.3099,0.013789
2129.2417,0.014675
2130.1736,0.014762
2131.1054,0.013705
2132.0372,0.013950
2132.9691,0.015148
2133.9009,0.016044
2134.8327,0.014876
2135.7646,0.012460
2136.6964,0.011851
2137.6282,0.011711
2138.5601,0.012383
2139.4919,0.014583
2140.4238,0.013677
2141.3556,0.012479
2142.2874,0.012865
2143.2193,0.011872
2144.1511,0.012136
2145.0829,0.014700
2146.0148,0.016724
2146.9466,0.014322
2147.8784,0.011023
2148.8103,0.011260
2149.7421,0.011564
2150.6739,0.013223
2151.6058,0.014280
2152.5376,0.011587
2153.4694,0.009766
2154.4013,0.009324
2155.3331,0.006175
2156.2649,0.006462
2157.1968,0.010788
2158.1286,0.010096
2159.0604,0.004796
2159.9923,0.003444
2160.9241,0.004808
2161.8559,0.007109
2162.7878,0.009205
2163.7196,0.007730
2164.6514,0.005351
2165.5833,0.006408
2166.5151,0.004628
2167.4470,0.006031
2168.3788,0.008308
2169.3106,0.006516
2170.2425,0.006213
2171.1743,0.007946
2172.1061,0.007665
2173.0380,0.006644
2173.9698,0.007624
2174.9016,0.009467
2175.8335,0.009322
2176.7653,0.007825
2177.6971,0.009496
2178.6290,0.009941
2179.5608,0.008557
2180.4926,0.009157
2181.4245,0.008211
2182.3563,0.007463
2183.2881,0.007866
2184.2200,0.007920
2185.1518,0.008093
2186.0836,0.008515
2187.0155,0.009730
2187.9473,0.010996
2188.8791,0.009862
2189.8110,0.009164
2190.7428,0.007378
2191.6746,0.006933
2192.6065,0.009599
2193.5383,0.011507
2194.4702,0.010891
2195.4020,0.010894
2196.3338,0.010535
2197.2657,0.009258
2198.1975,0.009804
2199.1293,0.010490
2200.0612,0.010405
2200.9930,0.011867
2201.9248,0.010866
2202.8567,0.009755
2203.7885,0.010864
2204.7203,0.011774
2205.6522,0.009436
2206.5840,0.010192
2207.5158,0.011036
2208.4477,0.009102
2209.3795,0.009480
2210.3113,0.010200
2211.2432,0.009433
2212.1750,0.010369
2213.1068,0.010715
2214.0387,0.011031
2214.9705,0.011708
2215.9023,0.011435
2216.8342,0.010079
2217.7660,0.009598
2218.6978,0.011341
2219.6297,0.011823
2220.5615,0.010475
2221.4934,0.010656
2222.4252,0.011459
2223.3570,0.011065
2224.2889,0.009941
2225.2207,0.011152
2226.1525,0.010717
2227.0844,0.009079
2228.0162,0.008308
2228.9480,0.007512
2229.8799,0.008554
2230.8117,0.009770
2231.7435,0.009665
2232.6754,0.010186
2233.6072,0.011724
2234.5390,0.011725
2235.4709,0.011595
2236.4027,0.013226
2237.3345,0.013189
2238.2664,0.010952
2239.1982,0.009600
2240.1300,0.010601
2241.0619,0.010288
2241.9937,0.010056
2242.9255,0.010458
2243.8574,0.011362
2244.7892,0.011075
2245.7210,0.010461
2246.6529,0.010534
2247.5847,0.010383
2248.5166,0.011047
2249.4484,0.011754
2250.3802,0.010237
2251.3121,0.010244
2252.2439,0.011366
2253.1757,0.011743
2254.1076,0.010461
2255.0394,0.010267
2255.9712,0.010952
2256.9031,0.010225
2257.8349,0.010342
2258.7667,0.010554
2259.6986,0.009673
2260.6304,0.009820
2261.5622,0.009296
2262.4941,0.008752
2263.4259,0.010873
2264.3577,0.011143
2265.2896,0.010812
2266.2214,0.011067
2267.1532,0.010699
2268.0851,0.010247
2269.0169,0.009257
2269.9487,0.009871
2270.8806,0.011071
2271.8124,0.011210
2272.7442,0.011659
2273.6761,0.012093
2274.6079,0.011058
2275.5397,0.010096
2276.4716,0.009561
2277.4034,0.010016
2278.3353,0.011055
2279.2671,0.011048
2280.1989,0.009831
2281.1308,0.009025
2282.0626,0.009218
2282.9944,0.009765
2283.9263,0.010407
2284.8581,0.010989
2285.7899,0.010844
2286.7218,0.010879
2287.6536,0.011045
2288.5854,0.009963
2289.5173,0.009812
2290.4491,0.010966
2291.3809,0.010819
2292.3128,0.010748
2293.2446,0.011037
2294.1764,0.010560
2295.1083,0.010830
2296.0401,0.010792
2296.9719,0.010386
2297.9038,0.010620
2298.8356,0.010426
2299.7674,0.010571
2300.6993,0.010268
2301.6311,0.009710
2302.5629,0.010150
2303.4948,0.010180
2304.4266,0.010272
2305.3585,0.010714
2306.2903,0.010630
2307.2221,0.009666
2308.1540,0.009241
2309.0858,0.009625
2310.0176,0.009855
2310.9495,0.010579
2311.8813,0.010659
2312.8131,0.010304
2313.7450,0.010627
2314.6768,0.010227
2315.6086,0.009542
2316.5405,0.009955
2317.4723,0.010207
2318.4041,0.009570
2319.3360,0.009906
2320.2678,0.010585
2321.1996,0.009935
2322.1315,0.009482
2323.0633,0.009796
2323.9951,0.009880
2324.9270,0.009263
2325.8588,0.008888
2326.7906,0.009602
2327.7225,0.010586
2328.6543,0.010289
2329.5861,0.009944
2330.5180,0.010310
2331.4498,0.010534
2332.3817,0.010523
2333.3135,0.010502
2334.2453,0.009347
2335.1772,0.008949
2336.1090,0.009379
2337.0408,0.009489
2337.9727,0.009278
2338.9045,0.009166
2339.8363,0.009054
2340.7682,0.009386
2341.7000,0.009141
2342.6318,0.009085
2343.5637,0.009090
2344.4955,0.009163
2345.4273,0.009509
2346.3592,0.010069
2347.2910,0.010492
2348.2228,0.010571
2349.1547,0.009308
2350.0865,0.008513
2351.0183,0.009189
2351.9502,0.009828
2352.8820,0.009353
2353.8138,0.009272
2354.7457,0.009620
2355.6775,0.009273
2356.6093,0.008829
2357.5412,0.009315
2358.4730,0.008493
2359.4049,0.008078
2360.3367,0.008782
2361.2685,0.009426
2362.2004,0.008962
2363.1322,0.008872
2364.0640,0.008879
2364.9959,0.008238
2365.9277,0.007542
2366.8595,0.008280
2367.7914,0.009685
2368.7232,0.009877
2369.6550,0.008338
2370.5869,0.007511
2371.5187,0.008711
2372.4505,0.009195
2373.3824,0.008465
2374.3142,0.008177
2375.2460,0.008898
2376.1779,0.009488
2377.1097,0.008753
2378.0415,0.007743
2378.9734,0.007369
2379.9052,0.007631
2380.8370,0.007856
2381.7689,0.008281
2382.7007,0.008320
2383.6325,0.008262
2384.5644,0.008219
2385.4962,0.008002
2386.4281,0.008074
2387.3599,0.008196
2388.2917,0.008926
2389.2236,0.008996
2390.1554,0.008305
2391.0872,0.008046
2392.0191,0.007732
2392.9509,0.007310
2393.8827,0.007663
2394.8146,0.007982
2395.7464,0.008469
2396.6782,0.008812
2397.6101,0.008328
2398.5419,0.007976
2399.4737,0.008215
2400.4056,0.008099
2401.3374,0.007884
2402.2692,0.007845
2403.2011,0.007506
2404.1329,0.007409
2405.0647,0.007080
2405.9966,0.006869
2406.9284,0.007152
2407.8602,0.007653
2408.7921,0.008010
2409.7239,0.007809
2410.6557,0.007314
2411.5876,0.007118
2412.5194,0.007349
2413.4512,0.007716
2414.3831,0.007853
2415.3149,0.007507
2416.2468,0.007588
2417.1786,0.007614
2418.1104,0.006801
2419.0423,0.006723
2419.9741,0.007136
2420.9059,0.007590
2421.8378,0.007981
2422.7696,0.007632
2423.7014,0.006420
2424.6333,0.006023
2425.5651,0.006695
2426.4969,0.007129
2427.4288,0.007108
2428.3606,0.007021
2429.2924,0.007324
2430.2243,0.007128
2431.1561,0.006164
2432.0879,0.005994
2433.0198,0.005992
2433.9516,0.006092
2434.8834,0.007170
2435.8153,0.007180
2436.7471,0.006276
2437.6789,0.006647
2438.6108,0.007212
2439.5426,0.007447
2440.4744,0.007387
2441.4063,0.006447
2442.3381,0.005925
2443.2700,0.005848
2444.2018,0.006289
2445.1336,0.006589
2446.0655,0.006651
2446.9973,0.006679
2447.9291,0.006466
2448.8610,0.006327
2449.7928,0.005927
2450.7246,0.006309
2451.6565,0.006444
2452.5883,0.005670
2453.5201,0.005777
2454.4520,0.006632
2455.3838,0.006798
2456.3156,0.006935
2457.2475,0.006896
2458.1793,0.005999
2459.1111,0.005611
2460.0430,0.005453
2460.9748,0.005315
2461.9066,0.005655
2462.8385,0.006067
2463.7703,0.006857
2464.7021,0.006913
2465.6340,0.006621
2466.5658,0.006628
2467.4976,0.006151
2468.4295,0.005974
2469.3613,0.007017
2470.2932,0.006244
2471.2250,0.004886
2472.1568,0.005234
2473.0887,0.005894
2474.0205,0.005740
2474.9523,0.005774
2475.8842,0.005529
2476.8160,0.005399
2477.7478,0.005851
2478.6797,0.006771
2479.6115,0.007256
2480.5433,0.006932
2481.4752,0.006763
2482.4070,0.006500
2483.3388,0.006134
2484.2707,0.006639
2485.2025,0.006583
2486.1343,0.006177
2487.0662,0.006116
2487.9980,0.005764
2488.9298,0.006185
2489.8617,0.005806
2490.7935,0.005797
2491.7253,0.006534
2492.6572,0.006343
2493.5890,0.006502
2494.5208,0.006695
2495.4527,0.006707
2496.3845,0.007151
2497.3164,0.006932
2498.2482,0.005643
2499.1800,0.004914
2500.1119,0.005262
2501.0437,0.005578
2501.9755,0.006580
2502.9074,0.007379
2503.8392,0.006959
2504.7710,0.005923
2505.7029,0.006049
2506.6347,0.006779
2507.5665,0.006723
2508.4984,0.006579
2509.4302,0.006705
2510.3620,0.005920
2511.2939,0.005070
2512.2257,0.005124
2513.1575,0.005547
2514.0894,0.005564
2515.0212,0.005894
2515.9530,0.006327
2516.8849,0.006370
2517.8167,0.005717
2518.7485,0.005230
2519.6804,0.005279
2520.6122,0.006698
2521.5440,0.007722
2522.4759,0.006893
2523.4077,0.005939
2524.3396,0.005603
2525.2714,0.005725
2526.2032,0.006131
2527.1351,0.005844
2528.0669,0.005557
2528.9987,0.005245
2529.9306,0.005832
2530.8624,0.006040
2531.7942,0.005296
2532.7261,0.005073
2533.6579,0.005641
2534.5897,0.005851
2535.5216,0.006002
2536.4534,0.006110
2537.3852,0.006117
2538.3171,0.005458
2539.2489,0.004995
2540.1807,0.005269
2541.1126,0.006468
2542.0444,0.006705
2542.9762,0.006730
2543.9081,0.007071
2544.8399,0.005970
2545.7717,0.004806
2546.7036,0.004736
2547.6354,0.004578
2548.5672,0.005224
2549.4991,0.005842
2550.4309,0.006313
2551.3627,0.006383
2552.2946,0.005737
2553.2264,0.005094
2554.1583,0.005000
2555.0901,0.005316
2556.0219,0.005180
2556.9538,0.005579
2557.8856,0.005694
2558.8174,0.004931
2559.7493,0.004485
2560.6811,0.004762
2561.6129,0.005507
2562.5448,0.005961
2563.4766,0.005990
2564.4084,0.005405
2565.3403,0.004907
2566.2721,0.005039
2567.2039,0.005437
2568.1358,0.005522
2569.0676,0.005419
2569.9994,0.005479
2570.9313,0.005795
2571.8631,0.005625
2572.7949,0.005254
2573.7268,0.004982
2574.6586,0.004806
2575.5904,0.005331
2576.5223,0.005828
2577.4541,0.005384
2578.3859,0.005438
2579.3178,0.004890
2580.2496,0.004188
2581.1815,0.004645
2582.1133,0.005279
2583.0451,0.004756
2583.9770,0.004697
2584.9088,0.005465
2585.8406,0.005949
2586.7725,0.005109
2587.7043,0.004214
2588.6361,0.004438
2589.5680,0.005079
2590.4998,0.005321
2591.4316,0.005816
2592.3635,0.005295
2593.2953,0.004066
2594.2271,0.004393
2595.1590,0.005607
2596.0908,0.006282
2597.0226,0.006394
2597.9545,0.005970
2598.8863,0.005650
2599.8181,0.005591
2600.7500,0.005488
2601.6818,0.005512
2602.6136,0.005834
2603.5455,0.005506
2604.4773,0.004711
2605.4091,0.004717
2606.3410,0.005662
2607.2728,0.006029
2608.2047,0.005907
2609.1365,0.006163
2610.0683,0.006222
2611.0002,0.005623
2611.9320,0.005616
2612.8638,0.006254
2613.7957,0.006232
2614.7275,0.005611
2615.6593,0.005550
2616.5912,0.005367
2617.5230,0.005312
2618.4548,0.005469
2619.3867,0.005442
2620.3185,0.005772
2621.2503,0.006431
2622.1822,0.006625
2623.1140,0.006138
2624.0458,0.005749
2624.9777,0.005756
2625.9095,0.005781
2626.8413,0.006165
2627.7732,0.006129
2628.7050,0.005919
2629.6368,0.006369
2630.5687,0.006489
2631.5005,0.006181
2632.4323,0.006268
2633.3642,0.006182
2634.2960,0.006296
2635.2279,0.006494
2636.1597,0.006263
2637.0915,0.006156
2638.0234,0.006328
2638.9552,0.006606
2639.8870,0.006597
2640.8189,0.006551
2641.7507,0.006906
2642.6825,0.006656
2643.6144,0.006297
2644.5462,0.006464
2645.4780,0.006810
2646.4099,0.007082
2647.3417,0.007345
2648.2735,0.007453
2649.2054,0.007493
2650.1372,0.007218
2651.0690,0.006864
2652.0009,0.006894
2652.9327,0.007226
2653.8645,0.007082
2654.7964,0.006697
2655.7282,0.006724
2656.6600,0.006787
2657.5919,0.006703
2658.5237,0.006814
2659.4555,0.006932
2660.3874,0.007246
2661.3192,0.007502
2662.2511,0.007437
2663.1829,0.007486
2664.1147,0.007435
2665.0466,0.006970
2665.9784,0.006845
2666.9102,0.007030
2667.8421,0.007274
2668.7739,0.007411
2669.7057,0.007593
2670.6376,0.007627
2671.5694,0.007525
2672.5012,0.007686
2673.4331,0.007680
2674.3649,0.007623
2675.2967,0.008130
2676.2286,0.008229
2677.1604,0.008092
2678.0922,0.008259
2679.0241,0.008333
2679.9559,0.008159
2680.8877,0.008290
2681.8196,0.008518
2682.7514,0.008461
2683.6832,0.008424
2684.6151,0.008290
2685.5469,0.008059
2686.4787,0.008263
2687.4106,0.008352
2688.3424,0.008561
2689.2742,0.008558
2690.2061,0.008343
2691.1379,0.008295
2692.0698,0.008548
2693.0016,0.008770
2693.9334,0.008737
2694.8653,0.008696
2695.7971,0.008677
2696.7289,0.008919
2697.6608,0.009061
2698.5926,0.009011
2699.5244,0.009134
2700.4563,0.009312
2701.3881,0.009815
2702.3199,0.010055
2703.2518,0.009983
2704.1836,0.009880
2705.1154,0.009825
2706.0473,0.009597
2706.9791,0.009449
2707.9109,0.009490
2708.8428,0.009649
2709.7746,0.009721
2710.7064,0.009634
2711.6383,0.009599
2712.5701,0.009650
2713.5019,0.009708
2714.4338,0.009860
2715.3656,0.009787
2716.2974,0.010036
2717.2293,0.010591
2718.1611,0.010773
2719.0930,0.010544
2720.0248,0.010060
2720.9566,0.010051
2721.8885,0.010519
2722.8203,0.010484
2723.7521,0.010457
2724.6840,0.010696
2725.6158,0.011099
2726.5476,0.011702
2727.4795,0.011965
2728.4113,0.011150
2729.3431,0.010678
2730.2750,0.010891
2731.2068,0.011039
2732.1386,0.011272
2733.0705,0.011471
2734.0023,0.011298
2734.9341,0.010988
2735.8660,0.010999
2736.7978,0.011407
2737.7296,0.011507
2738.6615,0.011568
2739.5933,0.011915
2740.5251,0.012019
2741.4570,0.011804
2742.3888,0.011836
2743.3206,0.011959
2744.2525,0.012010
2745.1843,0.011748
2746.1162,0.011516
2747.0480,0.011781
2747.9798,0.011926
2748.9117,0.011842
2749.8435,0.012424
2750.7753,0.012805
2751.7072,0.012334
2752.6390,0.011970
2753.5708,0.012245
2754.5027,0.012432
2755.4345,0.012190
2756.3663,0.012042
2757.2982,0.012176
2758.2300,0.012600
2759.1618,0.012957
2760.0937,0.012731
2761.0255,0.012663
2761.9573,0.012893
2762.8892,0.013210
2763.8210,0.013041
2764.7528,0.012648
2765.6847,0.012739
2766.6165,0.012857
2767.5483,0.012862
2768.4802,0.013046
2769.4120,0.013157
2770.3438,0.013134
2771.2757,0.013256
2772.2075,0.013314
2773.1394,0.012870
2774.0712,0.012784
2775.0030,0.013356
2775.9349,0.013966
2776.8667,0.014030
2777.7985,0.013873
2778.7304,0.013872
2779.6622,0.013863
2780.5940,0.013791
2781.5259,0.014063
2782.4577,0.014324
2783.3895,0.014144
2784.3214,0.013835
2785.2532,0.014000
2786.1850,0.014317
2787.1169,0.014503
2788.0487,0.014847
2788.9805,0.014713
2789.9124,0.014446
2790.8442,0.014694
2791.7760,0.014688
2792.7079,0.015018
2793.6397,0.016033
2794.5715,0.016207
2795.5034,0.015804
2796.4352,0.015593
2797.3670,0.015642
2798.2989,0.015511
2799.2307,0.015106
2800.1626,0.015737
2801.0944,0.016904
2802.0262,0.017374
2802.9581,0.017509
2803.8899,0.017554
2804.8217,0.017349
2805.7536,0.016998
2806.6854,0.017254
2807.6172,0.017831
2808.5491,0.017993
2809.4809,0.018091
2810.4127,0.018368
2811.3446,0.018655
2812.2764,0.018387
2813.2082,0.017932
2814.1401,0.018145
2815.0719,0.018728
2816.0037,0.019166
2816.9356,0.019716
2817.8674,0.019833
2818.7992,0.019630
2819.7311,0.019569
2820.6629,0.019884
2821.5947,0.019711
2822.5266,0.019791
2823.4584,0.020460
2824.3902,0.020560
2825.3221,0.020681
2826.2539,0.021054
2827.1857,0.020916
2828.1176,0.020813
2829.0494,0.021521
2829.9813,0.022018
2830.9131,0.022312
2831.8449,0.022598
2832.7768,0.022456
2833.7086,0.022534
2834.6404,0.022875
2835.5723,0.022932
2836.5041,0.022867
2837.4359,0.023393
2838.3678,0.023710
2839.2996,0.023458
2840.2314,0.023456
2841.1633,0.023772
2842.0951,0.024390
2843.0269,0.025178
2843.9588,0.024998
2844.8906,0.024188
2845.8224,0.024577
2846.7543,0.025643
2847.6861,0.026037
2848.6179,0.025915
2849.5498,0.025741
2850.4816,0.026028
2851.4134,0.026392
2852.3453,0.026692
2853.2771,0.026572
2854.2089,0.026867
2855.1408,0.027343
2856.0726,0.027698
2857.0045,0.027858
2857.9363,0.028186
2858.8681,0.028665
2859.8000,0.029255
2860.7318,0.029663
2861.6636,0.029899
2862.5955,0.029938
2863.5273,0.029986
2864.4591,0.030666
2865.3910,0.031126
2866.3228,0.031626
2867.2546,0.032592
2868.1865,0.033337
2869.1183,0.033945
2870.0501,0.034416
2870.9820,0.034968
2871.9138,0.035383
2872.8456,0.035852
2873.7775,0.036405
2874.7093,0.037300
2875.6411,0.037804
2876.5730,0.038456
2877.5048,0.039211
2878.4366,0.039583
2879.3685,0.039871
2880.3003,0.040280
2881.2321,0.041150
2882.1640,0.041711
2883.0958,0.041877
2884.0277,0.042007
2884.9595,0.042028
2885.8913,0.042493
2886.8232,0.043059
2887.7550,0.043397
2888.6868,0.043670
2889.6187,0.043838
2890.5505,0.044625
2891.4823,0.045527
2892.4142,0.046101
2893.3460,0.046718
2894.2778,0.046903
2895.2097,0.046692
2896.1415,0.046948
2897.0733,0.047664
2898.0052,0.048547
2898.9370,0.049187
2899.8688,0.049324
2900.8007,0.049745
2901.7325,0.050293
2902.6643,0.049970
2903.5962,0.049675
2904.5280,0.049746
2905.4598,0.050018
2906.3917,0.050328
2907.3235,0.049801
2908.2553,0.049099
2909.1872,0.048946
2910.1190,0.048598
2911.0509,0.048233
2911.9827,0.048165
2912.9145,0.047713
2913.8464,0.047323
2914.7782,0.047152
2915.7100,0.046623
2916.6419,0.046176
2917.5737,0.045735
2918.5055,0.045737
2919.4374,0.046348
2920.3692,0.046532
2921.3010,0.046629
2922.2329,0.046344
2923.1647,0.046494
2924.0965,0.047030
2925.0284,0.047636
2925.9602,0.047886
2926.8920,0.048181
2927.8239,0.048540
2928.7557,0.048401
2929.6875,0.048476
2930.6194,0.049519
2931.5512,0.049774
2932.4830,0.049423
2933.4149,0.049596
2934.3467,0.049922
2935.2785,0.050122
2936.2104,0.050376
2937.1422,0.050641
2938.0741,0.050667
2939.0059,0.050723
2939.9377,0.051256
2940.8696,0.051733
2941.8014,0.051460
2942.7332,0.051467
2943.6651,0.051620
2944.5969,0.051749
2945.5287,0.051524
2946.4606,0.052075
2947.3924,0.052381
2948.3242,0.051890
2949.2561,0.051488
2950.1879,0.051765
2951.1197,0.052072
2952.0516,0.052322
2952.9834,0.052584
2953.9152,0.053158
2954.8471,0.053621
2955.7789,0.054081
2956.7107,0.054140
2957.6426,0.054220
2958.5744,0.055086
2959.5062,0.055878
2960.4381,0.056387
2961.3699,0.057392
2962.3017,0.058347
2963.2336,0.059550
2964.1654,0.061279
2965.0972,0.062789
2966.0291,0.064830
2966.9609,0.067038
2967.8928,0.068570
2968.8246,0.070517
2969.7564,0.072425
2970.6883,0.074664
2971.6201,0.077517
2972.5519,0.080540
2973.4838,0.083196
2974.4156,0.085276
2975.3474,0.087248
2976.2793,0.089773
2977.2111,0.092008
2978.1429,0.094351
2979.0748,0.096267
2980.0066,0.097017
2980.9384,0.097312
2981.8703,0.096883
2982.8021,0.096574
2983.7339,0.095716
2984.6658,0.093676
2985.5976,0.091826
2986.5294,0.089658
2987.4613,0.087433
2988.3931,0.085173
2989.3249,0.082951
2990.2568,0.080533
2991.1886,0.078215
2992.1204,0.076007
2993.0523,0.073632
2993.9841,0.071334
2994.9160,0.069726
2995.8478,0.068217
2996.7796,0.066775
2997.7115,0.065699
2998.6433,0.064469
2999.5751,0.063443
3000.5070,0.063293
3001.4388,0.062903
3002.3706,0.062508
3003.3025,0.062481
3004.2343,0.062525
3005.1661,0.062200
3006.0980,0.061351
3007.0298,0.060925
3007.9616,0.061468
3008.8935,0.062011
3009.8253,0.062469
3010.7571,0.062234
3011.6890,0.062829
3012.6208,0.063487
3013.5526,0.063597
3014.4845,0.063911
3015.4163,0.064958
3016.3481,0.064884
3017.2800,0.064490
3018.2118,0.064872
3019.1436,0.065354
3020.0755,0.065590
3021.0073,0.065447
3021.9392,0.065215
3022.8710,0.066006
3023.8028,0.066766
3024.7347,0.067645
3025.6665,0.068424
3026.5983,0.068634
3027.5302,0.069097
3028.4620,0.070316
3029.3938,0.070992
3030.3257,0.071364
3031.2575,0.072403
3032.1893,0.072301
3033.1212,0.072516
3034.0530,0.073212
3034.9848,0.073356
3035.9167,0.073842
3036.8485,0.074417
3037.7803,0.075273
3038.7122,0.075989
3039.6440,0.077486
3040.5758,0.078406
3041.5077,0.078277
3042.4395,0.078444
3043.3713,0.079243
3044.3032,0.080279
3045.2350,0.081308
3046.1668,0.082096
3047.0987,0.082798
3048.0305,0.083475
3048.9624,0.084275
3049.8942,0.084236
3050.8260,0.084639
3051.7579,0.086099
3052.6897,0.086848
3053.6215,0.087540
3054.5534,0.088951
3055.4852,0.088958
3056.4170,0.089126
3057.3489,0.089865
3058.2807,0.090318
3059.2125,0.091503
3060.1444,0.093143
3061.0762,0.093507
3062.0080,0.094440
3062.9399,0.096391
3063.8717,0.097508
3064.8035,0.097605
3065.7354,0.097650
3066.6672,0.099014
3067.5990,0.101279
3068.5309,0.102151
3069.4627,0.102132
3070.3945,0.102474
3071.3264,0.102735
3072.2582,0.103543
3073.1900,0.104334
3074.1219,0.105800
3075.0537,0.107494
3075.9856,0.107685
3076.9174,0.107760
3077.8492,0.108963
3078.7811,0.110987
3079.7129,0.112288
3080.6447,0.112860
3081.5766,0.113667
3082.5084,0.114877
3083.4402,0.115307
3084.3721,0.116982
3085.3039,0.118600
3086.2357,0.118994
3087.1676,0.119301
3088.0994,0.119481
3089.0312,0.120582
3089.9631,0.121948
3090.8949,0.123300
3091.8267,0.124095
3092.7586,0.125103
3093.6904,0.126806
3094.6222,0.128232
3095.5541,0.128856
3096.4859,0.129482
3097.4177,0.130891
3098.3496,0.131829
3099.2814,0.132136
3100.2132,0.133099
3101.1451,0.135391
3102.0769,0.136870
3103.0087,0.137498
3103.9406,0.139116
3104.8724,0.140575
3105.8043,0.141589
3106.7361,0.142955
3107.6679,0.144537
3108.5998,0.144877
3109.5316,0.145502
3110.4634,0.148407
3111.3953,0.149248
3112.3271,0.149046
3113.2589,0.149514
3114.1908,0.150847
3115.1226,0.152835
3116.0544,0.154175
3116.9863,0.154979
3117.9181,0.156973
3118.8499,0.158007
3119.7818,0.157567
3120.7136,0.158836
3121.6454,0.161956
3122.5773,0.163222
3123.5091,0.164114
3124.4409,0.165049
3125.3728,0.166017
3126.3046,0.167470
3127.2364,0.169073
3128.1683,0.169140
3129.1001,0.170307
3130.0319,0.172660
3130.9638,0.174607
3131.8956,0.175345
3132.8275,0.176132
3133.7593,0.178027
3134.6911,0.180156
3135.6230,0.181062
3136.5548,0.182900
3137.4866,0.184923
3138.4185,0.185940
3139.3503,0.186120
3140.2821,0.187750
3141.2140,0.189565
3142.1458,0.190684
3143.0776,0.190944
3144.0095,0.191665
3144.9413,0.193345
3145.8731,0.195624
3146.8050,0.196906
3147.7368,0.198328
3148.6686,0.198959
3149.6005,0.200560
3150.5323,0.202717
3151.4641,0.202934
3152.3960,0.203419
3153.3278,0.205655
3154.2596,0.207539
3155.1915,0.208740
3156.1233,0.209561
3157.0551,0.210894
3157.9870,0.211912
3158.9188,0.213776
3159.8507,0.214547
3160.7825,0.215428
3161.7143,0.217461
3162.6462,0.218754
3163.5780,0.220168
3164.5098,0.223099
3165.4417,0.224242
3166.3735,0.224201
3167.3053,0.225722
3168.2372,0.228072
3169.1690,0.228946
3170.1008,0.229981
3171.0327,0.231651
3171.9645,0.234048
3172.8963,0.235426
3173.8282,0.235855
3174.7600,0.235767
3175.6918,0.236994
3176.6237,0.238506
3177.5555,0.239526
3178.4873,0.240889
3179.4192,0.242555
3180.3510,0.243131
3181.2828,0.244750
3182.2147,0.246623
3183.1465,0.248184
3184.0783,0.250209
3185.0102,0.252225
3185.9420,0.251815
3186.8739,0.251750
3187.8057,0.252756
3188.7375,0.254933
3189.6694,0.256478
3190.6012,0.256310
3191.5330,0.256655
3192.4649,0.258886
3193.3967,0.260761
3194.3285,0.261394
3195.2604,0.262007
3196.1922,0.264502
3197.1240,0.265726
3198.0559,0.266220
3198.9877,0.267190
3199.9195,0.268846
3200.8514,0.270614
3201.7832,0.271127
3202.7150,0.272135
3203.6469,0.273719
3204.5787,0.273361
3205.5105,0.274061
3206.4424,0.274629
3207.3742,0.275175
3208.3060,0.276433
3209.2379,0.277521
3210.1697,0.278051
3211.1015,0.278924
3212.0334,0.280944
3212.9652,0.283024
3213.8971,0.284194
3214.8289,0.285222
3215.7607,0.284279
3216.6926,0.284331
3217.6244,0.285567
3218.5562,0.285786
3219.4881,0.286256
3220.4199,0.287796
3221.3517,0.288217
3222.2836,0.287685
3223.2154,0.288859
3224.1472,0.291227
3225.0791,0.292266
3226.0109,0.293044
3226.9427,0.292956
3227.8746,0.292865
3228.8064,0.293419
3229.7382,0.294001
3230.6701,0.293141
3231.6019,0.293769
3232.5337,0.295416
3233.4656,0.295841
3234.3974,0.295715
3235.3292,0.295974
3236.2611,0.296478
3237.1929,0.297059
3238.1247,0.297041
3239.0566,0.297685
3239.9884,0.297884
3240.9202,0.298112
3241.8521,0.299441
3242.7839,0.300736
3243.7158,0.301931
3244.6476,0.302061
3245.5794,0.299642
3246.5113,0.299752
3247.4431,0.301816
3248.3749,0.302220
3249.3068,0.302161
3250.2386,0.302504
3251.1704,0.302727
3252.1023,0.303250
3253.0341,0.302815
3253.9659,0.302812
3254.8978,0.304180
3255.8296,0.305389
3256.7614,0.304530
3257.6933,0.302334
3258.6251,0.302139
3259.5569,0.303106
3260.4888,0.303427
3261.4206,0.305863
3262.3524,0.307198
3263.2843,0.305081
3264.2161,0.303396
3265.1479,0.304192
3266.0798,0.306099
3267.0116,0.307186
3267.9434,0.306405
3268.8753,0.304848
3269.8071,0.304811
3270.7390,0.305859
3271.6708,0.306284
3272.6026,0.305800
3273.5345,0.303724
3274.4663,0.303614
3275.3981,0.304530
3276.3300,0.305273
3277.2618,0.305866
3278.1936,0.304827
3279.1255,0.303921
3280.0573,0.304629
3280.9891,0.305016
3281.9210,0.305046
3282.8528,0.305648
3283.7846,0.306329
3284.7165,0.306184
3285.6483,0.304886
3286.5801,0.303647
3287.5120,0.304194
3288.4438,0.304709
3289.3756,0.305413
3290.3075,0.307637
3291.2393,0.307749
3292.1711,0.306455
3293.1030,0.306164
3294.0348,0.305920
3294.9666,0.304960
3295.8985,0.304043
3296.8303,0.304721
3297.7622,0.305015
3298.6940,0.304967
3299.6258,0.305484
3300.5577,0.304105
3301.4895,0.301960
3302.4213,0.302268
3303.3532,0.304496
3304.2850,0.305373
3305.2168,0.305112
3306.1487,0.305879
3307.0805,0.305614
3308.0123,0.304595
3308.9442,0.304064
3309.8760,0.303361
3310.8078,0.303270
3311.7397,0.303764
3312.6715,0.304697
3313.6033,0.303648
3314.5352,0.302067
3315.4670,0.302489
3316.3988,0.303315
3317.3307,0.303601
3318.2625,0.304026
3319.1943,0.303667
3320.1262,0.302997
3321.0580,0.303393
3321.9898,0.303755
3322.9217,0.303661
3323.8535,0.304453
3324.7854,0.304773
3325.7172,0.304070
3326.6490,0.303546
3327.5809,0.303866
3328.5127,0.303474
3329.4445,0.304791
3330.3764,0.306450
3331.3082,0.305957
3332.2400,0.304318
3333.1719,0.303121
3334.1037,0.302494
3335.0355,0.302080
3335.9674,0.301387
3336.8992,0.302173
3337.8310,0.302307
3338.7629,0.301582
3339.6947,0.303191
3340.6265,0.305654
3341.5584,0.305612
3342.4902,0.305201
3343.4220,0.303846
3344.3539,0.301977
3345.2857,0.301909
3346.2175,0.301564
3347.1494,0.300478
3348.0812,0.301200
3349.0130,0.301773
3349.9449,0.302078
3350.8767,0.301276
3351.8086,0.300296
3352.7404,0.300312
3353.6722,0.299111
3354.6041,0.299274
3355.5359,0.302263
3356.4677,0.303433
3357.3996,0.301927
3358.3314,0.301426
3359.2632,0.301507
3360.1951,0.300978
3361.1269,0.299718
3362.0587,0.299995
3362.9906,0.300774
3363.9224,0.299472
3364.8542,0.299054
3365.7861,0.298961
3366.7179,0.300734
3367.6497,0.300327
3368.5816,0.297111
3369.5134,0.296892
3370.4452,0.299357
3371.3771,0.297225
3372.3089,0.292681
3373.2407,0.291561
3374.1726,0.292514
3375.1044,0.292003
3376.0362,0.291828
3376.9681,0.291935
3377.8999,0.294277
3378.8317,0.293727
3379.7636,0.290327
3380.6954,0.289672
3381.6273,0.289909
3382.5591,0.289644
3383.4909,0.289609
3384.4228,0.288344
3385.3546,0.288462
3386.2864,0.289068
3387.2183,0.288034
3388.1501,0.287676
3389.0819,0.288910
3390.0138,0.287190
3390.9456,0.286149
3391.8774,0.286368
3392.8093,0.286048
3393.7411,0.285594
3394.6729,0.283986
3395.6048,0.281462
3396.5366,0.279366
3397.4684,0.276229
3398.4003,0.276363
3399.3321,0.276850
3400.2639,0.276664
3401.1958,0.277938
3402.1276,0.278443
3403.0594,0.274227
3403.9913,0.270985
3404.9231,0.269219
3405.8549,0.269255
3406.7868,0.269256
3407.7186,0.267662
3408.6505,0.266364
3409.5823,0.268386
3410.5141,0.269758
3411.4460,0.269555
3412.3778,0.267856
3413.3096,0.265168
3414.2415,0.263379
3415.1733,0.262408
3416.1051,0.261644
3417.0370,0.261116
3417.9688,0.260685
3418.9006,0.261395
3419.8325,0.261511
3420.7643,0.259195
3421.6961,0.257172
3422.6280,0.258213
3423.5598,0.256202
3424.4916,0.254903
3425.4235,0.253886
3426.3553,0.252223
3427.2871,0.252991
3428.2190,0.253720
3429.1508,0.250745
3430.0826,0.247270
3431.0145,0.243279
3431.9463,0.242685
3432.8781,0.244015
3433.8100,0.241713
3434.7418,0.240270
3435.6737,0.242434
3436.6055,0.241092
3437.5373,0.239535
3438.4692,0.238195
3439.4010,0.237237
3440.3328,0.234081
3441.2647,0.231471
3442.1965,0.230958
3443.1283,0.229489
3444.0602,0.227200
3444.9920,0.226441
3445.9238,0.227222
3446.8557,0.227433
3447.7875,0.226132
3448.7193,0.226916
3449.6512,0.226914
3450.5830,0.225431
3451.5148,0.224132
3452.4467,0.223966
3453.3785,0.220954
3454.3103,0.220173
3455.2422,0.220734
3456.1740,0.218503
3457.1058,0.215921
3458.0377,0.216142
3458.9695,0.214959
3459.9013,0.215548
3460.8332,0.216917
3461.7650,0.212081
3462.6969,0.207460
3463.6287,0.208265
3464.5605,0.206825
3465.4924,0.206118
3466.4242,0.205926
3467.3560,0.205280
3468.2879,0.203426
3469.2197,0.202177
3470.1515,0.200105
3471.0834,0.198689
3472.0152,0.197994
3472.9470,0.197846
3473.8789,0.194832
3474.8107,0.194063
3475.7425,0.196535
3476.6744,0.196405
3477.6062,0.194656
3478.5380,0.193891
3479.4699,0.189499
3480.4017,0.189686
3481.3335,0.191201
3482.2654,0.190415
3483.1972,0.188691
3484.1290,0.186156
3485.0609,0.183402
3485.9927,0.183171
3486.9245,0.180097
3487.8564,0.177389
3488.7882,0.177338
3489.7201,0.179478
3490.6519,0.180399
3491.5837,0.180008
3492.5156,0.177158
3493.4474,0.174686
3494.3792,0.173347
3495.3111,0.173860
3496.2429,0.173576
3497.1747,0.170301
3498.1066,0.166580
3499.0384,0.166677
3499.9702,0.168002
3500.9021,0.167179
3501.8339,0.165318
3502.7657,0.165329
3503.6976,0.163951
3504.6294,0.163963
3505.5612,0.162855
3506.4931,0.161212
3507.4249,0.158767
3508.3567,0.156179
3509.2886,0.155063
3510.2204,0.155458
3511.1522,0.154681
3512.0841,0.154049
3513.0159,0.154546
3513.9477,0.154407
3514.8796,0.153436
3515.8114,0.153094
3516.7432,0.152319
3517.6751,0.150465
3518.6069,0.147045
3519.5388,0.146535
3520.4706,0.145018
3521.4024,0.144460
3522.3343,0.143141
3523.2661,0.142389
3524.1979,0.144297
3525.1298,0.146147
3526.0616,0.143482
3526.9934,0.140865
3527.9253,0.139223
3528.8571,0.137893
3529.7889,0.137644
3530.7208,0.135808
3531.6526,0.131136
3532.5844,0.131188
3533.5163,0.131943
3534.4481,0.132111
3535.3799,0.132251
3536.3118,0.130536
3537.2436,0.128039
3538.1754,0.128489
3539.1073,0.127139
3540.0391,0.126266
3540.9709,0.126128
3541.9028,0.123873
3542.8346,0.123814
3543.7664,0.125666
3544.6983,0.123598
3545.6301,0.120730
3546.5620,0.120275
3547.4938,0.119378
3548.4256,0.117022
3549.3575,0.116574
3550.2893,0.117242
3551.2211,0.116487
3552.1530,0.114156
3553.0848,0.113521
3554.0166,0.112286
3554.9485,0.111822
3555.8803,0.109875
3556.8121,0.108653
3557.7440,0.109558
3558.6758,0.109037
3559.6076,0.106623
3560.5395,0.103785
3561.4713,0.101561
3562.4031,0.101849
3563.3350,0.102937
3564.2668,0.104021
3565.1986,0.102151
3566.1305,0.100318
3567.0623,0.099493
3567.9941,0.101717
3568.9260,0.101920
3569.8578,0.098783
3570.7896,0.096192
3571.7215,0.095415
3572.6533,0.093122
3573.5852,0.091867
3574.5170,0.092006
3575.4488,0.090842
3576.3807,0.089843
3577.3125,0.089081
3578.2443,0.088265
3579.1762,0.089036
3580.1080,0.087297
3581.0398,0.084989
3581.9717,0.083901
3582.9035,0.083754
3583.8353,0.083979
3584.7672,0.083900
3585.6990,0.083690
3586.6308,0.082205
3587.5627,0.080390
3588.4945,0.081025
3589.4263,0.080145
3590.3582,0.078589
3591.2900,0.077540
3592.2218,0.077933
3593.1537,0.078056
3594.0855,0.077226
3595.0173,0.075257
3595.9492,0.074794
3596.8810,0.074176
3597.8128,0.073349
3598.7447,0.071215
3599.6765,0.070093
3600.6084,0.071223
3601.5402,0.072016
3602.4720,0.070044
3603.4039,0.067342
3604.3357,0.067276
3605.2675,0.066937
3606.1994,0.065704
3607.1312,0.065443
3608.0630,0.065166
3608.9949,0.064024
3609.9267,0.062957
3610.8585,0.063832
3611.7904,0.062834
3612.7222,0.060823
3613.6540,0.060597
3614.5859,0.061347
3615.5177,0.059943
3616.4495,0.060064
3617.3814,0.059944
3618.3132,0.058272
3619.2450,0.056752
3620.1769,0.057496
3621.1087,0.057723
3622.0405,0.058110
3622.9724,0.057323
3623.9042,0.054220
3624.8360,0.053004
3625.7679,0.052732
3626.6997,0.051228
3627.6316,0.050130
3628.5634,0.051254
3629.4952,0.051616
3630.4271,0.049579
3631.3589,0.049506
3632.2907,0.049057
3633.2226,0.046702
3634.1544,0.045537
3635.0862,0.045886
3636.0181,0.046404
3636.9499,0.046742
3637.8817,0.046831
3638.8136,0.045807
3639.7454,0.043664
3640.6772,0.042496
3641.6091,0.042944
3642.5409,0.043065
3643.4727,0.041932
3644.4046,0.041455
3645.3364,0.040357
3646.2682,0.039499
3647.2001,0.039458
3648.1319,0.039374
3649.0637,0.038443
3649.9956,0.037329
3650.9274,0.037242
3651.8592,0.037292
3652.7911,0.036134
3653.7229,0.034399
3654.6547,0.033714
3655.5866,0.033508
3656.5184,0.033207
3657.4503,0.032374
3658.3821,0.031134
3659.3139,0.031280
3660.2458,0.030790
3661.1776,0.029444
3662.1094,0.027936
3663.0413,0.027399
3663.9731,0.026790
3664.9049,0.026436
3665.8368,0.026360
3666.7686,0.026358
3667.7004,0.025205
3668.6323,0.024837
3669.5641,0.024324
3670.4959,0.022887
3671.4278,0.023026
3672.3596,0.024209
3673.2914,0.022258
3674.2233,0.020724
3675.1551,0.019382
3676.0869,0.019604
3677.0188,0.019626
3677.9506,0.019763
3678.8824,0.018808
3679.8143,0.017124
3680.7461,0.015975
3681.6779,0.016177
3682.6098,0.015928
3683.5416,0.014836
3684.4735,0.013663
3685.4053,0.012378
3686.3371,0.012619
3687.2690,0.014398
3688.2008,0.014440
3689.1326,0.013851
3690.0645,0.013283
3690.9963,0.012708
3691.9281,0.011743
3692.8600,0.009779
3693.7918,0.008455
3694.7236,0.009224
3695.6555,0.010017
3696.5873,0.010400
3697.5191,0.009372
3698.4510,0.008838
3699.3828,0.009281
3700.3146,0.008814
3701.2465,0.007981
3702.1783,0.007317
3703.1101,0.007414
3704.0420,0.007672
3704.9738,0.007939
3705.9056,0.007759
3706.8375,0.006597
3707.7693,0.005798
3708.7011,0.006853
3709.6330,0.007895
3710.5648,0.007231
3711.4967,0.006788
3712.4285,0.007204
3713.3603,0.007031
3714.2922,0.007171
3715.2240,0.007342
3716.1558,0.005555
3717.0877,0.005375
3718.0195,0.006131
3718.9513,0.006349
3719.8832,0.005894
3720.8150,0.006080
3721.7468,0.006577
3722.6787,0.006655
3723.6105,0.006511
3724.5423,0.005419
3725.4742,0.004347
3726.4060,0.004544
3727.3378,0.003755
3728.2697,0.003589
3729.2015,0.004425
3730.1333,0.004830
3731.0652,0.004738
3731.9970,0.004475
3732.9288,0.004040
3733.8607,0.005741
3734.7925,0.006443
3735.7243,0.003843
3736.6562,0.001883
3737.5880,0.003267
3738.5199,0.003789
3739.4517,0.003349
3740.3835,0.002759
3741.3154,0.003757
3742.2472,0.004450
3743.1790,0.003740
3744.1109,0.003656
3745.0427,0.004119
3745.9745,0.003679
3746.9064,0.003548
3747.8382,0.003271
3748.7700,0.003331
3749.7019,0.004221
3750.6337,0.004718
3751.5655,0.004367
3752.4974,0.004337
3753.4292,0.003291
3754.3610,0.002766
3755.2929,0.002281
3756.2247,0.002430
3757.1565,0.003261
3758.0884,0.003381
3759.0202,0.003182
3759.9520,0.003798
3760.8839,0.003874
3761.8157,0.003296
3762.7475,0.002719
3763.6794,0.002391
3764.6112,0.002704
3765.5431,0.003281
3766.4749,0.003173
3767.4067,0.003118
3768.3386,0.003410
3769.2704,0.003640
3770.2022,0.003047
3771.1341,0.003592
3772.0659,0.004665
3772.9977,0.005232
3773.9296,0.004194
3774.8614,0.003294
3775.7932,0.003017
3776.7251,0.003547
3777.6569,0.003554
3778.5887,0.003559
3779.5206,0.003853
3780.4524,0.003568
3781.3842,0.002847
3782.3161,0.003434
3783.2479,0.003798
3784.1797,0.002937
3785.1116,0.002695
3786.0434,0.002657
3786.9752,0.002753
3787.9071,0.003075
3788.8389,0.002877
3789.7707,0.003643
3790.7026,0.003438
3791.6344,0.002272
3792.5662,0.001997
3793.4981,0.002588
3794.4299,0.002095
3795.3618,0.001661
3796.2936,0.002838
3797.2254,0.003232
3798.1573,0.002273
3799.0891,0.002335
3800.0209,0.002127
3800.9528,0.002090
3801.8846,0.002117
3802.8164,0.003067
3803.7483,0.004588
3804.6801,0.004308
3805.6119,0.002518
3806.5438,0.002318
3807.4756,0.002825
3808.4074,0.003345
3809.3393,0.002994
3810.2711,0.001515
3811.2029,0.000600
3812.1348,0.001532
3813.0666,0.002317
3813.9984,0.002804
3814.9303,0.002144
3815.8621,0.001510
3816.7939,0.002419
3817.7258,0.003693
3818.6576,0.003692
3819.5894,0.003115
3820.5213,0.002305
3821.4531,0.002439
3822.3850,0.002061
3823.3168,0.002256
3824.2486,0.002526
3825.1805,0.002494
3826.1123,0.002510
3827.0441,0.002684
3827.9760,0.002613
3828.9078,0.002828
3829.8396,0.003108
3830.7715,0.003373
3831.7033,0.003011
3832.6351,0.002995
3833.5670,0.002887
3834.4988,0.002973
3835.4306,0.002545
3836.3625,0.002310
3837.2943,0.002725
3838.2261,0.002783
3839.1580,0.002020
3840.0898,0.002406
3841.0216,0.003036
3841.9535,0.002581
3842.8853,0.001931
3843.8171,0.001965
3844.7490,0.002679
3845.6808,0.003600
3846.6126,0.003345
3847.5445,0.002848
3848.4763,0.003058
3849.4082,0.002735
3850.3400,0.001978
3851.2718,0.002588
3852.2037,0.003019
3853.1355,0.003123
3854.0673,0.003368
3854.9992,0.002847
3855.9310,0.001396
3856.8628,0.001941
3857.7947,0.002394
3858.7265,0.003089
3859.6583,0.003627
3860.5902,0.003056
3861.5220,0.002147
3862.4538,0.002451
3863.3857,0.003282
3864.3175,0.003073
3865.2493,0.001646
3866.1812,0.001545
3867.1130,0.002143
3868.0448,0.002438
3868.9767,0.002202
3869.9085,0.002046
3870.8403,0.002080
3871.7722,0.002348
3872.7040,0.002206
3873.6358,0.002357
3874.5677,0.002790
3875.4995,0.003012
3876.4314,0.002094
3877.3632,0.002029
3878.2950,0.002721
3879.2269,0.003172
3880.1587,0.002913
3881.0905,0.003058
3882.0224,0.003582
3882.9542,0.004213
3883.8860,0.003374
3884.8179,0.001625
3885.7497,0.001100
3886.6815,0.002161
3887.6134,0.002397
3888.5452,0.002484
3889.4770,0.002418
3890.4089,0.002093
3891.3407,0.002411
3892.2725,0.002776
3893.2044,0.002370
3894.1362,0.001960
3895.0680,0.001873
3895.9999,0.002454
3896.9317,0.002792
3897.8635,0.002824
3898.7954,0.001940
3899.7272,0.001751
3900.6590,0.002744
3901.5909,0.003225
3902.5227,0.002373
3903.4546,0.001038
3904.3864,0.001297
3905.3182,0.002952
3906.2501,0.003571
3907.1819,0.003169
3908.1137,0.002196
3909.0456,0.002948
3909.9774,0.003458
3910.9092,0.003074
3911.8411,0.002494
3912.7729,0.002702
3913.7047,0.002797
3914.6366,0.002541
3915.5684,0.002251
3916.5002,0.002353
3917.4321,0.002157
3918.3639,0.002085
3919.2957,0.002497
3920.2276,0.002329
3921.1594,0.001915
3922.0912,0.002586
3923.0231,0.002922
3923.9549,0.002883
3924.8867,0.002881
3925.8186,0.002806
3926.7504,0.002014
3927.6822,0.002180
3928.6141,0.003128
3929.5459,0.003132
3930.4777,0.001955
3931.4096,0.002279
3932.3414,0.003934
3933.2733,0.004069
3934.2051,0.002887
3935.1369,0.002388
3936.0688,0.002806
3937.0006,0.003331
3937.9324,0.002525
3938.8643,0.002151
3939.7961,0.002689
3940.7279,0.002647
3941.6598,0.001966
3942.5916,0.002190
3943.5234,0.002349
3944.4553,0.002245
3945.3871,0.002457
3946.3189,0.001895
3947.2508,0.002250
3948.1826,0.003252
3949.1144,0.003446
3950.0463,0.003910
3950.9781,0.003952
3951.9099,0.003150
3952.8418,0.001666
3953.7736,0.001535
3954.7054,0.002170
3955.6373,0.003076
3956.5691,0.002800
3957.5009,0.002559
3958.4328,0.002982
3959.3646,0.003677
3960.2965,0.002729
3961.2283,0.002523
3962.1601,0.003061
3963.0920,0.002884
3964.0238,0.003049
3964.9556,0.003961
3965.8875,0.003627
3966.8193,0.002171
3967.7511,0.001377
3968.6830,0.002360
3969.6148,0.003492
3970.5466,0.002895
3971.4785,0.002347
3972.4103,0.002696
3973.3421,0.002710
3974.2740,0.002388
3975.2058,0.002193
3976.1376,0.002590
3977.0695,0.002267
3978.0013,0.001866
3978.9331,0.001974
3979.8650,0.002946
3980.7968,0.003722
3981.7286,0.004048
3982.6605,0.003321
3983.5923,0.002725
3984.5241,0.002296
3985.4560,0.001808
3986.3878,0.002076
3987.3197,0.002600
3988.2515,0.002616
3989.1833,0.003272
3990.1152,0.003729
3991.0470,0.003242
3991.9788,0.002941
3992.9107,0.003004
3993.8425,0.003230
3994.7743,0.003268
3995.7062,0.002680
3996.6380,0.002951
3997.5698,0.002827
3998.5017,0.002028
3999.4335,0.001617
4000.3653,0.002109
