Wavenumber,Intensity
650.4205,0.382129
651.3523,0.381754
652.2841,0.373354
653.2160,0.365891
654.1478,0.365300
655.0796,0.382105
656.0115,0.393608
656.9433,0.388570
657.8751,0.376060
658.8070,0.367257
659.7388,0.362253
660.6706,0.364549
661.6025,0.362931
662.5343,0.361213
663.4661,0.368500
664.3980,0.375492
665.3298,0.377055
666.2616,0.374985
667.1935,0.368586
668.1253,0.374755
669.0571,0.381550
669.9890,0.372088
670.9208,0.362043
671.8526,0.358691
672.7845,0.353535
673.7163,0.351677
674.6481,0.358779
675.5800,0.353861
676.5118,0.339381
677.4437,0.339935
678.3755,0.348468
679.3073,0.351832
680.2392,0.347517
681.1710,0.345668
682.1028,0.349976
683.0347,0.352892
683.9665,0.348304
684.8983,0.341470
685.8302,0.339908
686.7620,0.340305
687.6938,0.335373
688.6257,0.335228
689.5575,0.338813
690.4893,0.339799
691.4212,0.337571
692.3530,0.333310
693.2848,0.328839
694.2167,0.328489
695.1485,0.328286
696.0803,0.330031
697.0122,0.330002
697.9440,0.326148
698.8758,0.325542
699.8077,0.324881
700.7395,0.322174
701.6713,0.321844
702.6032,0.318327
703.5350,0.314634
704.4669,0.312974
705.3987,0.313887
706.3305,0.313497
707.2624,0.314065
708.1942,0.310755
709.1260,0.307597
710.0579,0.307839
710.9897,0.307028
711.9215,0.306375
712.8534,0.306899
713.7852,0.304179
714.7170,0.304029
715.6489,0.303234
716.5807,0.300181
717.5125,0.298421
718.4444,0.299048
719.3762,0.298811
720.3080,0.296784
721.2399,0.291944
722.1717,0.289850
723.1035,0.291802
724.0354,0.293627
724.9672,0.291247
725.8990,0.288530
726.8309,0.287918
727.7627,0.285958
728.6945,0.283617
729.6264,0.284163
730.5582,0.282510
731.4901,0.280922
732.4219,0.280058
733.3537,0.278554
734.2856,0.275664
735.2174,0.274120
736.1492,0.271861
737.0811,0.270499
738.0129,0.269202
738.9447,0.268662
739.8766,0.268494
740.8084,0.265996
741.7402,0.263809
742.6721,0.263941
743.6039,0.261599
744.5357,0.260744
745.4676,0.261353
746.3994,0.259171
747.3312,0.258109
748.2631,0.256692
749.1949,0.254018
750.1267,0.253884
751.0586,0.253992
751.9904,0.253599
752.9222,0.249986
753.8541,0.246922
754.7859,0.247147
755.7177,0.247100
756.6496,0.246715
757.5814,0.246482
758.5132,0.243170
759.4451,0.238703
760.3769,0.237693
761.3088,0.239288
762.2406,0.238849
763.1724,0.236918
764.1043,0.234239
765.0361,0.234476
765.9679,0.235047
766.8998,0.232406
767.8316,0.228387
768.7634,0.226532
769.6953,0.226666
770.6271,0.227743
771.5589,0.226694
772.4908,0.225257
773.4226,0.223649
774.3544,0.220694
775.2863,0.218258
776.2181,0.218315
777.1499,0.217821
778.0818,0.216376
779.0136,0.214435
779.9454,0.212922
780.8773,0.211641
781.8091,0.210681
782.7409,0.208469
783.6728,0.207636
784.6046,0.207187
785.5364,0.205329
786.4683,0.204190
787.4001,0.204364
788.3320,0.203748
789.2638,0.202349
790.1956,0.199977
791.1275,0.198728
792.0593,0.198121
792.9911,0.196434
793.9230,0.193928
794.8548,0.193196
795.7866,0.193137
796.7185,0.193255
797.6503,0.191106
798.5821,0.188299
799.5140,0.188240
800.4458,0.187656
801.3776,0.186261
802.3095,0.186438
803.2413,0.185589
804.1731,0.184051
805.1050,0.182688
806.0368,0.180659
806.9686,0.179256
807.9005,0.178491
808.8323,0.178047
809.7641,0.175874
810.6960,0.172930
811.6278,0.171944
812.5596,0.171651
813.4915,0.170844
814.4233,0.168884
815.3552,0.167324
816.2870,0.166212
817.2188,0.164799
818.1507,0.163530
819.0825,0.162196
820.0143,0.160783
820.9462,0.159413
821.8780,0.158250
822.8098,0.158044
823.7417,0.157157
824.6735,0.156850
825.6053,0.155304
826.5372,0.153123
827.4690,0.152767
828.4008,0.152366
829.3327,0.150758
830.2645,0.149674
831.1963,0.148997
832.1282,0.147517
833.0600,0.146314
833.9918,0.145741
834.9237,0.144297
835.8555,0.142776
836.7873,0.142544
837.7192,0.142363
838.6510,0.141352
839.5828,0.140359
840.5147,0.138669
841.4465,0.137461
842.3784,0.136722
843.3102,0.135730
844.2420,0.134993
845.1739,0.134547
846.1057,0.133681
847.0375,0.132403
847.9694,0.130723
848.9012,0.129435
849.8330,0.128754
850.7649,0.128290
851.6967,0.128031
852.6285,0.127919
853.5604,0.126630
854.4922,0.125671
855.4240,0.124931
856.3559,0.124284
857.2877,0.124267
858.2195,0.123817
859.1514,0.123302
860.0832,0.122645
861.0150,0.122298
861.9469,0.122053
862.8787,0.121216
863.8105,0.121393
864.7424,0.122561
865.6742,0.122787
866.6060,0.122692
867.5379,0.123562
868.4697,0.125033
869.4016,0.126832
870.3334,0.129419
871.2652,0.132254
872.1971,0.135378
873.1289,0.139047
874.0607,0.143202
874.9926,0.147429
875.9244,0.150809
876.8562,0.153121
877.7881,0.153622
878.7199,0.152838
879.6517,0.150273
880.5836,0.146346
881.5154,0.140938
882.4472,0.134249
883.3791,0.127700
884.3109,0.121849
885.2427,0.116001
886.1746,0.110850
887.1064,0.107010
888.0382,0.103787
888.9701,0.100186
889.9019,0.097377
890.8337,0.095990
891.7656,0.094356
892.6974,0.092404
893.6292,0.091094
894.5611,0.089494
895.4929,0.088053
896.4247,0.087094
897.3566,0.086139
898.2884,0.085003
899.2203,0.083952
900.1521,0.083199
901.0839,0.082826
902.0158,0.082590
902.9476,0.082083
903.8794,0.080722
904.8113,0.079553
905.7431,0.079271
906.6749,0.078814
907.6068,0.078007
908.5386,0.077619
909.4704,0.076777
910.4023,0.076109
911.3341,0.075587
912.2659,0.075059
913.1978,0.074509
914.1296,0.074000
915.0614,0.073603
915.9933,0.073006
916.9251,0.072129
917.8569,0.071475
918.7888,0.070979
919.7206,0.070531
920.6524,0.070414
921.5843,0.070299
922.5161,0.070013
923.4479,0.069630
924.3798,0.068995
925.3116,0.068437
926.2435,0.068198
927.1753,0.067870
928.1071,0.067439
929.0390,0.067151
929.9708,0.066357
930.9026,0.065826
931.8345,0.065536
932.7663,0.064965
933.6981,0.064529
934.6300,0.064431
935.5618,0.064568
936.4936,0.064373
937.4255,0.063622
938.3573,0.062990
939.2891,0.062812
940.2210,0.062642
941.1528,0.062485
942.0846,0.062370
943.0165,0.061930
943.9483,0.061575
944.8801,0.061285
945.8120,0.060994
946.7438,0.060821
947.6756,0.060695
948.6075,0.060165
949.5393,0.059705
950.4711,0.059905
951.4030,0.059839
952.3348,0.059556
953.2667,0.059310
954.1985,0.058732
955.1303,0.058279
956.0622,0.057987
956.9940,0.057964
957.9258,0.058125
958.8577,0.058163
959.7895,0.057892
960.7213,0.057604
961.6532,0.057286
962.5850,0.056932
963.5168,0.056567
964.4487,0.056323
965.3805,0.055980
966.3123,0.055905
967.2442,0.056230
968.1760,0.056154
969.1078,0.055701
970.0397,0.055643
970.9715,0.055682
971.9033,0.055653
972.8352,0.055502
973.7670,0.055452
974.6988,0.055450
975.6307,0.055072
976.5625,0.054589
977.4943,0.054226
978.4262,0.054419
979.3580,0.054846
980.2899,0.054742
981.2217,0.054510
982.1535,0.054363
983.0854,0.054356
984.0172,0.054474
984.9490,0.054622
985.8809,0.054611
986.8127,0.054628
987.7445,0.054318
988.6764,0.054151
989.6082,0.054157
990.5400,0.054136
991.4719,0.054161
992.4037,0.054043
993.3355,0.054164
994.2674,0.054451
995.1992,0.054471
996.1310,0.054504
997.0629,0.054549
997.9947,0.054857
998.9265,0.055147
999.8584,0.055094
1000.7902,0.054960
1001.7220,0.054875
1002.6539,0.055125
1003.5857,0.055693
1004.5175,0.056199
1005.4494,0.056554
1006.3812,0.056579
1007.3131,0.056810
1008.2449,0.057185
1009.1767,0.057479
1010.1086,0.057646
1011.0404,0.057998
1011.9722,0.058683
1012.9041,0.059360
1013.8359,0.059741
1014.7677,0.060451
1015.6996,0.061402
1016.6314,0.061944
1017.5632,0.062702
1018.4951,0.063777
1019.4269,0.065029
1020.3587,0.066553
1021.2906,0.067538
1022.2224,0.068589
1023.1542,0.070289
1024.0861,0.072232
1025.0179,0.074528
1025.9497,0.076953
1026.8816,0.079348
1027.8134,0.082114
1028.7452,0.085293
1029.6771,0.088932
1030.6089,0.093159
1031.5407,0.097962
1032.4726,0.103410
1033.4044,0.109742
1034.3362,0.117342
1035.2681,0.125817
1036.1999,0.135234
1037.1318,0.146143
1038.0636,0.158083
1038.9954,0.170555
1039.9273,0.183591
1040.8591,0.196068
1041.7909,0.207060
1042.7228,0.215969
1043.6546,0.221275
1044.5864,0.222007
1045.5183,0.219059
1046.4501,0.212446
1047.3819,0.202454
1048.3138,0.189982
1049.2456,0.176100
1050.1774,0.162051
1051.1093,0.148220
1052.0411,0.135201
1052.9729,0.123530
1053.9048,0.112729
1054.8366,0.102880
1055.7684,0.094982
1056.7003,0.088318
1057.6321,0.082782
1058.5639,0.078247
1059.4958,0.074481
1060.4276,0.071242
1061.3594,0.069177
1062.2913,0.068040
1063.2231,0.067006
1064.1550,0.066221
1065.0868,0.065739
1066.0186,0.065553
1066.9505,0.065509
1067.8823,0.065861
1068.8141,0.066725
1069.7460,0.067635
1070.6778,0.068552
1071.6096,0.069698
1072.5415,0.071249
1073.4733,0.072965
1074.4051,0.074718
1075.3370,0.076846
1076.2688,0.079276
1077.2006,0.081472
1078.1325,0.083804
1079.0643,0.086381
1079.9961,0.089054
1080.9280,0.091557
1081.8598,0.093685
1082.7916,0.095424
1083.7235,0.096842
1084.6553,0.097629
1085.5871,0.097779
1086.5190,0.097257
1087.4508,0.096099
1088.3826,0.094359
1089.3145,0.092068
1090.2463,0.088701
1091.1782,0.084849
1092.1100,0.081183
1093.0418,0.077612
1093.9737,0.074144
1094.9055,0.070903
1095.8373,0.067817
1096.7692,0.064705
1097.7010,0.061960
1098.6328,0.059522
1099.5647,0.057252
1100.4965,0.055445
1101.4283,0.053924
1102.3602,0.052481
1103.2920,0.051260
1104.2238,0.050227
1105.1557,0.049356
1106.0875,0.048664
1107.0193,0.048272
1107.9512,0.047746
1108.8830,0.047131
1109.8148,0.046530
1110.7467,0.045960
1111.6785,0.045691
1112.6103,0.045637
1113.5422,0.045293
1114.4740,0.045003
1115.4058,0.044877
1116.3377,0.044757
1117.2695,0.044690
1118.2014,0.044610
1119.1332,0.044504
1120.0650,0.044398
1120.9969,0.044499
1121.9287,0.044464
1122.8605,0.044245
1123.7924,0.044265
1124.7242,0.044507
1125.6560,0.044480
1126.5879,0.044283
1127.5197,0.044251
1128.4515,0.044319
1129.3834,0.044125
1130.3152,0.044090
1131.2470,0.044249
1132.1789,0.043936
1133.1107,0.043832
1134.0425,0.043809
1134.9744,0.043577
1135.9062,0.043536
1136.8380,0.043483
1137.7699,0.043177
1138.7017,0.043000
1139.6335,0.043066
1140.5654,0.042950
1141.4972,0.042743
1142.4290,0.042724
1143.3609,0.042877
1144.2927,0.042830
1145.2246,0.042546
1146.1564,0.042579
1147.0882,0.042694
1148.0201,0.042649
1148.9519,0.042595
1149.8837,0.042533
1150.8156,0.042543
1151.7474,0.042670
1152.6792,0.042836
1153.6111,0.042957
1154.5429,0.042950
1155.4747,0.042736
1156.4066,0.042554
1157.3384,0.042497
1158.2702,0.042405
1159.2021,0.042360
1160.1339,0.042293
1161.0657,0.042001
1161.9976,0.041891
1162.9294,0.041793
1163.8612,0.041462
1164.7931,0.041329
1165.7249,0.041370
1166.6567,0.041064
1167.5886,0.040829
1168.5204,0.040968
1169.4522,0.041002
1170.3841,0.040781
1171.3159,0.040521
1172.2477,0.040399
1173.1796,0.040291
1174.1114,0.040348
1175.0433,0.040475
1175.9751,0.040421
1176.9069,0.040173
1177.8388,0.040270
1178.7706,0.040354
1179.7024,0.040388
1180.6343,0.040406
1181.5661,0.040201
1182.4979,0.040178
1183.4298,0.040268
1184.3616,0.040238
1185.2934,0.040210
1186.2253,0.040312
1187.1571,0.040204
1188.0889,0.040220
1189.0208,0.040277
1189.9526,0.040469
1190.8844,0.040590
1191.8163,0.040399
1192.7481,0.040275
1193.6799,0.040332
1194.6118,0.040339
1195.5436,0.040576
1196.4754,0.040698
1197.4073,0.040570
1198.3391,0.040513
1199.2709,0.040551
1200.2028,0.040600
1201.1346,0.040726
1202.0665,0.040697
1202.9983,0.040632
1203.9301,0.040641
1204.8620,0.040631
1205.7938,0.040746
1206.7256,0.040814
1207.6575,0.040814
1208.5893,0.040708
1209.5211,0.040582
1210.4530,0.040715
1211.3848,0.040984
1212.3166,0.041242
1213.2485,0.041118
1214.1803,0.040869
1215.1121,0.040939
1216.0440,0.041010
1216.9758,0.041029
1217.9076,0.041027
1218.8395,0.041014
1219.7713,0.041276
1220.7031,0.041457
1221.6350,0.041427
1222.5668,0.041485
1223.4986,0.041488
1224.4305,0.041507
1225.3623,0.041350
1226.2941,0.041057
1227.2260,0.040972
1228.1578,0.041116
1229.0897,0.041252
1230.0215,0.041572
1230.9533,0.041815
1231.8852,0.041823
1232.8170,0.042110
1233.7488,0.042365
1234.6807,0.042186
1235.6125,0.042016
1236.5443,0.042256
1237.4762,0.042410
1238.4080,0.042499
1239.3398,0.042421
1240.2717,0.042369
1241.2035,0.042545
1242.1353,0.042909
1243.0672,0.042974
1243.9990,0.042990
1244.9308,0.043024
1245.8627,0.042941
1246.7945,0.042925
1247.7263,0.043344
1248.6582,0.043669
1249.5900,0.043798
1250.5218,0.043978
1251.4537,0.044197
1252.3855,0.044325
1253.3173,0.044316
1254.2492,0.044398
1255.1810,0.044755
1256.1129,0.045067
1257.0447,0.045206
1257.9765,0.045390
1258.9084,0.045694
1259.8402,0.046087
1260.7720,0.046809
1261.7039,0.047334
1262.6357,0.047446
1263.5675,0.047664
1264.4994,0.048024
1265.4312,0.048352
1266.3630,0.048741
1267.2949,0.049536
1268.2267,0.050149
1269.1585,0.050520
1270.0904,0.051054
1271.0222,0.051498
1271.9540,0.052102
1272.8859,0.052358
1273.8177,0.052093
1274.7495,0.052129
1275.6814,0.052357
1276.6132,0.052180
1277.5450,0.051974
1278.4769,0.051658
1279.4087,0.051030
1280.3405,0.050590
1281.2724,0.050229
1282.2042,0.050009
1283.1361,0.049895
1284.0679,0.049492
1284.9997,0.049166
1285.9316,0.049019
1286.8634,0.048797
1287.7952,0.048628
1288.7271,0.048818
1289.6589,0.048772
1290.5907,0.048899
1291.5226,0.049156
1292.4544,0.048939
1293.3862,0.049001
1294.3181,0.049219
1295.2499,0.049119
1296.1817,0.049080
1297.1136,0.049462
1298.0454,0.049896
1298.9772,0.050036
1299.9091,0.049995
1300.8409,0.050115
1301.7727,0.050278
1302.7046,0.050368
1303.6364,0.050811
1304.5682,0.051360
1305.5001,0.051678
1306.4319,0.051678
1307.3637,0.051628
1308.2956,0.051756
1309.2274,0.052064
1310.1592,0.052328
1311.0911,0.052419
1312.0229,0.052757
1312.9548,0.053085
1313.8866,0.053358
1314.8184,0.053348
1315.7503,0.053261
1316.6821,0.053239
1317.6139,0.053575
1318.5458,0.053836
1319.4776,0.053972
1320.4094,0.054225
1321.3413,0.054378
1322.2731,0.054457
1323.2049,0.054388
1324.1368,0.054389
1325.0686,0.054394
1326.0004,0.054145
1326.9323,0.054026
1327.8641,0.054165
1328.7959,0.054166
1329.7278,0.054090
1330.6596,0.053968
1331.5914,0.053840
1332.5233,0.053669
1333.4551,0.053377
1334.3869,0.052940
1335.3188,0.052643
1336.2506,0.052352
1337.1824,0.052092
1338.1143,0.051958
1339.0461,0.051862
1339.9780,0.052084
1340.9098,0.052296
1341.8416,0.051812
1342.7735,0.051018
1343.7053,0.050597
1344.6371,0.050299
1345.5690,0.050125
1346.5008,0.049930
1347.4326,0.049898
1348.3645,0.049876
1349.2963,0.049451
1350.2281,0.048986
1351.1600,0.048887
1352.0918,0.048696
1353.0236,0.048384
1353.9555,0.048251
1354.8873,0.048309
1355.8191,0.048637
1356.7510,0.048733
1357.6828,0.048398
1358.6146,0.048220
1359.5465,0.048045
1360.4783,0.047998
1361.4101,0.048550
1362.3420,0.049084
1363.2738,0.049616
1364.2056,0.050257
1365.1375,0.049646
1366.0693,0.049167
1367.0012,0.049482
1367.9330,0.050217
1368.8648,0.050931
1369.7967,0.051331
1370.7285,0.051683
1371.6603,0.052303
1372.5922,0.053023
1373.5240,0.054352
1374.4558,0.056466
1375.3877,0.058253
1376.3195,0.058768
1377.2513,0.058968
1378.1832,0.059367
1379.1150,0.060296
1380.0468,0.060976
1380.9787,0.061187
1381.9105,0.061274
1382.8423,0.061628
1383.7742,0.061868
1384.7060,0.061847
1385.6378,0.061748
1386.5697,0.061725
1387.5015,0.062390
1388.4333,0.063301
1389.3652,0.062303
1390.2970,0.060827
1391.2288,0.060119
1392.1607,0.059883
1393.0925,0.059368
1394.0244,0.059031
1394.9562,0.059586
1395.8880,0.059922
1396.8199,0.059282
1397.7517,0.058982
1398.6835,0.059477
1399.6154,0.060489
1400.5472,0.060605
1401.4790,0.059665
1402.4109,0.059368
1403.3427,0.059690
1404.2745,0.060021
1405.2064,0.060831
1406.1382,0.061483
1407.0700,0.060914
1408.0019,0.060700
1408.9337,0.060945
1409.8655,0.061164
1410.7974,0.061667
1411.7292,0.061818
1412.6610,0.061635
1413.5929,0.061201
1414.5247,0.060798
1415.4565,0.060589
1416.3884,0.060546
1417.3202,0.060704
1418.2520,0.061222
1419.1839,0.061588
1420.1157,0.062777
1421.0476,0.061863
1421.9794,0.060313
1422.9112,0.060069
1423.8431,0.060061
1424.7749,0.060404
1425.7067,0.059627
1426.6386,0.058774
1427.5704,0.058206
1428.5022,0.057643
1429.4341,0.057555
1430.3659,0.057814
1431.2977,0.057730
1432.2296,0.056823
1433.1614,0.056050
1434.0932,0.055296
1435.0251,0.054684
1435.9569,0.054690
1436.8887,0.055629
1437.8206,0.056579
1438.7524,0.055380
1439.6842,0.054390
1440.6161,0.054001
1441.5479,0.053773
1442.4797,0.053993
1443.4116,0.054149
1444.3434,0.054323
1445.2752,0.054597
1446.2071,0.054953
1447.1389,0.055541
1448.0707,0.056911
1449.0026,0.058999
1449.9344,0.059204
1450.8663,0.058469
1451.7981,0.058630
1452.7299,0.058845
1453.6618,0.058209
1454.5936,0.057742
1455.5254,0.058005
1456.4573,0.058328
1457.3891,0.059447
1458.3209,0.058710
1459.2528,0.055953
1460.1846,0.054107
1461.1164,0.052402
1462.0483,0.051107
1462.9801,0.050239
1463.9119,0.049429
1464.8438,0.048813
1465.7756,0.048684
1466.7074,0.047297
1467.6393,0.046122
1468.5711,0.045712
1469.5029,0.045235
1470.4348,0.044876
1471.3666,0.044748
1472.2984,0.045295
1473.2303,0.045809
1474.1621,0.045519
1475.0939,0.044864
1476.0258,0.044787
1476.9576,0.045901
1477.8895,0.045724
1478.8213,0.045150
1479.7531,0.045621
1480.6850,0.045813
1481.6168,0.045820
1482.5486,0.045975
1483.4805,0.045743
1484.4123,0.045307
1485.3441,0.045038
1486.2760,0.045101
1487.2078,0.045366
1488.1396,0.045744
1489.0715,0.045423
1490.0033,0.045466
1490.9351,0.045917
1491.8670,0.044441
1492.7988,0.042741
1493.7306,0.042220
1494.6625,0.041846
1495.5943,0.041640
1496.5261,0.042467
1497.4580,0.043000
1498.3898,0.042051
1499.3216,0.042220
1500.2535,0.042270
1501.1853,0.041718
1502.1171,0.041744
1503.0490,0.041140
1503.9808,0.040111
1504.9127,0.040026
1505.8445,0.040914
1506.7763,0.042656
1507.7082,0.044544
1508.6400,0.043454
1509.5718,0.041808
1510.5037,0.041631
1511.4355,0.041473
1512.3673,0.041425
1513.2992,0.042059
1514.2310,0.041544
1515.1628,0.041098
1516.0947,0.041221
1517.0265,0.041832
1517.9583,0.042776
1518.8902,0.041314
1519.8220,0.040382
1520.7538,0.041726
1521.6857,0.043372
1522.6175,0.043293
1523.5493,0.042354
1524.4812,0.041834
1525.4130,0.042499
1526.3448,0.043363
1527.2767,0.042430
1528.2085,0.042348
1529.1403,0.042804
1530.0722,0.042437
1531.0040,0.041954
1531.9359,0.042374
1532.8677,0.043270
1533.7995,0.044457
1534.7314,0.044765
1535.6632,0.042735
1536.5950,0.041906
1537.5269,0.041892
1538.4587,0.042237
1539.3905,0.043649
1540.3224,0.045831
1541.2542,0.045910
1542.1860,0.044350
1543.1179,0.044654
1544.0497,0.045037
1544.9815,0.045209
1545.9134,0.045809
1546.8452,0.045286
1547.7770,0.044565
1548.7089,0.044734
1549.6407,0.045232
1550.5725,0.046283
1551.5044,0.046601
1552.4362,0.046003
1553.3680,0.045594
1554.2999,0.045816
1555.2317,0.046751
1556.1635,0.045719
1557.0954,0.044800
1558.0272,0.046044
1558.9591,0.048947
1559.8909,0.053127
1560.8227,0.053698
1561.7546,0.050883
1562.6864,0.049341
1563.6182,0.049161
1564.5501,0.049223
1565.4819,0.049968
1566.4137,0.050156
1567.3456,0.049432
1568.2774,0.049798
1569.2092,0.051252
1570.1411,0.053388
1571.0729,0.054502
1572.0047,0.053094
1572.9366,0.052215
1573.8684,0.052273
1574.8002,0.053128
1575.7321,0.054547
1576.6639,0.056928
1577.5957,0.058286
1578.5276,0.057171
1579.4594,0.057201
1580.3912,0.057907
1581.3231,0.058618
1582.2549,0.059098
1583.1867,0.059522
1584.1186,0.060286
1585.0504,0.061361
1585.9822,0.062102
1586.9141,0.062594
1587.8459,0.063587
1588.7778,0.064498
1589.7096,0.065265
1590.6414,0.066046
1591.5733,0.066807
1592.5051,0.068221
1593.4369,0.069339
1594.3688,0.070018
1595.3006,0.071594
1596.2324,0.073038
1597.1643,0.073852
1598.0961,0.074926
1599.0279,0.076308
1599.9598,0.077570
1600.8916,0.078745
1601.8234,0.080263
1602.7553,0.081913
1603.6871,0.083494
1604.6189,0.085098
1605.5508,0.086425
1606.4826,0.087975
1607.4144,0.089996
1608.3463,0.091822
1609.2781,0.093446
1610.2099,0.095771
1611.1418,0.098202
1612.0736,0.099877
1613.0054,0.100876
1613.9373,0.102044
1614.8691,0.103834
1615.8010,0.105869
1616.7328,0.109847
1617.6646,0.116942
1618.5965,0.119943
1619.5283,0.118417
1620.4601,0.118614
1621.3920,0.120400
1622.3238,0.122750
1623.2556,0.125690
1624.1875,0.129770
1625.1193,0.132837
1626.0511,0.132320
1626.9830,0.132167
1627.9148,0.134724
1628.8466,0.138669
1629.7785,0.140088
1630.7103,0.139504
1631.6421,0.138936
1632.5740,0.138671
1633.5058,0.139402
1634.4376,0.140956
1635.3695,0.144386
1636.3013,0.151208
1637.2331,0.154185
1638.1650,0.151894
1639.0968,0.150326
1640.0286,0.148525
1640.9605,0.146962
1641.8923,0.145759
1642.8242,0.144857
1643.7560,0.144146
1644.6878,0.142722
1645.6197,0.142046
1646.5515,0.144338
1647.4833,0.146334
1648.4152,0.144267
1649.3470,0.141465
1650.2788,0.138335
1651.2107,0.135970
1652.1425,0.135459
1653.0743,0.137996
1654.0062,0.144701
1654.9380,0.145048
1655.8698,0.137839
1656.8017,0.132713
1657.7335,0.129917
1658.6653,0.127731
1659.5972,0.126025
1660.5290,0.124784
1661.4608,0.123205
1662.3927,0.121777
1663.3245,0.121227
1664.2563,0.119380
1665.1882,0.115894
1666.1200,0.113443
1667.0518,0.111773
1667.9837,0.110058
1668.9155,0.108960
1669.8474,0.109140
1670.7792,0.107546
1671.7110,0.104024
1672.6429,0.101905
1673.5747,0.100207
1674.5065,0.098682
1675.4384,0.098381
1676.3702,0.097808
1677.3020,0.094106
1678.2339,0.091083
1679.1657,0.089196
1680.0975,0.087744
1681.0294,0.086260
1681.9612,0.084069
1682.8930,0.082375
1683.8249,0.082250
1684.7567,0.082547
1685.6885,0.079784
1686.6204,0.075996
1687.5522,0.074330
1688.4840,0.073474
1689.4159,0.072402
1690.3477,0.070418
1691.2795,0.068220
1692.2114,0.066429
1693.1432,0.065324
1694.0750,0.063840
1695.0069,0.062166
1695.9387,0.061832
1696.8706,0.061710
1697.8024,0.058154
1698.7342,0.055904
1699.6661,0.055938
1700.5979,0.056687
1701.5297,0.055288
1702.4616,0.051353
1703.3934,0.049997
1704.3252,0.049763
1705.2571,0.049442
1706.1889,0.048217
1707.1207,0.047244
1708.0526,0.046106
1708.9844,0.044633
1709.9162,0.043730
1710.8481,0.042969
1711.7799,0.041945
1712.7117,0.040483
1713.6436,0.039521
1714.5754,0.039278
1715.5072,0.039177
1716.4391,0.038035
1717.3709,0.036915
1718.3027,0.036520
1719.2346,0.034958
1720.1664,0.033511
1721.0982,0.033135
1722.0301,0.032855
1722.9619,0.032666
1723.8937,0.032533
1724.8256,0.031876
1725.7574,0.030862
1726.6893,0.030688
1727.6211,0.030525
1728.5529,0.029560
1729.4848,0.028608
1730.4166,0.028263
1731.3484,0.027884
1732.2803,0.027206
1733.2121,0.027202
1734.1439,0.027379
1735.0758,0.026435
1736.0076,0.024599
1736.9394,0.024467
1737.8713,0.024545
1738.8031,0.024189
1739.7349,0.024446
1740.6668,0.024581
1741.5986,0.022716
1742.5304,0.022416
1743.4623,0.023337
1744.3941,0.023478
1745.3259,0.023126
1746.2578,0.023064
1747.1896,0.022553
1748.1214,0.021541
1749.0533,0.020951
1749.9851,0.020899
1750.9169,0.020301
1751.8488,0.020132
1752.7806,0.020047
1753.7125,0.019186
1754.6443,0.018855
1755.5761,0.019190
1756.5080,0.019718
1757.4398,0.019857
1758.3716,0.019203
1759.3035,0.018787
1760.2353,0.018740
1761.1671,0.018230
1762.0990,0.018069
1763.0308,0.018000
1763.9626,0.017462
1764.8945,0.017229
1765.8263,0.017242
1766.7581,0.017017
1767.6900,0.017063
1768.6218,0.017366
1769.5536,0.016668
1770.4855,0.015820
1771.4173,0.016079
1772.3491,0.016323
1773.2810,0.016005
1774.2128,0.015280
1775.1446,0.014790
1776.0765,0.014982
1777.0083,0.015037
1777.9401,0.014828
1778.8720,0.014708
1779.8038,0.015117
1780.7357,0.015759
1781.6675,0.015436
1782.5993,0.014362
1783.5312,0.014275
1784.4630,0.014450
1785.3948,0.014300
1786.3267,0.013865
1787.2585,0.013647
1788.1903,0.013867
1789.1222,0.013756
1790.0540,0.013599
1790.9858,0.013655
1791.9177,0.013839
1792.8495,0.014469
1793.7813,0.014462
1794.7132,0.012925
1795.6450,0.012826
1796.5768,0.013468
1797.5087,0.013087
1798.4405,0.012693
1799.3723,0.012866
1800.3042,0.013064
1801.2360,0.012603
1802.1678,0.012226
1803.0997,0.011839
1804.0315,0.011896
1804.9633,0.012575
1805.8952,0.012684
1806.8270,0.012421
1807.7589,0.012493
1808.6907,0.012957
1809.6225,0.012478
1810.5544,0.011774
1811.4862,0.011892
1812.4180,0.011880
1813.3499,0.011198
1814.2817,0.010938
1815.2135,0.011163
1816.1454,0.011463
1817.0772,0.011849
1818.0090,0.012005
1818.9409,0.011588
1819.8727,0.011387
1820.8045,0.011426
1821.7364,0.011101
1822.6682,0.011315
1823.6000,0.011837
1824.5319,0.011376
1825.4637,0.010912
1826.3955,0.010970
1827.3274,0.010546
1828.2592,0.010580
1829.1910,0.011106
1830.1229,0.011715
1831.0547,0.011703
1831.9865,0.010849
1832.9184,0.010398
1833.8502,0.009740
1834.7821,0.009883
1835.7139,0.011103
1836.6457,0.011184
1837.5776,0.010390
1838.5094,0.009693
1839.4412,0.009637
1840.3731,0.009811
1841.3049,0.010277
1842.2367,0.010578
1843.1686,0.010152
1844.1004,0.009687
1845.0322,0.010015
1845.9641,0.010002
1846.8959,0.009284
1847.8277,0.009272
1848.7596,0.009314
1849.6914,0.009021
1850.6232,0.009393
1851.5551,0.010231
1852.4869,0.010675
1853.4187,0.010390
1854.3506,0.009762
1855.2824,0.009699
1856.2142,0.009855
1857.1461,0.010155
1858.0779,0.010463
1859.0097,0.010123
1859.9416,0.009385
1860.8734,0.009404
1861.8052,0.009852
1862.7371,0.009953
1863.6689,0.009842
1864.6008,0.009515
1865.5326,0.010264
1866.4644,0.010668
1867.3963,0.010095
1868.3281,0.009978
1869.2599,0.009887
1870.1918,0.008767
1871.1236,0.007883
1872.0554,0.007798
1872.9873,0.007995
1873.9191,0.008773
1874.8509,0.008577
1875.7828,0.008147
1876.7146,0.008392
1877.6464,0.008878
1878.5783,0.009079
1879.5101,0.008942
1880.4419,0.009476
1881.3738,0.009792
1882.3056,0.009938
1883.2374,0.009282
1884.1693,0.009027
1885.1011,0.009990
1886.0329,0.011005
1886.9648,0.010618
1887.8966,0.009382
1888.8284,0.009061
1889.7603,0.008801
1890.6921,0.008041
1891.6240,0.008386
1892.5558,0.009758
1893.4876,0.009765
1894.4195,0.009109
1895.3513,0.008984
1896.2831,0.008198
1897.2150,0.007336
1898.1468,0.007533
1899.0786,0.007968
1900.0105,0.009383
1900.9423,0.009864
1901.8741,0.009566
1902.8060,0.009662
1903.7378,0.009965
1904.6696,0.010519
1905.6015,0.010921
1906.5333,0.010530
1907.4651,0.009713
1908.3970,0.009350
1909.3288,0.010181
1910.2606,0.010446
1911.1925,0.009593
1912.1243,0.009246
1913.0561,0.009603
1913.9880,0.009854
1914.9198,0.009151
1915.8516,0.008328
1916.7835,0.008403
1917.7153,0.009112
1918.6472,0.010027
1919.5790,0.009408
1920.5108,0.009204
1921.4427,0.008468
1922.3745,0.007208
1923.3063,0.009308
1924.2382,0.009120
1925.1700,0.008302
1926.1018,0.009412
1927.0337,0.010466
1927.9655,0.010627
1928.8973,0.010150
1929.8292,0.008322
1930.7610,0.005666
1931.6928,0.006030
1932.6247,0.007965
1933.5565,0.008223
1934.4883,0.008905
1935.4202,0.009199
1936.3520,0.006848
1937.2838,0.007440
1938.2157,0.008755
1939.1475,0.008396
1940.0793,0.007846
1941.0112,0.006959
1941.9430,0.008024
1942.8748,0.010171
1943.8067,0.008430
1944.7385,0.005525
1945.6704,0.005288
1946.6022,0.006181
1947.5340,0.007800
1948.4659,0.008729
1949.3977,0.009147
1950.3295,0.008188
1951.2614,0.006771
1952.1932,0.006995
1953.1250,0.007247
1954.0569,0.006423
1954.9887,0.007976
1955.9205,0.008721
1956.8524,0.007790
1957.7842,0.007980
1958.7160,0.007989
1959.6479,0.006874
1960.5797,0.003546
1961.5115,0.001177
1962.4434,0.002870
1963.3752,0.005444
1964.3070,0.005161
1965.2389,0.004115
1966.1707,0.003106
1967.1025,0.006255
1968.0344,0.010769
1968.9662,0.007912
1969.8980,0.003160
1970.8299,0.001059
1971.7617,-0.000228
1972.6936,0.001346
1973.6254,0.002730
1974.5572,0.003768
1975.4891,0.002408
1976.4209,0.000936
1977.3527,0.004134
1978.2846,0.003650
1979.2164,-0.000278
1980.1482,0.000938
1981.0801,0.005238
1982.0119,0.004105
1982.9437,0.001508
1983.8756,0.005061
1984.8074,0.006793
1985.7392,0.004142
1986.6711,0.003774
1987.6029,0.005211
1988.5347,0.006888
1989.4666,0.005292
1990.3984,0.002620
1991.3302,0.003622
1992.2621,0.004799
1993.1939,0.004839
1994.1257,0.006293
1995.0576,0.006766
1995.9894,0.006331
1996.9212,0.005783
1997.8531,0.005978
1998.7849,0.006969
1999.7167,0.009875
2000.6486,0.009509
2001.5804,0.006209
2002.5123,0.004739
2003.4441,0.004928
2004.3759,0.006370
2005.3078,0.008071
2006.2396,0.007618
2007.1714,0.004938
2008.1033,0.005803
2009.0351,0.006195
2009.9669,0.002713
2010.8988,0.004669
2011.8306,0.006390
2012.7624,0.008554
2013.6943,0.008478
2014.6261,0.006659
2015.5579,0.006473
2016.4898,0.006208
2017.4216,0.004376
2018.3534,0.002598
2019.2853,0.001210
2020.2171,0.001085
2021.1489,0.004736
2022.0808,0.008575
2023.0126,0.008965
2023.9444,0.007891
2024.8763,0.006078
2025.8081,0.007003
2026.7399,0.009091
2027.6718,0.009553
2028.6036,0.005300
2029.5355,0.001477
2030.4673,0.001315
2031.3991,0.002485
2032.3310,0.003541
2033.2628,0.004407
2034.1946,0.005299
2035.1265,0.006824
2036.0583,0.007770
2036.9901,0.007145
2037.9220,0.005913
2038.8538,0.003074
2039.7856,0.001329
2040.7175,0.005191
2041.6493,0.006613
2042.5811,0.004869
2043.5130,0.006951
2044.4448,0.008095
2045.3766,0.006600
2046.3085,0.005548
2047.2403,0.005957
2048.1721,0.008166
2049.1040,0.008506
2050.0358,0.008606
2050.9676,0.008155
2051.8995,0.007782
2052.8313,0.009383
2053.7631,0.010328
2054.6950,0.011295
2055.6268,0.011993
2056.5587,0.010277
2057.4905,0.010327
2058.4223,0.013202
2059.3542,0.012805
2060.2860,0.011017
2061.2178,0.010348
2062.1497,0.010508
2063.0815,0.012462
2064.0133,0.013074
2064.9452,0.013510
2065.8770,0.013034
2066.8088,0.012567
2067.7407,0.011978
2068.6725,0.012365
2069.6043,0.012945
2070.5362,0.012822
2071.4680,0.011954
2072.3998,0.012640
2073.3317,0.012482
2074.2635,0.011920
2075.1953,0.012317
2076.1272,0.014469
2077.0590,0.014448
2077.9908,0.012263
2078.9227,0.011726
2079.8545,0.013052
2080.7863,0.013822
2081.7182,0.013833
2082.6500,0.013854
2083.5819,0.013260
2084.5137,0.013650
2085.4455,0.013954
2086.3774,0.013725
2087.3092,0.013417
2088.2410,0.013796
2089.1729,0.014122
2090.1047,0.013740
2091.0365,0.012564
2091.9684,0.012016
2092.9002,0.012765
2093.8320,0.013699
2094.7639,0.012412
2095.6957,0.012385
2096.6275,0.013919
2097.5594,0.015267
2098.4912,0.014189
2099.4230,0.012224
2100.3549,0.012296
2101.2867,0.013348
2102.2185,0.013441
2103.1504,0.013049
2104.0822,0.012092
2105.0140,0.012372
2105.9459,0.012538
2106.8777,0.012133
2107.8095,0.012307
2108.7414,0.013795
2109.6732,0.015603
2110.6051,0.015413
2111.5369,0.014065
2112.4687,0.013369
2113.4006,0.014187
2114.3324,0.013424
2115.2642,0.013701
2116.1961,0.015378
2117.1279,0.016097
2118.0597,0.015330
2118.9916,0.014521
2119.9234,0.012519
2120.8552,0.012716
2121.7871,0.013646
2122.7189,0.013367
2123.6507,0.013617
2124.5826,0.013326
2125.5144,0.015290
2126.4462,0.015587
2127.3781,0.013820
2128.3099,0.013809
2129.2417,0.015295
2130.1736,0.013496
2131.1054,0.012889
2132.0372,0.013544
2132.9691,0.012981
2133.9009,0.012816
2134.8327,0.013938
2135.7646,0.013949
2136.6964,0.013669
2137.6282,0.012970
2138.5601,0.012137
2139.4919,0.012259
2140.4238,0.012393
2141.3556,0.011257
2142.2874,0.010255
2143.2193,0.010420
2144.1511,0.009507
2145.0829,0.009677
2146.0148,0.010268
2146.9466,0.011373
2147.8784,0.013555
2148.8103,0.012401
2149.7421,0.007887
2150.6739,0.010215
2151.6058,0.015547
2152.5376,0.014627
2153.4694,0.010873
2154.4013,0.009836
2155.3331,0.008843
2156.2649,0.006509
2157.1968,0.004041
2158.1286,0.001737
2159.0604,0.004856
2159.9923,0.003620
2160.9241,0.002290
2161.8559,0.004872
2162.7878,0.007068
2163.7196,0.007169
2164.6514,0.007402
2165.5833,0.009210
2166.5151,0.006049
2167.4470,0.004436
2168.3788,0.002627
2169.3106,0.001805
2170.2425,0.002707
2171.1743,0.005371
2172.1061,0.008370
2173.0380,0.008330
2173.9698,0.008930
2174.9016,0.010980
2175.8335,0.010691
2176.7653,0.011495
2177.6971,0.010134
2178.6290,0.006525
2179.5608,0.007017
2180.4926,0.007288
2181.4245,0.007786
2182.3563,0.010305
2183.2881,0.011081
2184.2200,0.008181
2185.1518,0.007417
2186.0836,0.007684
2187.0155,0.007665
2187.9473,0.008156
2188.8791,0.009388
2189.8110,0.009756
2190.7428,0.009628
2191.6746,0.008582
2192.6065,0.006445
2193.5383,0.006720
2194.4702,0.011279
2195.4020,0.011024
2196.3338,0.009466
2197.2657,0.009941
2198.1975,0.010458
2199.1293,0.010381
2200.0612,0.010433
2200.9930,0.009147
2201.9248,0.007927
2202.8567,0.009671
2203.7885,0.010308
2204.7203,0.010179
2205.6522,0.009784
2206.5840,0.011058
2207.5158,0.011772
2208.4477,0.009980
2209.3795,0.007547
2210.3113,0.006974
2211.2432,0.010179
2212.1750,0.011632
2213.1068,0.010785
2214.0387,0.008317
2214.9705,0.008665
2215.9023,0.010350
2216.8342,0.009522
2217.7660,0.008287
2218.6978,0.010628
2219.6297,0.011240
2220.5615,0.008583
2221.4934,0.008821
2222.4252,0.011580
2223.3570,0.011236
2224.2889,0.010527
2225.2207,0.009658
2226.1525,0.010645
2227.0844,0.010662
2228.0162,0.009227
2228.9480,0.010236
2229.8799,0.011065
2230.8117,0.009479
2231.7435,0.007578
2232.6754,0.006990
2233.6072,0.006989
2234.5390,0.008776
2235.4709,0.009035
2236.4027,0.008309
2237.3345,0.008364
2238.2664,0.007818
2239.1982,0.008919
2240.1300,0.008636
2241.0619,0.008064
2241.9937,0.008306
2242.9255,0.009059
2243.8574,0.009328
2244.7892,0.009366
2245.7210,0.010012
2246.6529,0.009841
2247.5847,0.009588
2248.5166,0.010297
2249.4484,0.009945
2250.3802,0.009794
2251.3121,0.010671
2252.2439,0.010140
2253.1757,0.009216
2254.1076,0.008853
2255.0394,0.009620
2255.9712,0.010498
2256.9031,0.010133
2257.8349,0.010633
2258.7667,0.011182
2259.6986,0.011136
2260.6304,0.009523
2261.5622,0.008463
2262.4941,0.009645
2263.4259,0.010979
2264.3577,0.009373
2265.2896,0.007885
2266.2214,0.008182
2267.1532,0.008380
2268.0851,0.009474
2269.0169,0.010522
2269.9487,0.010038
2270.8806,0.009821
2271.8124,0.009973
2272.7442,0.009765
2273.6761,0.009647
2274.6079,0.009633
2275.5397,0.008679
2276.4716,0.008036
2277.4034,0.008687
2278.3353,0.010193
2279.2671,0.010274
2280.1989,0.009859
2281.1308,0.010060
2282.0626,0.008873
2282.9944,0.008359
2283.9263,0.008938
2284.8581,0.008710
2285.7899,0.008800
2286.7218,0.008724
2287.6536,0.008610
2288.5854,0.009258
2289.5173,0.008688
2290.4491,0.008695
2291.3809,0.009236
2292.3128,0.009335
2293.2446,0.009864
2294.1764,0.010031
2295.1083,0.010655
2296.0401,0.011171
2296.9719,0.010104
2297.9038,0.009374
2298.8356,0.009643
2299.7674,0.009588
2300.6993,0.009226
2301.6311,0.010066
2302.5629,0.010215
2303.4948,0.009395
2304.4266,0.009554
2305.3585,0.009856
2306.2903,0.009477
2307.2221,0.009455
2308.1540,0.010321
2309.0858,0.009808
2310.0176,0.009346
2310.9495,0.009406
2311.8813,0.008616
2312.8131,0.008809
2313.7450,0.009655
2314.6768,0.009498
2315.6086,0.009691
2316.5405,0.010189
2317.4723,0.010106
2318.4041,0.008882
2319.3360,0.008758
2320.2678,0.009098
2321.1996,0.009310
2322.1315,0.009288
2323.0633,0.009504
2323.9951,0.009364
2324.9270,0.008996
2325.8588,0.009037
2326.7906,0.008742
2327.7225,0.008578
2328.6543,0.008503
2329.5861,0.008808
2330.5180,0.010120
2331.4498,0.009901
2332.3817,0.008515
2333.3135,0.008571
2334.2453,0.009244
2335.1772,0.008713
2336.1090,0.009153
2337.0408,0.009180
2337.9727,0.009014
2338.9045,0.008906
2339.8363,0.007521
2340.7682,0.007028
2341.7000,0.007715
2342.6318,0.008068
2343.5637,0.007723
2344.4955,0.008336
2345.4273,0.008905
2346.3592,0.008321
2347.2910,0.007546
2348.2228,0.007738
2349.1547,0.008337
2350.0865,0.008196
2351.0183,0.007795
2351.9502,0.008205
2352.8820,0.008893
2353.8138,0.008565
2354.7457,0.008041
2355.6775,0.007600
2356.6093,0.007956
2357.5412,0.008666
2358.4730,0.008190
2359.4049,0.008092
2360.3367,0.007883
2361.2685,0.007272
2362.2004,0.007831
2363.1322,0.008850
2364.0640,0.008749
2364.9959,0.008071
2365.9277,0.006528
2366.8595,0.005701
2367.7914,0.006314
2368.7232,0.007667
2369.6550,0.007743
2370.5869,0.006850
2371.5187,0.007121
2372.4505,0.006326
2373.3824,0.005548
2374.3142,0.007251
2375.2460,0.007535
2376.1779,0.006391
2377.1097,0.006277
2378.0415,0.007358
2378.9734,0.007899
2379.9052,0.007370
2380.8370,0.006883
2381.7689,0.007401
2382.7007,0.007640
2383.6325,0.007745
2384.5644,0.007627
2385.4962,0.007402
2386.4281,0.007115
2387.3599,0.007488
2388.2917,0.007622
2389.2236,0.006761
2390.1554,0.007042
2391.0872,0.007260
2392.0191,0.007170
2392.9509,0.007103
2393.8827,0.007188
2394.8146,0.007132
2395.7464,0.007569
2396.6782,0.007741
2397.6101,0.007227
2398.5419,0.006626
2399.4737,0.006577
2400.4056,0.006398
2401.3374,0.006960
2402.2692,0.007138
2403.2011,0.006685
2404.1329,0.006397
2405.0647,0.006336
2405.9966,0.006454
2406.9284,0.006487
2407.8602,0.006996
2408.7921,0.007762
2409.7239,0.007453
2410.6557,0.006641
2411.5876,0.005807
2412.5194,0.005911
2413.4512,0.007056
2414.3831,0.007530
2415.3149,0.007028
2416.2468,0.006918
2417.1786,0.007230
2418.1104,0.006678
2419.0423,0.005902
2419.9741,0.006216
2420.9059,0.006209
2421.8378,0.006335
2422.7696,0.006996
2423.7014,0.007392
2424.6333,0.007021
2425.5651,0.006007
2426.4969,0.005564
2427.4288,0.005738
2428.3606,0.005640
2429.2924,0.006162
2430.2243,0.006363
2431.1561,0.005528
2432.0879,0.004977
2433.0198,0.005483
2433.9516,0.006673
2434.8834,0.007279
2435.8153,0.007228
2436.7471,0.006763
2437.6789,0.005959
2438.6108,0.005482
2439.5426,0.005624
2440.4744,0.005038
2441.4063,0.004396
2442.3381,0.005198
2443.2700,0.006055
2444.2018,0.006060
2445.1336,0.005521
2446.0655,0.004323
2446.9973,0.004751
2447.9291,0.005397
2448.8610,0.004962
2449.7928,0.005480
2450.7246,0.006809
2451.6565,0.007129
2452.5883,0.006551
2453.5201,0.005966
2454.4520,0.006173
2455.3838,0.006239
2456.3156,0.005233
2457.2475,0.004976
2458.1793,0.006048
2459.1111,0.005639
2460.0430,0.004394
2460.9748,0.004184
2461.9066,0.004600
2462.8385,0.005545
2463.7703,0.006040
2464.7021,0.005610
2465.6340,0.005519
2466.5658,0.006151
2467.4976,0.005824
2468.4295,0.004898
2469.3613,0.004849
2470.2932,0.004953
2471.2250,0.005338
2472.1568,0.005570
2473.0887,0.005376
2474.0205,0.005006
2474.9523,0.004774
2475.8842,0.004484
2476.8160,0.005142
2477.7478,0.006356
2478.6797,0.005721
2479.6115,0.005355
2480.5433,0.005709
2481.4752,0.005861
2482.4070,0.005922
2483.3388,0.005326
2484.2707,0.004870
2485.2025,0.006079
2486.1343,0.007109
2487.0662,0.006670
2487.9980,0.005483
2488.9298,0.005306
2489.8617,0.005962
2490.7935,0.006050
2491.7253,0.005851
2492.6572,0.004778
2493.5890,0.003870
2494.5208,0.004421
2495.4527,0.004621
2496.3845,0.004812
2497.3164,0.005540
2498.2482,0.005935
2499.1800,0.005857
2500.1119,0.005153
2501.0437,0.004789
2501.9755,0.005362
2502.9074,0.005076
2503.8392,0.004481
2504.7710,0.004685
2505.7029,0.005390
2506.6347,0.005744
2507.5665,0.005608
2508.4984,0.005095
2509.4302,0.004885
2510.3620,0.005184
2511.2939,0.005155
2512.2257,0.005029
2513.1575,0.005183
2514.0894,0.005298
2515.0212,0.005099
2515.9530,0.005151
2516.8849,0.004549
2517.8167,0.003552
2518.7485,0.003863
2519.6804,0.004852
2520.6122,0.005117
2521.5440,0.005064
2522.4759,0.005177
2523.4077,0.004927
2524.3396,0.005014
2525.2714,0.005554
2526.2032,0.005207
2527.1351,0.004717
2528.0669,0.004439
2528.9987,0.004223
2529.9306,0.004934
2530.8624,0.004642
2531.7942,0.004060
2532.7261,0.004160
2533.6579,0.004468
2534.5897,0.004244
2535.5216,0.004354
2536.4534,0.005038
2537.3852,0.005054
2538.3171,0.005346
2539.2489,0.005673
2540.1807,0.005373
2541.1126,0.005104
2542.0444,0.004614
2542.9762,0.004744
2543.9081,0.005125
2544.8399,0.004778
2545.7717,0.004000
2546.7036,0.004318
2547.6354,0.004271
2548.5672,0.003466
2549.4991,0.004336
2550.4309,0.005316
2551.3627,0.005010
2552.2946,0.004444
2553.2264,0.003902
2554.1583,0.004137
2555.0901,0.004835
2556.0219,0.004639
2556.9538,0.004277
2557.8856,0.004311
2558.8174,0.004368
2559.7493,0.005009
2560.6811,0.005159
2561.6129,0.004574
2562.5448,0.003946
2563.4766,0.004010
2564.4084,0.004078
2565.3403,0.003124
2566.2721,0.002543
2567.2039,0.003490
2568.1358,0.004757
2569.0676,0.005180
2569.9994,0.004508
2570.9313,0.003890
2571.8631,0.003966
2572.7949,0.004653
2573.7268,0.004580
2574.6586,0.004047
2575.5904,0.004085
2576.5223,0.004178
2577.4541,0.004385
2578.3859,0.004905
2579.3178,0.005516
2580.2496,0.005860
2581.1815,0.004980
2582.1133,0.003249
2583.0451,0.002360
2583.9770,0.002827
2584.9088,0.002753
2585.8406,0.002899
2586.7725,0.003940
2587.7043,0.004879
2588.6361,0.005393
2589.5680,0.005356
2590.4998,0.005003
2591.4316,0.004614
2592.3635,0.004346
2593.2953,0.004618
2594.2271,0.004494
2595.1590,0.003831
2596.0908,0.003931
2597.0226,0.004630
2597.9545,0.004685
2598.8863,0.004557
2599.8181,0.004587
2600.7500,0.004675
2601.6818,0.004646
2602.6136,0.005020
2603.5455,0.005153
2604.4773,0.004831
2605.4091,0.004722
2606.3410,0.004332
2607.2728,0.004306
2608.2047,0.004876
2609.1365,0.004607
2610.0683,0.003861
2611.0002,0.003705
2611.9320,0.004235
2612.8638,0.004372
2613.7957,0.004065
2614.7275,0.004214
2615.6593,0.004205
2616.5912,0.004150
2617.5230,0.004789
2618.4548,0.005384
2619.3867,0.005882
2620.3185,0.005621
2621.2503,0.004551
2622.1822,0.004730
2623.1140,0.005023
2624.0458,0.004203
2624.9777,0.004498
2625.9095,0.005062
2626.8413,0.004805
2627.7732,0.004825
2628.7050,0.005034
2629.6368,0.004971
2630.5687,0.005177
2631.5005,0.005743
2632.4323,0.005830
2633.3642,0.005245
2634.2960,0.005016
2635.2279,0.004973
2636.1597,0.004795
2637.0915,0.005094
2638.0234,0.005843
2638.9552,0.005918
2639.8870,0.005779
2640.8189,0.005348
2641.7507,0.004772
2642.6825,0.005248
2643.6144,0.005580
2644.5462,0.005350
2645.4780,0.005560
2646.4099,0.005389
2647.3417,0.005346
2648.2735,0.005867
2649.2054,0.005919
2650.1372,0.005699
2651.0690,0.005846
2652.0009,0.005972
2652.9327,0.006038
2653.8645,0.006015
2654.7964,0.005876
2655.7282,0.005893
2656.6600,0.006067
2657.5919,0.006382
2658.5237,0.006571
2659.4555,0.006311
2660.3874,0.005973
2661.3192,0.005873
2662.2511,0.006375
2663.1829,0.006655
2664.1147,0.006167
2665.0466,0.005686
2665.9784,0.005907
2666.9102,0.006599
2667.8421,0.006531
2668.7739,0.005988
2669.7057,0.006343
2670.6376,0.006651
2671.5694,0.006449
2672.5012,0.006589
2673.4331,0.006653
2674.3649,0.006431
2675.2967,0.006618
2676.2286,0.007074
2677.1604,0.007012
2678.0922,0.006708
2679.0241,0.006752
2679.9559,0.006891
2680.8877,0.007117
2681.8196,0.007040
2682.7514,0.007004
2683.6832,0.007135
2684.6151,0.007342
2685.5469,0.007624
2686.4787,0.007484
2687.4106,0.007171
2688.3424,0.007174
2689.2742,0.007265
2690.2061,0.007144
2691.1379,0.006881
2692.0698,0.007139
2693.0016,0.007413
2693.9334,0.007565
2694.8653,0.007619
2695.7971,0.007468
2696.7289,0.007641
2697.6608,0.007755
2698.5926,0.007456
2699.5244,0.007601
2700.4563,0.007958
2701.3881,0.007786
2702.3199,0.007817
2703.2518,0.008140
2704.1836,0.008168
2705.1154,0.008112
2706.0473,0.007906
2706.9791,0.007871
2707.9109,0.008252
2708.8428,0.008639
2709.7746,0.008688
2710.7064,0.008710
2711.6383,0.008692
2712.5701,0.008525
2713.5019,0.007999
2714.4338,0.007959
2715.3656,0.008148
2716.2974,0.008292
2717.2293,0.008857
2718.1611,0.009137
2719.0930,0.009370
2720.0248,0.009736
2720.9566,0.009482
2721.8885,0.009145
2722.8203,0.009227
2723.7521,0.009146
2724.6840,0.008924
2725.6158,0.009264
2726.5476,0.009516
2727.4795,0.009255
2728.4113,0.009039
2729.3431,0.009365
2730.2750,0.009922
2731.2068,0.010094
2732.1386,0.009843
2733.0705,0.009349
2734.0023,0.009490
2734.9341,0.010009
2735.8660,0.009888
2736.7978,0.010148
2737.7296,0.010365
2738.6615,0.010210
2739.5933,0.010260
2740.5251,0.010366
2741.4570,0.010167
2742.3888,0.010147
2743.3206,0.010183
2744.2525,0.009957
2745.1843,0.009892
2746.1162,0.010180
2747.0480,0.010737
2747.9798,0.011138
2748.9117,0.010909
2749.8435,0.010839
2750.7753,0.010803
2751.7072,0.010511
2752.6390,0.010608
2753.5708,0.011216
2754.5027,0.011141
2755.4345,0.010611
2756.3663,0.010369
2757.2982,0.010434
2758.2300,0.010817
2759.1618,0.011261
2760.0937,0.011399
2761.0255,0.011441
2761.9573,0.011404
2762.8892,0.011225
2763.8210,0.010627
2764.7528,0.010639
2765.6847,0.011270
2766.6165,0.011494
2767.5483,0.011355
2768.4802,0.011087
2769.4120,0.010967
2770.3438,0.011181
2771.2757,0.011349
2772.2075,0.011415
2773.1394,0.011509
2774.0712,0.011679
2775.0030,0.011951
2775.9349,0.012018
2776.8667,0.012037
2777.7985,0.012027
2778.7304,0.011741
2779.6622,0.011631
2780.5940,0.011705
2781.5259,0.011884
2782.4577,0.012301
2783.3895,0.012973
2784.3214,0.013342
2785.2532,0.012866
2786.1850,0.012492
2787.1169,0.012856
2788.0487,0.012858
2788.9805,0.012425
2789.9124,0.012636
2790.8442,0.013252
2791.7760,0.013520
2792.7079,0.013714
2793.6397,0.013584
2794.5715,0.013151
2795.5034,0.013548
2796.4352,0.013947
2797.3670,0.013303
2798.2989,0.013549
2799.2307,0.014703
2800.1626,0.014761
2801.0944,0.014694
2802.0262,0.015398
2802.9581,0.015364
2803.8899,0.014996
2804.8217,0.015064
2805.7536,0.015302
2806.6854,0.015495
2807.6172,0.015930
2808.5491,0.016070
2809.4809,0.015805
2810.4127,0.015669
2811.3446,0.015821
2812.2764,0.016469
2813.2082,0.017132
2814.1401,0.017186
2815.0719,0.017373
2816.0037,0.017142
2816.9356,0.016707
2817.8674,0.017089
2818.7992,0.017644
2819.7311,0.017827
2820.6629,0.017523
2821.5947,0.017702
2822.5266,0.017778
2823.4584,0.017555
2824.3902,0.018426
2825.3221,0.018905
2826.2539,0.018464
2827.1857,0.018630
2828.1176,0.019016
2829.0494,0.019478
2829.9813,0.019370
2830.9131,0.019145
2831.8449,0.019366
2832.7768,0.019717
2833.7086,0.019662
2834.6404,0.019251
2835.5723,0.019415
2836.5041,0.019779
2837.4359,0.020505
2838.3678,0.020720
2839.2996,0.021025
2840.2314,0.021275
2841.1633,0.021107
2842.0951,0.021588
2843.0269,0.022062
2843.9588,0.022336
2844.8906,0.022284
2845.8224,0.022359
2846.7543,0.022597
2847.6861,0.022133
2848.6179,0.022024
2849.5498,0.022696
2850.4816,0.023140
2851.4134,0.022772
2852.3453,0.022957
2853.2771,0.023857
2854.2089,0.024235
2855.1408,0.024240
2856.0726,0.024619
2857.0045,0.024846
2857.9363,0.024579
2858.8681,0.024811
2859.8000,0.025267
2860.7318,0.025635
2861.6636,0.025776
2862.5955,0.025784
2863.5273,0.026771
2864.4591,0.027832
2865.3910,0.028385
2866.3228,0.028491
2867.2546,0.028388
2868.1865,0.028694
2869.1183,0.029274
2870.0501,0.029695
2870.9820,0.030174
2871.9138,0.030909
2872.8456,0.032100
2873.7775,0.032930
2874.7093,0.033788
2875.6411,0.034034
2876.5730,0.033801
2877.5048,0.033753
2878.4366,0.033862
2879.3685,0.034688
2880.3003,0.035446
2881.2321,0.036133
2882.1640,0.036625
2883.0958,0.036857
2884.0277,0.037051
2884.9595,0.037571
2885.8913,0.038095
2886.8232,0.038317
2887.7550,0.038588
2888.6868,0.038570
2889.6187,0.038739
2890.5505,0.039341
2891.4823,0.039995
2892.4142,0.040920
2893.3460,0.041250
2894.2778,0.041211
2895.2097,0.042164
2896.1415,0.042599
2897.0733,0.042756
2898.0052,0.042895
2898.9370,0.043520
2899.8688,0.044483
2900.8007,0.045162
2901.7325,0.044725
2902.6643,0.044413
2903.5962,0.044681
2904.5280,0.045224
2905.4598,0.045626
2906.3917,0.045507
2907.3235,0.044676
2908.2553,0.043349
2909.1872,0.043513
2910.1190,0.043913
2911.0509,0.043724
2911.9827,0.043529
2912.9145,0.043352
2913.8464,0.043073
2914.7782,0.042761
2915.7100,0.042699
2916.6419,0.042350
2917.5737,0.041815
2918.5055,0.041824
2919.4374,0.041746
2920.3692,0.041732
2921.3010,0.041845
2922.2329,0.041171
2923.1647,0.041104
2924.0965,0.042163
2925.0284,0.042603
2925.9602,0.042356
2926.8920,0.042859
2927.8239,0.044303
2928.7557,0.044180
2929.6875,0.043359
2930.6194,0.043724
2931.5512,0.045114
2932.4830,0.045576
2933.4149,0.045401
2934.3467,0.045462
2935.2785,0.044915
2936.2104,0.044836
2937.1422,0.046218
2938.0741,0.046787
2939.0059,0.046504
2939.9377,0.046396
2940.8696,0.046269
2941.8014,0.046424
2942.7332,0.047460
2943.6651,0.047603
2944.5969,0.047362
2945.5287,0.047320
2946.4606,0.047132
2947.3924,0.047746
2948.3242,0.048910
2949.2561,0.048610
2950.1879,0.048377
2951.1197,0.047978
2952.0516,0.047780
2952.9834,0.048350
2953.9152,0.048959
2954.8471,0.049034
2955.7789,0.049452
2956.7107,0.050172
2957.6426,0.050447
2958.5744,0.051104
2959.5062,0.051772
2960.4381,0.051781
2961.3699,0.052487
2962.3017,0.052608
2963.2336,0.053391
2964.1654,0.055388
2965.0972,0.057133
2966.0291,0.058510
2966.9609,0.059831
2967.8928,0.062168
2968.8246,0.064486
2969.7564,0.066005
2970.6883,0.067687
2971.6201,0.069909
2972.5519,0.072920
2973.4838,0.075108
2974.4156,0.076699
2975.3474,0.078838
2976.2793,0.080906
2977.2111,0.082553
2978.1429,0.084623
2979.0748,0.085983
2980.0066,0.087128
2980.9384,0.088172
2981.8703,0.088353
2982.8021,0.087811
2983.7339,0.086666
2984.6658,0.085463
2985.5976,0.084278
2986.5294,0.082942
2987.4613,0.081201
2988.3931,0.078836
2989.3249,0.077204
2990.2568,0.074860
2991.1886,0.072182
2992.1204,0.070199
2993.0523,0.068245
2993.9841,0.065953
2994.9160,0.064841
2995.8478,0.063869
2996.7796,0.062815
2997.7115,0.061926
2998.6433,0.061224
2999.5751,0.060646
3000.5070,0.059973
3001.4388,0.058716
3002.3706,0.058513
3003.3025,0.059671
3004.2343,0.059958
3005.1661,0.058967
3006.0980,0.058542
3007.0298,0.058372
3007.9616,0.058723
3008.8935,0.059209
3009.8253,0.058549
3010.7571,0.058785
3011.6890,0.059237
3012.6208,0.058906
3013.5526,0.059226
3014.4845,0.060426
3015.4163,0.060980
3016.3481,0.060800
3017.2800,0.060663
3018.2118,0.060717
3019.1436,0.061338
3020.0755,0.061917
3021.0073,0.062776
3021.9392,0.062608
3022.8710,0.062182
3023.8028,0.062753
3024.7347,0.063742
3025.6665,0.064356
3026.5983,0.065510
3027.5302,0.066337
3028.4620,0.066164
3029.3938,0.066040
3030.3257,0.067016
3031.2575,0.067346
3032.1893,0.067429
3033.1212,0.068089
3034.0530,0.069066
3034.9848,0.069849
3035.9167,0.069935
3036.8485,0.070563
3037.7803,0.071321
3038.7122,0.072223
3039.6440,0.073159
3040.5758,0.073914
3041.5077,0.074270
3042.4395,0.074971
3043.3713,0.075996
3044.3032,0.076327
3045.2350,0.076342
3046.1668,0.076635
3047.0987,0.077290
3048.0305,0.078091
3048.9624,0.078550
3049.8942,0.079987
3050.8260,0.081433
3051.7579,0.080966
3052.6897,0.081485
3053.6215,0.082785
3054.5534,0.084385
3055.4852,0.085755
3056.4170,0.086091
3057.3489,0.085931
3058.2807,0.086577
3059.2125,0.086778
3060.1444,0.087749
3061.0762,0.089067
3062.0080,0.090093
3062.9399,0.089978
3063.8717,0.090195
3064.8035,0.091144
3065.7354,0.092399
3066.6672,0.093358
3067.5990,0.093738
3068.5309,0.095518
3069.4627,0.096749
3070.3945,0.097635
3071.3264,0.099379
3072.2582,0.099429
3073.1900,0.099302
3074.1219,0.099761
3075.0537,0.100693
3075.9856,0.101360
3076.9174,0.102510
3077.8492,0.104538
3078.7811,0.106216
3079.7129,0.106161
3080.6447,0.106917
3081.5766,0.107924
3082.5084,0.108745
3083.4402,0.109316
3084.3721,0.110578
3085.3039,0.111473
3086.2357,0.112025
3087.1676,0.112533
3088.0994,0.113497
3089.0312,0.114597
3089.9631,0.115569
3090.8949,0.115916
3091.8267,0.116861
3092.7586,0.118405
3093.6904,0.119637
3094.6222,0.120641
3095.5541,0.121985
3096.4859,0.124066
3097.4177,0.125018
3098.3496,0.124797
3099.2814,0.126435
3100.2132,0.127953
3101.1451,0.128480
3102.0769,0.127732
3103.0087,0.128817
3103.9406,0.130431
3104.8724,0.132003
3105.8043,0.133352
3106.7361,0.134780
3107.6679,0.135300
3108.5998,0.136732
3109.5316,0.138099
3110.4634,0.139325
3111.3953,0.139546
3112.3271,0.141241
3113.2589,0.142725
3114.1908,0.143920
3115.1226,0.144775
3116.0544,0.145461
3116.9863,0.145929
3117.9181,0.148103
3118.8499,0.150314
3119.7818,0.152303
3120.7136,0.153405
3121.6454,0.153248
3122.5773,0.152212
3123.5091,0.152820
3124.4409,0.154528
3125.3728,0.156444
3126.3046,0.157659
3127.2364,0.159069
3128.1683,0.160752
3129.1001,0.163802
3130.0319,0.165664
3130.9638,0.165305
3131.8956,0.166353
3132.8275,0.168512
3133.7593,0.169719
3134.6911,0.171840
3135.6230,0.172291
3136.5548,0.172656
3137.4866,0.173656
3138.4185,0.175758
3139.3503,0.177001
3140.2821,0.178171
3141.2140,0.179064
3142.1458,0.181256
3143.0776,0.181870
3144.0095,0.182463
3144.9413,0.184168
3145.8731,0.185926
3146.8050,0.187781
3147.7368,0.188965
3148.6686,0.188952
3149.6005,0.190379
3150.5323,0.191324
3151.4641,0.192821
3152.3960,0.195162
3153.3278,0.197307
3154.2596,0.198259
3155.1915,0.198737
3156.1233,0.199046
3157.0551,0.201049
3157.9870,0.203064
3158.9188,0.204983
3159.8507,0.204549
3160.7825,0.205098
3161.7143,0.206814
3162.6462,0.208030
3163.5780,0.209903
3164.5098,0.212591
3165.4417,0.214942
3166.3735,0.216128
3167.3053,0.215152
3168.2372,0.215801
3169.1690,0.217123
3170.1008,0.219191
3171.0327,0.220567
3171.9645,0.222542
3172.8963,0.223747
3173.8282,0.225887
3174.7600,0.226293
3175.6918,0.227300
3176.6237,0.229690
3177.5555,0.231229
3178.4873,0.231962
3179.4192,0.232724
3180.3510,0.233222
3181.2828,0.235526
3182.2147,0.237447
3183.1465,0.237882
3184.0783,0.238625
3185.0102,0.240357
3185.9420,0.242270
3186.8739,0.243687
3187.8057,0.243527
3188.7375,0.244714
3189.6694,0.245332
3190.6012,0.245960
3191.5330,0.247547
3192.4649,0.249805
3193.3967,0.251891
3194.3285,0.250900
3195.2604,0.251339
3196.1922,0.255321
3197.1240,0.256025
3198.0559,0.256744
3198.9877,0.258585
3199.9195,0.260087
3200.8514,0.258977
3201.7832,0.259428
3202.7150,0.261038
3203.6469,0.262844
3204.5787,0.265132
3205.5105,0.268524
3206.4424,0.268541
3207.3742,0.267942
3208.3060,0.268693
3209.2379,0.271117
3210.1697,0.270856
3211.1015,0.270842
3212.0334,0.271118
3212.9652,0.272828
3213.8971,0.273184
3214.8289,0.273583
3215.7607,0.273813
3216.6926,0.276278
3217.6244,0.277314
3218.5562,0.278932
3219.4881,0.279697
3220.4199,0.279063
3221.3517,0.279035
3222.2836,0.281956
3223.2154,0.283088
3224.1472,0.281928
3225.0791,0.282108
3226.0109,0.283994
3226.9427,0.285556
3227.8746,0.286941
3228.8064,0.287747
3229.7382,0.288291
3230.6701,0.289080
3231.6019,0.289585
3232.5337,0.289003
3233.4656,0.289556
3234.3974,0.288334
3235.3292,0.289220
3236.2611,0.288374
3237.1929,0.287568
3238.1247,0.288987
3239.0566,0.289751
3239.9884,0.288675
3240.9202,0.291224
3241.8521,0.293505
3242.7839,0.292927
3243.7158,0.291763
3244.6476,0.292229
3245.5794,0.294087
3246.5113,0.296247
3247.4431,0.294624
3248.3749,0.294911
3249.3068,0.294643
3250.2386,0.293722
3251.1704,0.294188
3252.1023,0.296112
3253.0341,0.295365
3253.9659,0.295139
3254.8978,0.296333
3255.8296,0.297578
3256.7614,0.296572
3257.6933,0.297852
3258.6251,0.298236
3259.5569,0.297158
3260.4888,0.298088
3261.4206,0.299598
3262.3524,0.299271
3263.2843,0.298605
3264.2161,0.298136
3265.1479,0.298852
3266.0798,0.298519
3267.0116,0.301563
3267.9434,0.302383
3268.8753,0.300916
3269.8071,0.299397
3270.7390,0.300080
3271.6708,0.300269
3272.6026,0.301445
3273.5345,0.301827
3274.4663,0.302299
3275.3981,0.301301
3276.3300,0.300485
3277.2618,0.299660
3278.1936,0.301475
3279.1255,0.301526
3280.0573,0.302042
3280.9891,0.301887
3281.9210,0.301215
3282.8528,0.300265
3283.7846,0.300472
3284.7165,0.299969
3285.6483,0.300677
3286.5801,0.300814
3287.5120,0.302001
3288.4438,0.300842
3289.3756,0.302062
3290.3075,0.303326
3291.2393,0.304464
3292.1711,0.303629
3293.1030,0.304059
3294.0348,0.305038
3294.9666,0.304716
3295.8985,0.303653
3296.8303,0.303443
3297.7622,0.301686
3298.6940,0.300875
3299.6258,0.301158
3300.5577,0.302884
3301.4895,0.303074
3302.4213,0.304070
3303.3532,0.303658
3304.2850,0.304441
3305.2168,0.303557
3306.1487,0.303154
3307.0805,0.302235
3308.0123,0.303208
3308.9442,0.302883
3309.8760,0.300773
3310.8078,0.299278
3311.7397,0.301979
3312.6715,0.301892
3313.6033,0.301536
3314.5352,0.303004
3315.4670,0.304112
3316.3988,0.303201
3317.3307,0.303467
3318.2625,0.303997
3319.1943,0.305663
3320.1262,0.304687
3321.0580,0.303644
3321.9898,0.301734
3322.9217,0.303282
3323.8535,0.303833
3324.7854,0.303667
3325.7172,0.303445
3326.6490,0.303287
3327.5809,0.302705
3328.5127,0.304242
3329.4445,0.304994
3330.3764,0.304548
3331.3082,0.305474
3332.2400,0.306898
3333.1719,0.303815
3334.1037,0.304295
3335.0355,0.306541
3335.9674,0.307249
3336.8992,0.307892
3337.8310,0.308558
3338.7629,0.307235
3339.6947,0.306698
3340.6265,0.306006
3341.5584,0.305379
3342.4902,0.304061
3343.4220,0.306531
3344.3539,0.306871
3345.2857,0.305839
3346.2175,0.304414
3347.1494,0.304023
3348.0812,0.303408
3349.0130,0.303786
3349.9449,0.304052
3350.8767,0.305761
3351.8086,0.305605
3352.7404,0.304325
3353.6722,0.301691
3354.6041,0.302365
3355.5359,0.303829
3356.4677,0.305991
3357.3996,0.304662
3358.3314,0.304068
3359.2632,0.304270
3360.1951,0.304307
3361.1269,0.304116
3362.0587,0.304116
3362.9906,0.304477
3363.9224,0.304001
3364.8542,0.301481
3365.7861,0.300377
3366.7179,0.300333
3367.6497,0.302113
3368.5816,0.301676
3369.5134,0.301128
3370.4452,0.301142
3371.3771,0.300511
3372.3089,0.298936
3373.2407,0.298375
3374.1726,0.297442
3375.1044,0.296964
3376.0362,0.295031
3376.9681,0.295128
3377.8999,0.298368
3378.8317,0.300845
3379.7636,0.297557
3380.6954,0.295136
3381.6273,0.292739
3382.5591,0.292535
3383.4909,0.292857
3384.4228,0.296203
3385.3546,0.296501
3386.2864,0.293745
3387.2183,0.292286
3388.1501,0.292948
3389.0819,0.293458
3390.0138,0.292099
3390.9456,0.291062
3391.8774,0.292130
3392.8093,0.291334
3393.7411,0.291626
3394.6729,0.289273
3395.6048,0.287124
3396.5366,0.286362
3397.4684,0.284922
3398.4003,0.282209
3399.3321,0.283604
3400.2639,0.284344
3401.1958,0.284204
3402.1276,0.283298
3403.0594,0.282333
3403.9913,0.280030
3404.9231,0.280176
3405.8549,0.279752
3406.7868,0.278513
3407.7186,0.278943
3408.6505,0.280660
3409.5823,0.279677
3410.5141,0.278224
3411.4460,0.275829
3412.3778,0.275482
3413.3096,0.274093
3414.2415,0.271538
3415.1733,0.271712
3416.1051,0.270917
3417.0370,0.267849
3417.9688,0.266847
3418.9006,0.266105
3419.8325,0.266167
3420.7643,0.266875
3421.6961,0.267881
3422.6280,0.265705
3423.5598,0.261229
3424.4916,0.259269
3425.4235,0.261510
3426.3553,0.261051
3427.2871,0.260080
3428.2190,0.258028
3429.1508,0.255983
3430.0826,0.253996
3431.0145,0.253671
3431.9463,0.251504
3432.8781,0.252412
3433.8100,0.253415
3434.7418,0.252171
3435.6737,0.247778
3436.6055,0.245237
3437.5373,0.243419
3438.4692,0.242477
3439.4010,0.242870
3440.3328,0.242157
3441.2647,0.240158
3442.1965,0.241409
3443.1283,0.242653
3444.0602,0.242299
3444.9920,0.241699
3445.9238,0.240300
3446.8557,0.236495
3447.7875,0.236788
3448.7193,0.236289
3449.6512,0.237755
3450.5830,0.234638
3451.5148,0.229778
3452.4467,0.228579
3453.3785,0.229597
3454.3103,0.228132
3455.2422,0.226461
3456.1740,0.226218
3457.1058,0.226606
3458.0377,0.223304
3458.9695,0.222202
3459.9013,0.222301
3460.8332,0.222247
3461.7650,0.220202
3462.6969,0.219165
3463.6287,0.218723
3464.5605,0.217784
3465.4924,0.217518
3466.4242,0.216962
3467.3560,0.216155
3468.2879,0.216532
3469.2197,0.213079
3470.1515,0.208749
3471.0834,0.206165
3472.0152,0.206805
3472.9470,0.204928
3473.8789,0.204790
3474.8107,0.204642
3475.7425,0.204478
3476.6744,0.202852
3477.6062,0.202265
3478.5380,0.200902
3479.4699,0.199745
3480.4017,0.198596
3481.3335,0.199396
3482.2654,0.198984
3483.1972,0.197272
3484.1290,0.194766
3485.0609,0.193852
3485.9927,0.192971
3486.9245,0.192858
3487.8564,0.189096
3488.7882,0.187472
3489.7201,0.187145
3490.6519,0.187114
3491.5837,0.185946
3492.5156,0.183555
3493.4474,0.181293
3494.3792,0.182423
3495.3111,0.182004
3496.2429,0.183235
3497.1747,0.183071
3498.1066,0.179839
3499.0384,0.177508
3499.9702,0.177458
3500.9021,0.176125
3501.8339,0.174489
3502.7657,0.172397
3503.6976,0.171850
3504.6294,0.174764
3505.5612,0.175854
3506.4931,0.168744
3507.4249,0.163843
3508.3567,0.165109
3509.2886,0.168531
3510.2204,0.167747
3511.1522,0.166794
3512.0841,0.165946
3513.0159,0.164015
3513.9477,0.163907
3514.8796,0.161990
3515.8114,0.159550
3516.7432,0.160387
3517.6751,0.157367
3518.6069,0.154859
3519.5388,0.154068
3520.4706,0.153456
3521.4024,0.153621
3522.3343,0.154041
3523.2661,0.152914
3524.1979,0.151833
3525.1298,0.149026
3526.0616,0.146978
3526.9934,0.147346
3527.9253,0.147004
3528.8571,0.145564
3529.7889,0.147663
3530.7208,0.146191
3531.6526,0.142409
3532.5844,0.140813
3533.5163,0.141276
3534.4481,0.141698
3535.3799,0.141723
3536.3118,0.140675
3537.2436,0.139362
3538.1754,0.135246
3539.1073,0.132214
3540.0391,0.130997
3540.9709,0.130480
3541.9028,0.130463
3542.8346,0.132293
3543.7664,0.133099
3544.6983,0.129940
3545.6301,0.130748
3546.5620,0.133557
3547.4938,0.129502
3548.4256,0.124346
3549.3575,0.122497
3550.2893,0.122678
3551.2211,0.122520
3552.1530,0.123042
3553.0848,0.123736
3554.0166,0.122990
3554.9485,0.122465
3555.8803,0.122027
3556.8121,0.116938
3557.7440,0.114031
3558.6758,0.114469
3559.6076,0.114276
3560.5395,0.111983
3561.4713,0.110396
3562.4031,0.110854
3563.3350,0.111626
3564.2668,0.110354
3565.1986,0.110464
3566.1305,0.109891
3567.0623,0.108443
3567.9941,0.108843
3568.9260,0.110764
3569.8578,0.108937
3570.7896,0.105760
3571.7215,0.100962
3572.6533,0.097329
3573.5852,0.100043
3574.5170,0.102101
3575.4488,0.098922
3576.3807,0.096709
3577.3125,0.097347
3578.2443,0.098422
3579.1762,0.097803
3580.1080,0.097799
3581.0398,0.096569
3581.9717,0.094004
3582.9035,0.091867
3583.8353,0.090590
3584.7672,0.090427
3585.6990,0.090075
3586.6308,0.088572
3587.5627,0.088327
3588.4945,0.087214
3589.4263,0.086195
3590.3582,0.083832
3591.2900,0.082901
3592.2218,0.083655
3593.1537,0.082720
3594.0855,0.081901
3595.0173,0.081873
3595.9492,0.081178
3596.8810,0.081658
3597.8128,0.080793
3598.7447,0.079979
3599.6765,0.079398
3600.6084,0.076884
3601.5402,0.075482
3602.4720,0.076104
3603.4039,0.075406
3604.3357,0.074517
3605.2675,0.072969
3606.1994,0.071661
3607.1312,0.071366
3608.0630,0.072312
3608.9949,0.070577
3609.9267,0.068745
3610.8585,0.068905
3611.7904,0.070615
3612.7222,0.069928
3613.6540,0.066918
3614.5859,0.066300
3615.5177,0.066604
3616.4495,0.064212
3617.3814,0.063656
3618.3132,0.064193
3619.2450,0.063168
3620.1769,0.063593
3621.1087,0.064600
3622.0405,0.062488
3622.9724,0.059514
3623.9042,0.058413
3624.8360,0.059430
3625.7679,0.059468
3626.6997,0.058123
3627.6316,0.056405
3628.5634,0.056028
3629.4952,0.055716
3630.4271,0.055824
3631.3589,0.055278
3632.2907,0.053106
3633.2226,0.050825
3634.1544,0.050840
3635.0862,0.052046
3636.0181,0.052452
3636.9499,0.052096
3637.8817,0.050956
3638.8136,0.049426
3639.7454,0.048818
3640.6772,0.048474
3641.6091,0.047811
3642.5409,0.047308
3643.4727,0.046253
3644.4046,0.043660
3645.3364,0.043734
3646.2682,0.045555
3647.2001,0.044959
3648.1319,0.043735
3649.0637,0.043669
3649.9956,0.042926
3650.9274,0.038905
3651.8592,0.037622
3652.7911,0.038164
3653.7229,0.036394
3654.6547,0.036462
3655.5866,0.036512
3656.5184,0.036096
3657.4503,0.035959
3658.3821,0.034743
3659.3139,0.032619
3660.2458,0.031805
3661.1776,0.032066
3662.1094,0.032482
3663.0413,0.032855
3663.9731,0.032279
3664.9049,0.030633
3665.8368,0.029681
3666.7686,0.029474
3667.7004,0.029817
3668.6323,0.029292
3669.5641,0.027859
3670.4959,0.026348
3671.4278,0.024928
3672.3596,0.022162
3673.2914,0.021243
3674.2233,0.020950
3675.1551,0.020904
3676.0869,0.021962
3677.0188,0.022431
3677.9506,0.019910
3678.8824,0.016462
3679.8143,0.016166
3680.7461,0.016286
3681.6779,0.016652
3682.6098,0.016773
3683.5416,0.015351
3684.4735,0.014388
3685.4053,0.014500
3686.3371,0.014524
3687.2690,0.013789
3688.2008,0.014148
3689.1326,0.015213
3690.0645,0.014249
3690.9963,0.012233
3691.9281,0.010762
3692.8600,0.010053
3693.7918,0.009732
3694.7236,0.008531
3695.6555,0.008260
3696.5873,0.008844
3697.5191,0.009693
3698.4510,0.010238
3699.3828,0.010521
3700.3146,0.010493
3701.2465,0.009681
3702.1783,0.007907
3703.1101,0.007335
3704.0420,0.007792
3704.9738,0.007286
3705.9056,0.005741
3706.8375,0.004936
3707.7693,0.006314
3708.7011,0.008405
3709.6330,0.008261
3710.5648,0.007355
3711.4967,0.006312
3712.4285,0.005925
3713.3603,0.005044
3714.2922,0.004685
3715.2240,0.004973
3716.1558,0.004258
3717.0877,0.003924
3718.0195,0.004845
3718.9513,0.005652
3719.8832,0.005695
3720.8150,0.004955
3721.7468,0.004130
3722.6787,0.003521
3723.6105,0.004064
3724.5423,0.003888
3725.4742,0.003326
3726.4060,0.003027
3727.3378,0.003466
3728.2697,0.003525
3729.2015,0.002618
3730.1333,0.002353
3731.0652,0.002893
3731.9970,0.003352
3732.9288,0.004111
3733.8607,0.004847
3734.7925,0.004108
3735.7243,0.001145
3736.6562,-0.000639
3737.5880,0.000727
3738.5199,0.001727
3739.4517,0.001131
3740.3835,0.002097
3741.3154,0.003364
3742.2472,0.002825
3743.1790,0.001639
3744.1109,0.001724
3745.0427,0.001753
3745.9745,0.002330
3746.9064,0.001534
3747.8382,-0.002297
3748.7700,-0.002081
3749.7019,0.001067
3750.6337,0.000411
3751.5655,0.000752
3752.4974,0.003283
3753.4292,0.001913
3754.3610,0.000635
3755.2929,0.001189
3756.2247,0.000609
3757.1565,0.000123
3758.0884,0.000271
3759.0202,0.001896
3759.9520,0.002623
3760.8839,0.001577
3761.8157,0.000974
3762.7475,0.001766
3763.6794,0.002365
3764.6112,0.002055
3765.5431,0.002269
3766.4749,0.002352
3767.4067,0.001815
3768.3386,0.001904
3769.2704,0.001690
3770.2022,0.001924
3771.1341,0.002366
3772.0659,0.001534
3772.9977,0.000765
3773.9296,0.000767
3774.8614,0.001107
3775.7932,0.001050
3776.7251,0.001459
3777.6569,0.002182
3778.5887,0.002257
3779.5206,0.002785
3780.4524,0.003355
3781.3842,0.003078
3782.3161,0.002567
3783.2479,0.002384
3784.1797,0.002122
3785.1116,0.002194
3786.0434,0.002836
3786.9752,0.003173
3787.9071,0.002861
3788.8389,0.002551
3789.7707,0.001979
3790.7026,0.001871
3791.6344,0.002293
3792.5662,0.002576
3793.4981,0.002033
3794.4299,0.001164
3795.3618,0.001144
3796.2936,0.001259
3797.2254,0.001162
3798.1573,0.001294
3799.0891,0.001483
3800.0209,0.002058
3800.9528,0.002123
3801.8846,0.001980
3802.8164,0.001111
3803.7483,0.001477
3804.6801,0.001994
3805.6119,0.000479
3806.5438,-0.000365
3807.4756,0.000446
3808.4074,0.000590
3809.3393,0.000887
3810.2711,0.001568
3811.2029,0.001327
3812.1348,0.000679
3813.0666,0.001122
3813.9984,0.001430
3814.9303,0.001306
3815.8621,0.001381
3816.7939,0.001825
3817.7258,0.002844
3818.6576,0.003449
3819.5894,0.001505
3820.5213,-0.000751
3821.4531,-0.000791
3822.3850,0.000503
3823.3168,0.001286
3824.2486,-0.000292
3825.1805,-0.002349
3826.1123,-0.001049
3827.0441,0.000593
3827.9760,0.001062
3828.9078,0.001615
3829.8396,0.001850
3830.7715,0.000669
3831.7033,0.000177
3832.6351,0.001443
3833.5670,0.002613
3834.4988,0.001792
3835.4306,-0.000434
3836.3625,-0.001025
3837.2943,0.001039
3838.2261,0.001660
3839.1580,0.001300
3840.0898,0.002309
3841.0216,0.001905
3841.9535,0.000211
3842.8853,0.000362
3843.8171,-0.000337
3844.7490,-0.000730
3845.6808,0.000265
3846.6126,0.000214
3847.5445,-0.001091
3848.4763,-0.000473
3849.4082,0.000639
3850.3400,0.000669
3851.2718,0.000793
3852.2037,0.002223
3853.1355,0.003111
3854.0673,0.003520
3854.9992,0.003572
3855.9310,0.000715
3856.8628,-0.001119
3857.7947,-0.000991
3858.7265,-0.000789
3859.6583,0.000160
3860.5902,-0.000515
3861.5220,-0.000549
3862.4538,0.001599
3863.3857,0.002534
3864.3175,0.001488
3865.2493,0.000578
3866.1812,0.000541
3867.1130,0.000447
3868.0448,0.000356
3868.9767,0.000336
3869.9085,0.000152
3870.8403,0.000060
3871.7722,0.000687
3872.7040,0.000624
3873.6358,-0.000640
3874.5677,0.000309
3875.4995,0.000009
3876.4314,-0.000226
3877.3632,0.000853
3878.2950,0.001345
3879.2269,0.000764
3880.1587,0.000575
3881.0905,0.000585
3882.0224,0.001288
3882.9542,0.002189
3883.8860,0.001108
3884.8179,-0.000688
3885.7497,-0.000935
3886.6815,0.000315
3887.6134,0.001512
3888.5452,0.001480
3889.4770,-0.000019
3890.4089,-0.000751
3891.3407,0.000673
3892.2725,0.000860
3893.2044,0.001132
3894.1362,0.002344
3895.0680,0.002591
3895.9999,0.002352
3896.9317,0.001563
3897.8635,0.000559
3898.7954,0.000643
3899.7272,0.001368
3900.6590,0.001911
3901.5909,0.000983
3902.5227,0.000277
3903.4546,0.001093
3904.3864,0.001581
3905.3182,0.000652
3906.2501,0.001174
3907.1819,0.001232
3908.1137,0.000024
3909.0456,-0.000033
3909.9774,0.000532
3910.9092,0.000745
3911.8411,0.000710
3912.7729,0.001279
3913.7047,0.002285
3914.6366,0.002859
3915.5684,0.002220
3916.5002,0.000600
3917.4321,-0.000236
3918.3639,0.000352
3919.2957,0.001256
3920.2276,0.000808
3921.1594,0.000363
3922.0912,0.000895
3923.0231,0.000747
3923.9549,-0.000154
3924.8867,0.000014
3925.8186,0.000579
3926.7504,0.000522
3927.6822,0.000772
3928.6141,0.001417
3929.5459,0.000547
3930.4777,0.000340
3931.4096,0.001194
3932.3414,0.001898
3933.2733,0.001574
3934.2051,0.001102
3935.1369,0.001523
3936.0688,0.002045
3937.0006,0.002290
3937.9324,0.001438
3938.8643,0.000719
3939.7961,0.001830
3940.7279,0.002443
3941.6598,0.002338
3942.5916,0.002717
3943.5234,0.002030
3944.4553,0.000676
3945.3871,0.000698
3946.3189,0.001136
3947.2508,0.001289
3948.1826,0.000858
3949.1144,0.000867
3950.0463,0.000969
3950.9781,0.000563
3951.9099,0.000237
3952.8418,0.000513
3953.7736,0.001360
3954.7054,0.001521
3955.6373,0.001331
3956.5691,0.001957
3957.5009,0.002415
3958.4328,0.002003
3959.3646,0.001974
3960.2965,0.002082
3961.2283,0.001745
3962.1601,0.001669
3963.0920,0.000792
3964.0238,0.000505
3964.9556,0.001766
3965.8875,0.002067
3966.8193,0.001685
3967.7511,0.001648
3968.6830,0.001964
3969.6148,0.002366
3970.5466,0.002521
3971.4785,0.002178
3972.4103,0.001104
3973.3421,0.000438
3974.2740,-0.000201
3975.2058,-0.000109
3976.1376,0.000788
3977.0695,0.001448
3978.0013,0.001787
3978.9331,0.001926
3979.8650,0.001941
3980.7968,0.001646
3981.7286,0.001328
3982.6605,0.001385
3983.5923,0.000519
3984.5241,0.000242
3985.4560,0.001278
3986.3878,0.001486
3987.3197,0.000981
3988.2515,0.001281
3989.1833,0.001947
3990.1152,0.001457
3991.0470,0.000489
3991.9788,0.001037
3992.9107,0.002321
3993.8425,0.002541
3994.7743,0.001295
3995.7062,0.001327
3996.6380,0.002769
3997.5698,0.002502
3998.5017,0.002312
3999.4335,0.001931
4000.3653,0.000484
