Wavenumber,Intensity
650.4205,0.385591
651.3523,0.396813
652.2841,0.380971
653.2160,0.365054
654.1478,0.367833
655.0796,0.375907
656.0115,0.378867
656.9433,0.379048
657.8751,0.372288
658.8070,0.367472
659.7388,0.367154
660.6706,0.372089
661.6025,0.368541
662.5343,0.363608
663.4661,0.367201
664.3980,0.367525
665.3298,0.363934
666.2616,0.365304
667.1935,0.356050
668.1253,0.347472
669.0571,0.363423
669.9890,0.360287
670.9208,0.357818
671.8526,0.365475
672.7845,0.366812
673.7163,0.360594
674.6481,0.353372
675.5800,0.353793
676.5118,0.355133
677.4437,0.356625
678.3755,0.350275
679.3073,0.345748
680.2392,0.345271
681.1710,0.346418
682.1028,0.342403
683.0347,0.339850
683.9665,0.341862
684.8983,0.346512
685.8302,0.340737
686.7620,0.337371
687.6938,0.338682
688.6257,0.338403
689.5575,0.338887
690.4893,0.339717
691.4212,0.336856
692.3530,0.336704
693.2848,0.335167
694.2167,0.330056
695.1485,0.324664
696.0803,0.324234
697.0122,0.323495
697.9440,0.323893
698.8758,0.325435
699.8077,0.325739
700.7395,0.321288
701.6713,0.319327
702.6032,0.318780
703.5350,0.318052
704.4669,0.316490
705.3987,0.316820
706.3305,0.313482
707.2624,0.312093
708.1942,0.312728
709.1260,0.313072
710.0579,0.310678
710.9897,0.305466
711.9215,0.302861
712.8534,0.304867
713.7852,0.305356
714.7170,0.304273
715.6489,0.304139
716.5807,0.301880
717.5125,0.298394
718.4444,0.298782
719.3762,0.295907
720.3080,0.292010
721.2399,0.290526
722.1717,0.288973
723.1035,0.285560
724.0354,0.285751
724.9672,0.285869
725.8990,0.286692
726.8309,0.286699
727.7627,0.284526
728.6945,0.281167
729.6264,0.280002
730.5582,0.281520
731.4901,0.281316
732.4219,0.277634
733.3537,0.275507
734.2856,0.275949
735.2174,0.276521
736.1492,0.274317
737.0811,0.271340
738.0129,0.270858
738.9447,0.270233
739.8766,0.267490
740.8084,0.263780
741.7402,0.264830
742.6721,0.267311
743.6039,0.264478
744.5357,0.259010
745.4676,0.257163
746.3994,0.258076
747.3312,0.255729
748.2631,0.253430
749.1949,0.253036
750.1267,0.251584
751.0586,0.250024
751.9904,0.250065
752.9222,0.248486
753.8541,0.246165
754.7859,0.244892
755.7177,0.245171
756.6496,0.243506
757.5814,0.242043
758.5132,0.241561
759.4451,0.240609
760.3769,0.239328
761.3088,0.239163
762.2406,0.237974
763.1724,0.234564
764.1043,0.230682
765.0361,0.230877
765.9679,0.231686
766.8998,0.229546
767.8316,0.227740
768.7634,0.228187
769.6953,0.227119
770.6271,0.225161
771.5589,0.225378
772.4908,0.225455
773.4226,0.223973
774.3544,0.221621
775.2863,0.218556
776.2181,0.216180
777.1499,0.213755
778.0818,0.212769
779.0136,0.213211
779.9454,0.213493
780.8773,0.211427
781.8091,0.210721
782.7409,0.210926
783.6728,0.209377
784.6046,0.207039
785.5364,0.205641
786.4683,0.203235
787.4001,0.201679
788.3320,0.201606
789.2638,0.200717
790.1956,0.198122
791.1275,0.196310
792.0593,0.195906
792.9911,0.195577
793.9230,0.193903
794.8548,0.193593
795.7866,0.193249
796.7185,0.192252
797.6503,0.191001
798.5821,0.189848
799.5140,0.187890
800.4458,0.186806
801.3776,0.186626
802.3095,0.185937
803.2413,0.183135
804.1731,0.182055
805.1050,0.181954
806.0368,0.181003
806.9686,0.179904
807.9005,0.178073
808.8323,0.176374
809.7641,0.175422
810.6960,0.173707
811.6278,0.171219
812.5596,0.169178
813.4915,0.169280
814.4233,0.169127
815.3552,0.167217
816.2870,0.165221
817.2188,0.165430
818.1507,0.164640
819.0825,0.162448
820.0143,0.160893
820.9462,0.160280
821.8780,0.158820
822.8098,0.157437
823.7417,0.155890
824.6735,0.154467
825.6053,0.153208
826.5372,0.151942
827.4690,0.151308
828.4008,0.150967
829.3327,0.150243
830.2645,0.149190
831.1963,0.147323
832.1282,0.146677
833.0600,0.145926
833.9918,0.144396
834.9237,0.143157
835.8555,0.141988
836.7873,0.141996
837.7192,0.141337
838.6510,0.139166
839.5828,0.138959
840.5147,0.137846
841.4465,0.136331
842.3784,0.136160
843.3102,0.135853
844.2420,0.134709
845.1739,0.133767
846.1057,0.133080
847.0375,0.132242
847.9694,0.130514
848.9012,0.129566
849.8330,0.128820
850.7649,0.128138
851.6967,0.127207
852.6285,0.126179
853.5604,0.125843
854.4922,0.125901
855.4240,0.125117
856.3559,0.123886
857.2877,0.123004
858.2195,0.122865
859.1514,0.122978
860.0832,0.122690
861.0150,0.122183
861.9469,0.122268
862.8787,0.122385
863.8105,0.122205
864.7424,0.122487
865.6742,0.122742
866.6060,0.123464
867.5379,0.124993
868.4697,0.126722
869.4016,0.128309
870.3334,0.130401
871.2652,0.133935
872.1971,0.138168
873.1289,0.142064
874.0607,0.146463
874.9926,0.151748
875.9244,0.156416
876.8562,0.158821
877.7881,0.159531
878.7199,0.159182
879.6517,0.156228
880.5836,0.150907
881.5154,0.144387
882.4472,0.137335
883.3791,0.130555
884.3109,0.124660
885.2427,0.118353
886.1746,0.112744
887.1064,0.108666
888.0382,0.104741
888.9701,0.101079
889.9019,0.098330
890.8337,0.095773
891.7656,0.093605
892.6974,0.091826
893.6292,0.090182
894.5611,0.088837
895.4929,0.088277
896.4247,0.087276
897.3566,0.085844
898.2884,0.084760
899.2203,0.084109
900.1521,0.083030
901.0839,0.081633
902.0158,0.081302
902.9476,0.081083
903.8794,0.080030
904.8113,0.078933
905.7431,0.078311
906.6749,0.077987
907.6068,0.077260
908.5386,0.076860
909.4704,0.076306
910.4023,0.075199
911.3341,0.074372
912.2659,0.074029
913.1978,0.073999
914.1296,0.073797
915.0614,0.073265
915.9933,0.072737
916.9251,0.072069
917.8569,0.071487
918.7888,0.071016
919.7206,0.070477
920.6524,0.070208
921.5843,0.069680
922.5161,0.069091
923.4479,0.068637
924.3798,0.067761
925.3116,0.067394
926.2435,0.067204
927.1753,0.066868
928.1071,0.066559
929.0390,0.066350
929.9708,0.066016
930.9026,0.065606
931.8345,0.064842
932.7663,0.064140
933.6981,0.064031
934.6300,0.063998
935.5618,0.063529
936.4936,0.062982
937.4255,0.062687
938.3573,0.062670
939.2891,0.062702
940.2210,0.062097
941.1528,0.061466
942.0846,0.061308
943.0165,0.061351
943.9483,0.061439
944.8801,0.061096
945.8120,0.060214
946.7438,0.059682
947.6756,0.059679
948.6075,0.059823
949.5393,0.059617
950.4711,0.059133
951.4030,0.058723
952.3348,0.058440
953.2667,0.058375
954.1985,0.058367
955.1303,0.057992
956.0622,0.057868
956.9940,0.057867
957.9258,0.057622
958.8577,0.057291
959.7895,0.057037
960.7213,0.056906
961.6532,0.056645
962.5850,0.056499
963.5168,0.056585
964.4487,0.056777
965.3805,0.056506
966.3123,0.056079
967.2442,0.055845
968.1760,0.055747
969.1078,0.055384
970.0397,0.055271
970.9715,0.055211
971.9033,0.055194
972.8352,0.055226
973.7670,0.054949
974.6988,0.054349
975.6307,0.054069
976.5625,0.054279
977.4943,0.054686
978.4262,0.054868
979.3580,0.054648
980.2899,0.054632
981.2217,0.054553
982.1535,0.054492
983.0854,0.054440
984.0172,0.054371
984.9490,0.054482
985.8809,0.054325
986.8127,0.054149
987.7445,0.054242
988.6764,0.053991
989.6082,0.053817
990.5400,0.054075
991.4719,0.054264
992.4037,0.054427
993.3355,0.054639
994.2674,0.054596
995.1992,0.054709
996.1310,0.054990
997.0629,0.054972
997.9947,0.054695
998.9265,0.054910
999.8584,0.055361
1000.7902,0.055661
1001.7220,0.055786
1002.6539,0.055858
1003.5857,0.055989
1004.5175,0.056188
1005.4494,0.056460
1006.3812,0.056794
1007.3131,0.057393
1008.2449,0.057826
1009.1767,0.058233
1010.1086,0.058835
1011.0404,0.059316
1011.9722,0.059585
1012.9041,0.060207
1013.8359,0.060999
1014.7677,0.061622
1015.6996,0.062403
1016.6314,0.063348
1017.5632,0.063954
1018.4951,0.064952
1019.4269,0.066450
1020.3587,0.068117
1021.2906,0.069804
1022.2224,0.071264
1023.1542,0.072904
1024.0861,0.074853
1025.0179,0.077216
1025.9497,0.079799
1026.8816,0.082714
1027.8134,0.085792
1028.7452,0.089256
1029.6771,0.093352
1030.6089,0.098000
1031.5407,0.103322
1032.4726,0.109619
1033.4044,0.117061
1034.3362,0.125571
1035.2681,0.135223
1036.1999,0.146093
1037.1318,0.158073
1038.0636,0.171157
1038.9954,0.185208
1039.9273,0.199301
1040.8591,0.212808
1041.7909,0.224285
1042.7228,0.233012
1043.6546,0.238376
1044.5864,0.239647
1045.5183,0.236065
1046.4501,0.228286
1047.3819,0.217389
1048.3138,0.204331
1049.2456,0.189854
1050.1774,0.174639
1051.1093,0.159339
1052.0411,0.144998
1052.9729,0.131832
1053.9048,0.119844
1054.8366,0.109619
1055.7684,0.101038
1056.7003,0.093546
1057.6321,0.087046
1058.5639,0.081829
1059.4958,0.077998
1060.4276,0.075044
1061.3594,0.072468
1062.2913,0.070627
1063.2231,0.069170
1064.1550,0.068157
1065.0868,0.067716
1066.0186,0.067555
1066.9505,0.067739
1067.8823,0.068302
1068.8141,0.068787
1069.7460,0.069539
1070.6778,0.070916
1071.6096,0.072611
1072.5415,0.074357
1073.4733,0.076204
1074.4051,0.078132
1075.3370,0.080415
1076.2688,0.083150
1077.2006,0.085702
1078.1325,0.088316
1079.0643,0.090986
1079.9961,0.093903
1080.9280,0.096639
1081.8598,0.098845
1082.7916,0.100837
1083.7235,0.102548
1084.6553,0.103730
1085.5871,0.104103
1086.5190,0.103552
1087.4508,0.102154
1088.3826,0.100287
1089.3145,0.097592
1090.2463,0.093967
1091.1782,0.090215
1092.1100,0.086472
1093.0418,0.082282
1093.9737,0.078011
1094.9055,0.074308
1095.8373,0.070844
1096.7692,0.067491
1097.7010,0.064488
1098.6328,0.061617
1099.5647,0.059363
1100.4965,0.057330
1101.4283,0.055512
1102.3602,0.054025
1103.2920,0.052570
1104.2238,0.051394
1105.1557,0.050349
1106.0875,0.049462
1107.0193,0.048786
1107.9512,0.048153
1108.8830,0.047555
1109.8148,0.047219
1110.7467,0.046693
1111.6785,0.046173
1112.6103,0.046018
1113.5422,0.046011
1114.4740,0.045986
1115.4058,0.045905
1116.3377,0.045595
1117.2695,0.045199
1118.2014,0.044973
1119.1332,0.045017
1120.0650,0.045099
1120.9969,0.045102
1121.9287,0.045204
1122.8605,0.045230
1123.7924,0.045038
1124.7242,0.044849
1125.6560,0.044809
1126.5879,0.044759
1127.5197,0.044404
1128.4515,0.044220
1129.3834,0.044351
1130.3152,0.044463
1131.2470,0.044545
1132.1789,0.044468
1133.1107,0.044330
1134.0425,0.044114
1134.9744,0.043811
1135.9062,0.043648
1136.8380,0.043449
1137.7699,0.043359
1138.7017,0.043237
1139.6335,0.043207
1140.5654,0.043170
1141.4972,0.042896
1142.4290,0.042723
1143.3609,0.042651
1144.2927,0.042759
1145.2246,0.042796
1146.1564,0.042796
1147.0882,0.042731
1148.0201,0.042709
1148.9519,0.042846
1149.8837,0.042753
1150.8156,0.042678
1151.7474,0.042835
1152.6792,0.043111
1153.6111,0.042996
1154.5429,0.042616
1155.4747,0.042532
1156.4066,0.042647
1157.3384,0.042529
1158.2702,0.042389
1159.2021,0.042310
1160.1339,0.042048
1161.0657,0.041806
1161.9976,0.041710
1162.9294,0.041465
1163.8612,0.041268
1164.7931,0.041245
1165.7249,0.040948
1166.6567,0.040712
1167.5886,0.040869
1168.5204,0.040806
1169.4522,0.040541
1170.3841,0.040621
1171.3159,0.040463
1172.2477,0.040314
1173.1796,0.040417
1174.1114,0.040333
1175.0433,0.040187
1175.9751,0.040272
1176.9069,0.040414
1177.8388,0.040372
1178.7706,0.040406
1179.7024,0.040392
1180.6343,0.040219
1181.5661,0.039964
1182.4979,0.039798
1183.4298,0.039885
1184.3616,0.040074
1185.2934,0.040055
1186.2253,0.040090
1187.1571,0.040148
1188.0889,0.040273
1189.0208,0.040371
1189.9526,0.040235
1190.8844,0.040431
1191.8163,0.040611
1192.7481,0.040503
1193.6799,0.040296
1194.6118,0.040321
1195.5436,0.040424
1196.4754,0.040514
1197.4073,0.040429
1198.3391,0.040255
1199.2709,0.040310
1200.2028,0.040326
1201.1346,0.040112
1202.0665,0.040144
1202.9983,0.040331
1203.9301,0.040567
1204.8620,0.040636
1205.7938,0.040561
1206.7256,0.040512
1207.6575,0.040491
1208.5893,0.040696
1209.5211,0.040951
1210.4530,0.040880
1211.3848,0.040705
1212.3166,0.040792
1213.2485,0.040833
1214.1803,0.040717
1215.1121,0.040687
1216.0440,0.040614
1216.9758,0.040645
1217.9076,0.040997
1218.8395,0.041093
1219.7713,0.041089
1220.7031,0.041228
1221.6350,0.041226
1222.5668,0.041170
1223.4986,0.040999
1224.4305,0.041038
1225.3623,0.041295
1226.2941,0.041555
1227.2260,0.041499
1228.1578,0.041443
1229.0897,0.041603
1230.0215,0.041613
1230.9533,0.041641
1231.8852,0.041878
1232.8170,0.041997
1233.7488,0.041988
1234.6807,0.042006
1235.6125,0.042184
1236.5443,0.042407
1237.4762,0.042486
1238.4080,0.042372
1239.3398,0.042499
1240.2717,0.042724
1241.2035,0.042632
1242.1353,0.042514
1243.0672,0.042704
1243.9990,0.043043
1244.9308,0.043241
1245.8627,0.043373
1246.7945,0.043437
1247.7263,0.043627
1248.6582,0.043724
1249.5900,0.043827
1250.5218,0.043908
1251.4537,0.044059
1252.3855,0.044302
1253.3173,0.044677
1254.2492,0.044981
1255.1810,0.045155
1256.1129,0.045422
1257.0447,0.045695
1257.9765,0.045834
1258.9084,0.046301
1259.8402,0.046808
1260.7720,0.046998
1261.7039,0.047370
1262.6357,0.047926
1263.5675,0.048410
1264.4994,0.048818
1265.4312,0.049437
1266.3630,0.050202
1267.2949,0.050733
1268.2267,0.051114
1269.1585,0.051433
1270.0904,0.051758
1271.0222,0.052306
1271.9540,0.052771
1272.8859,0.053005
1273.8177,0.053073
1274.7495,0.053102
1275.6814,0.053233
1276.6132,0.053071
1277.5450,0.052658
1278.4769,0.052375
1279.4087,0.051988
1280.3405,0.051431
1281.2724,0.051085
1282.2042,0.050824
1283.1361,0.050464
1284.0679,0.050044
1284.9997,0.049774
1285.9316,0.049592
1286.8634,0.049358
1287.7952,0.049260
1288.7271,0.049314
1289.6589,0.049253
1290.5907,0.049135
1291.5226,0.049261
1292.4544,0.049326
1293.3862,0.049379
1294.3181,0.049734
1295.2499,0.050017
1296.1817,0.050083
1297.1136,0.050105
1298.0454,0.050297
1298.9772,0.050514
1299.9091,0.050725
1300.8409,0.050979
1301.7727,0.051285
1302.7046,0.051379
1303.6364,0.051445
1304.5682,0.051783
1305.5001,0.052070
1306.4319,0.052359
1307.3637,0.052632
1308.2956,0.052948
1309.2274,0.053360
1310.1592,0.053399
1311.0911,0.053251
1312.0229,0.053411
1312.9548,0.053846
1313.8866,0.054348
1314.8184,0.054394
1315.7503,0.054283
1316.6821,0.054435
1317.6139,0.054941
1318.5458,0.055346
1319.4776,0.055441
1320.4094,0.055527
1321.3413,0.055682
1322.2731,0.055812
1323.2049,0.055678
1324.1368,0.055627
1325.0686,0.055787
1326.0004,0.055658
1326.9323,0.055526
1327.8641,0.055661
1328.7959,0.055774
1329.7278,0.055761
1330.6596,0.055529
1331.5914,0.055137
1332.5233,0.055004
1333.4551,0.054828
1334.3869,0.054214
1335.3188,0.053563
1336.2506,0.053198
1337.1824,0.053159
1338.1143,0.053222
1339.0461,0.053239
1339.9780,0.053395
1340.9098,0.053300
1341.8416,0.052828
1342.7735,0.052165
1343.7053,0.051712
1344.6371,0.051325
1345.5690,0.051016
1346.5008,0.050903
1347.4326,0.050770
1348.3645,0.050486
1349.2963,0.050069
1350.2281,0.049891
1351.1600,0.049822
1352.0918,0.049517
1353.0236,0.049263
1353.9555,0.049105
1354.8873,0.049153
1355.8191,0.049335
1356.7510,0.049213
1357.6828,0.048971
1358.6146,0.048777
1359.5465,0.048639
1360.4783,0.048627
1361.4101,0.048902
1362.3420,0.049238
1363.2738,0.049897
1364.2056,0.050985
1365.1375,0.050962
1366.0693,0.050168
1367.0012,0.050286
1367.9330,0.050997
1368.8648,0.051767
1369.7967,0.052681
1370.7285,0.053237
1371.6603,0.053641
1372.5922,0.054568
1373.5240,0.055937
1374.4558,0.057899
1375.3877,0.060227
1376.3195,0.061403
1377.2513,0.061312
1378.1832,0.061425
1379.1150,0.062301
1380.0468,0.063128
1380.9787,0.063386
1381.9105,0.063722
1382.8423,0.064217
1383.7742,0.064305
1384.7060,0.064285
1385.6378,0.064107
1386.5697,0.063849
1387.5015,0.064326
1388.4333,0.065232
1389.3652,0.064734
1390.2970,0.063422
1391.2288,0.062422
1392.1607,0.061616
1393.0925,0.061089
1394.0244,0.060580
1394.9562,0.060631
1395.8880,0.061672
1396.8199,0.061847
1397.7517,0.061228
1398.6835,0.061159
1399.6154,0.061866
1400.5472,0.062458
1401.4790,0.061938
1402.4109,0.061478
1403.3427,0.061524
1404.2745,0.061559
1405.2064,0.062270
1406.1382,0.063697
1407.0700,0.063982
1408.0019,0.063268
1408.9337,0.062954
1409.8655,0.063105
1410.7974,0.063353
1411.7292,0.063461
1412.6610,0.063512
1413.5929,0.063560
1414.5247,0.063106
1415.4565,0.062211
1416.3884,0.062039
1417.3202,0.062438
1418.2520,0.062681
1419.1839,0.063026
1420.1157,0.064453
1421.0476,0.065005
1421.9794,0.063577
1422.9112,0.062401
1423.8431,0.061878
1424.7749,0.062160
1425.7067,0.062044
1426.6386,0.061137
1427.5704,0.060418
1428.5022,0.059802
1429.4341,0.059340
1430.3659,0.059478
1431.2977,0.059480
1432.2296,0.058423
1433.1614,0.057121
1434.0932,0.056427
1435.0251,0.056144
1435.9569,0.055607
1436.8887,0.056020
1437.8206,0.058261
1438.7524,0.058111
1439.6842,0.056372
1440.6161,0.055552
1441.5479,0.055386
1442.4797,0.055394
1443.4116,0.055453
1444.3434,0.055785
1445.2752,0.056110
1446.2071,0.056468
1447.1389,0.057346
1448.0707,0.058541
1449.0026,0.060345
1449.9344,0.061276
1450.8663,0.060970
1451.7981,0.060797
1452.7299,0.060567
1453.6618,0.060284
1454.5936,0.060020
1455.5254,0.059536
1456.4573,0.059073
1457.3891,0.059900
1458.3209,0.060824
1459.2528,0.059017
1460.1846,0.056547
1461.1164,0.054290
1462.0483,0.052010
1462.9801,0.050308
1463.9119,0.049463
1464.8438,0.049102
1465.7756,0.049215
1466.7074,0.048643
1467.6393,0.047443
1468.5711,0.046500
1469.5029,0.045556
1470.4348,0.044706
1471.3666,0.044132
1472.2984,0.044089
1473.2303,0.045414
1474.1621,0.046919
1475.0939,0.046805
1476.0258,0.046015
1476.9576,0.046178
1477.8895,0.046790
1478.8213,0.046107
1479.7531,0.045670
1480.6850,0.045940
1481.6168,0.046165
1482.5486,0.046460
1483.4805,0.046419
1484.4123,0.045969
1485.3441,0.045671
1486.2760,0.045405
1487.2078,0.044854
1488.1396,0.044743
1489.0715,0.045184
1490.0033,0.045197
1490.9351,0.045432
1491.8670,0.045174
1492.7988,0.043851
1493.7306,0.042482
1494.6625,0.041699
1495.5943,0.041507
1496.5261,0.041551
1497.4580,0.042353
1498.3898,0.042356
1499.3216,0.041838
1500.2535,0.042269
1501.1853,0.041857
1502.1171,0.041065
1503.0490,0.040688
1503.9808,0.039675
1504.9127,0.038508
1505.8445,0.038017
1506.7763,0.039039
1507.7082,0.043205
1508.6400,0.045119
1509.5718,0.043500
1510.5037,0.041849
1511.4355,0.040875
1512.3673,0.040561
1513.2992,0.040971
1514.2310,0.041222
1515.1628,0.040755
1516.0947,0.040338
1517.0265,0.040064
1517.9583,0.040805
1518.8902,0.041711
1519.8220,0.040929
1520.7538,0.040221
1521.6857,0.041033
1522.6175,0.042693
1523.5493,0.042666
1524.4812,0.041566
1525.4130,0.040617
1526.3448,0.041154
1527.2767,0.042038
1528.2085,0.042078
1529.1403,0.042186
1530.0722,0.041950
1531.0040,0.041433
1531.9359,0.041231
1532.8677,0.041637
1533.7995,0.042398
1534.7314,0.043432
1535.6632,0.043053
1536.5950,0.041622
1537.5269,0.040820
1538.4587,0.040184
1539.3905,0.040029
1540.3224,0.042972
1541.2542,0.046358
1542.1860,0.044687
1543.1179,0.043403
1544.0497,0.044309
1544.9815,0.044974
1545.9134,0.045073
1546.8452,0.045069
1547.7770,0.044382
1548.7089,0.043780
1549.6407,0.043856
1550.5725,0.044743
1551.5044,0.045894
1552.4362,0.045285
1553.3680,0.044193
1554.2999,0.043830
1555.2317,0.044442
1556.1635,0.045341
1557.0954,0.044631
1558.0272,0.044437
1558.9591,0.047427
1559.8909,0.052904
1560.8227,0.053836
1561.7546,0.051273
1562.6864,0.048665
1563.6182,0.047611
1564.5501,0.047673
1565.4819,0.048306
1566.4137,0.049101
1567.3456,0.049167
1568.2774,0.049197
1569.2092,0.049552
1570.1411,0.050887
1571.0729,0.053017
1572.0047,0.052456
1572.9366,0.051148
1573.8684,0.050937
1574.8002,0.051178
1575.7321,0.051844
1576.6639,0.053874
1577.5957,0.057161
1578.5276,0.057441
1579.4594,0.056212
1580.3912,0.056014
1581.3231,0.056710
1582.2549,0.057340
1583.1867,0.058166
1584.1186,0.058951
1585.0504,0.059437
1585.9822,0.059991
1586.9141,0.060700
1587.8459,0.061433
1588.7778,0.062133
1589.7096,0.062836
1590.6414,0.063745
1591.5733,0.064928
1592.5051,0.065968
1593.4369,0.066893
1594.3688,0.067788
1595.3006,0.069097
1596.2324,0.070667
1597.1643,0.071723
1598.0961,0.072694
1599.0279,0.073592
1599.9598,0.074503
1600.8916,0.076144
1601.8234,0.077717
1602.7553,0.078599
1603.6871,0.079920
1604.6189,0.082175
1605.5508,0.083914
1606.4826,0.084899
1607.4144,0.086422
1608.3463,0.088847
1609.2781,0.091068
1610.2099,0.092584
1611.1418,0.093811
1612.0736,0.095139
1613.0054,0.096481
1613.9373,0.097618
1614.8691,0.099852
1615.8010,0.102480
1616.7328,0.105561
1617.6646,0.111710
1618.5965,0.116964
1619.5283,0.115526
1620.4601,0.114264
1621.3920,0.115175
1622.3238,0.116951
1623.2556,0.119557
1624.1875,0.123767
1625.1193,0.128713
1626.0511,0.129187
1626.9830,0.128321
1627.9148,0.130026
1628.8466,0.133793
1629.7785,0.136410
1630.7103,0.135591
1631.6421,0.135012
1632.5740,0.134827
1633.5058,0.134414
1634.4376,0.134888
1635.3695,0.138817
1636.3013,0.146752
1637.2331,0.151662
1638.1650,0.148941
1639.0968,0.146808
1640.0286,0.144718
1640.9605,0.142751
1641.8923,0.141651
1642.8242,0.140768
1643.7560,0.140255
1644.6878,0.139828
1645.6197,0.138870
1646.5515,0.139495
1647.4833,0.141636
1648.4152,0.142264
1649.3470,0.141021
1650.2788,0.138011
1651.2107,0.134051
1652.1425,0.131970
1653.0743,0.134276
1654.0062,0.143690
1654.9380,0.145528
1655.8698,0.137698
1656.8017,0.131362
1657.7335,0.127347
1658.6653,0.125121
1659.5972,0.123996
1660.5290,0.122338
1661.4608,0.120275
1662.3927,0.119134
1663.3245,0.118868
1664.2563,0.118149
1665.1882,0.115232
1666.1200,0.112130
1667.0518,0.110085
1667.9837,0.108363
1668.9155,0.107274
1669.8474,0.107189
1670.7792,0.105902
1671.7110,0.102694
1672.6429,0.100870
1673.5747,0.099480
1674.5065,0.096843
1675.4384,0.095032
1676.3702,0.095217
1677.3020,0.094289
1678.2339,0.091106
1679.1657,0.088309
1680.0975,0.086402
1681.0294,0.084965
1681.9612,0.083369
1682.8930,0.080997
1683.8249,0.079315
1684.7567,0.079948
1685.6885,0.080807
1686.6204,0.078172
1687.5522,0.075028
1688.4840,0.072734
1689.4159,0.071336
1690.3477,0.069813
1691.2795,0.067946
1692.2114,0.066217
1693.1432,0.064534
1694.0750,0.062501
1695.0069,0.060503
1695.9387,0.059561
1696.8706,0.059887
1697.8024,0.058562
1698.7342,0.056690
1699.6661,0.054967
1700.5979,0.053889
1701.5297,0.053684
1702.4616,0.052979
1703.3934,0.051117
1704.3252,0.049112
1705.2571,0.047431
1706.1889,0.046370
1707.1207,0.045496
1708.0526,0.045082
1708.9844,0.044389
1709.9162,0.043399
1710.8481,0.042425
1711.7799,0.041597
1712.7117,0.040624
1713.6436,0.039577
1714.5754,0.038428
1715.5072,0.037770
1716.4391,0.037562
1717.3709,0.036772
1718.3027,0.035561
1719.2346,0.035762
1720.1664,0.035423
1721.0982,0.033772
1722.0301,0.032762
1722.9619,0.032183
1723.8937,0.031562
1724.8256,0.031164
1725.7574,0.030995
1726.6893,0.030241
1727.6211,0.029200
1728.5529,0.028476
1729.4848,0.028197
1730.4166,0.027987
1731.3484,0.027566
1732.2803,0.026753
1733.2121,0.025892
1734.1439,0.025389
1735.0758,0.026117
1736.0076,0.026677
1736.9394,0.025187
1737.8713,0.024074
1738.8031,0.023515
1739.7349,0.023131
1740.6668,0.023202
1741.5986,0.023992
1742.5304,0.023812
1743.4623,0.022695
1744.3941,0.022113
1745.3259,0.022380
1746.2578,0.022492
1747.1896,0.021722
1748.1214,0.021028
1749.0533,0.021197
1749.9851,0.021475
1750.9169,0.021071
1751.8488,0.020744
1752.7806,0.020909
1753.7125,0.020347
1754.6443,0.019517
1755.5761,0.019145
1756.5080,0.018922
1757.4398,0.018751
1758.3716,0.018819
1759.3035,0.018836
1760.2353,0.018432
1761.1671,0.017584
1762.0990,0.017036
1763.0308,0.017136
1763.9626,0.017089
1764.8945,0.017012
1765.8263,0.016750
1766.7581,0.016512
1767.6900,0.016395
1768.6218,0.016651
1769.5536,0.016694
1770.4855,0.016275
1771.4173,0.015534
1772.3491,0.014820
1773.2810,0.014951
1774.2128,0.015572
1775.1446,0.015638
1776.0765,0.015386
1777.0083,0.015320
1777.9401,0.015296
1778.8720,0.014849
1779.8038,0.014406
1780.7357,0.014343
1781.6675,0.014468
1782.5993,0.014328
1783.5312,0.014019
1784.4630,0.014070
1785.3948,0.014420
1786.3267,0.014132
1787.2585,0.013955
1788.1903,0.014187
1789.1222,0.013551
1790.0540,0.013182
1790.9858,0.013249
1791.9177,0.013280
1792.8495,0.013404
1793.7813,0.012981
1794.7132,0.012824
1795.6450,0.012833
1796.5768,0.012554
1797.5087,0.012366
1798.4405,0.012442
1799.3723,0.012697
1800.3042,0.012692
1801.2360,0.012632
1802.1678,0.012346
1803.0997,0.012353
1804.0315,0.011709
1804.9633,0.011858
1805.8952,0.011941
1806.8270,0.011850
1807.7589,0.011985
1808.6907,0.012004
1809.6225,0.011682
1810.5544,0.011350
1811.4862,0.011057
1812.4180,0.011226
1813.3499,0.011769
1814.2817,0.011590
1815.2135,0.010745
1816.1454,0.010970
1817.0772,0.011767
1818.0090,0.011862
1818.9409,0.011928
1819.8727,0.011848
1820.8045,0.011655
1821.7364,0.011141
1822.6682,0.010439
1823.6000,0.010260
1824.5319,0.010620
1825.4637,0.011195
1826.3955,0.011668
1827.3274,0.011524
1828.2592,0.010674
1829.1910,0.010237
1830.1229,0.010183
1831.0547,0.010268
1831.9865,0.010490
1832.9184,0.010303
1833.8502,0.010137
1834.7821,0.010289
1835.7139,0.010123
1836.6457,0.010205
1837.5776,0.010529
1838.5094,0.010131
1839.4412,0.009979
1840.3731,0.010091
1841.3049,0.009640
1842.2367,0.009283
1843.1686,0.009455
1844.1004,0.009899
1845.0322,0.010343
1845.9641,0.009905
1846.8959,0.009148
1847.8277,0.009082
1848.7596,0.009757
1849.6914,0.009813
1850.6232,0.009567
1851.5551,0.009731
1852.4869,0.009894
1853.4187,0.009525
1854.3506,0.009015
1855.2824,0.008876
1856.2142,0.008816
1857.1461,0.009275
1858.0779,0.009970
1859.0097,0.009608
1859.9416,0.009632
1860.8734,0.010023
1861.8052,0.010193
1862.7371,0.010095
1863.6689,0.010121
1864.6008,0.010619
1865.5326,0.010388
1866.4644,0.009352
1867.3963,0.008226
1868.3281,0.007727
1869.2599,0.007530
1870.1918,0.007713
1871.1236,0.009000
1872.0554,0.009555
1872.9873,0.008927
1873.9191,0.008619
1874.8509,0.008820
1875.7828,0.008954
1876.7146,0.008136
1877.6464,0.008327
1878.5783,0.009382
1879.5101,0.009862
1880.4419,0.009698
1881.3738,0.009195
1882.3056,0.008964
1883.2374,0.009135
1884.1693,0.008538
1885.1011,0.008366
1886.0329,0.008478
1886.9648,0.008125
1887.8966,0.008027
1888.8284,0.008899
1889.7603,0.009423
1890.6921,0.008905
1891.6240,0.008417
1892.5558,0.008588
1893.4876,0.008821
1894.4195,0.008980
1895.3513,0.008221
1896.2831,0.008031
1897.2150,0.008705
1898.1468,0.009009
1899.0786,0.009453
1900.0105,0.009543
1900.9423,0.008707
1901.8741,0.008862
1902.8060,0.009389
1903.7378,0.008928
1904.6696,0.008562
1905.6015,0.007638
1906.5333,0.008231
1907.4651,0.009918
1908.3970,0.010094
1909.3288,0.009460
1910.2606,0.009006
1911.1925,0.008807
1912.1243,0.008469
1913.0561,0.007977
1913.9880,0.008435
1914.9198,0.010437
1915.8516,0.010885
1916.7835,0.009192
1917.7153,0.007330
1918.6472,0.007607
1919.5790,0.007984
1920.5108,0.008092
1921.4427,0.008711
1922.3745,0.008665
1923.3063,0.007840
1924.2382,0.008467
1925.1700,0.009449
1926.1018,0.008484
1927.0337,0.008345
1927.9655,0.008440
1928.8973,0.007951
1929.8292,0.007537
1930.7610,0.007747
1931.6928,0.007484
1932.6247,0.006736
1933.5565,0.007570
1934.4883,0.007800
1935.4202,0.008021
1936.3520,0.008408
1937.2838,0.007209
1938.2157,0.007301
1939.1475,0.007729
1940.0793,0.005491
1941.0112,0.005860
1941.9430,0.007011
1942.8748,0.005943
1943.8067,0.004705
1944.7385,0.005487
1945.6704,0.006937
1946.6022,0.007125
1947.5340,0.007306
1948.4659,0.006654
1949.3977,0.006051
1950.3295,0.007792
1951.2614,0.008613
1952.1932,0.008372
1953.1250,0.007394
1954.0569,0.006202
1954.9887,0.004776
1955.9205,0.005224
1956.8524,0.005980
1957.7842,0.005514
1958.7160,0.006386
1959.6479,0.007480
1960.5797,0.007573
1961.5115,0.005754
1962.4434,0.003949
1963.3752,0.004289
1964.3070,0.004707
1965.2389,0.005005
1966.1707,0.006159
1967.1025,0.006122
1968.0344,0.004671
1968.9662,0.004836
1969.8980,0.005947
1970.8299,0.004870
1971.7617,0.006644
1972.6936,0.009000
1973.6254,0.007473
1974.5572,0.003780
1975.4891,0.002883
1976.4209,0.001730
1977.3527,-0.000291
1978.2846,0.000215
1979.2164,0.000986
1980.1482,0.001358
1981.0801,0.003454
1982.0119,0.003603
1982.9437,0.003636
1983.8756,0.003832
1984.8074,0.004934
1985.7392,0.005858
1986.6711,0.004644
1987.6029,0.004027
1988.5347,0.003802
1989.4666,0.002796
1990.3984,0.003347
1991.3302,0.006372
1992.2621,0.008221
1993.1939,0.006323
1994.1257,0.004928
1995.0576,0.005402
1995.9894,0.004769
1996.9212,0.004765
1997.8531,0.005345
1998.7849,0.009183
1999.7167,0.008625
2000.6486,0.005938
2001.5804,0.006430
2002.5123,0.006312
2003.4441,0.006615
2004.3759,0.008436
2005.3078,0.007199
2006.2396,0.005960
2007.1714,0.007068
2008.1033,0.008113
2009.0351,0.008614
2009.9669,0.006347
2010.8988,0.005983
2011.8306,0.002433
2012.7624,-0.000830
2013.6943,0.001937
2014.6261,0.005217
2015.5579,0.006251
2016.4898,0.005647
2017.4216,0.006987
2018.3534,0.005922
2019.2853,0.001469
2020.2171,0.000752
2021.1489,0.003408
2022.0808,0.008960
2023.0126,0.009560
2023.9444,0.008207
2024.8763,0.004791
2025.8081,0.002852
2026.7399,0.003044
2027.6718,0.004106
2028.6036,0.004844
2029.5355,0.002529
2030.4673,0.002072
2031.3991,0.004656
2032.3310,0.006961
2033.2628,0.006638
2034.1946,0.008127
2035.1265,0.008140
2036.0583,0.006087
2036.9901,0.007281
2037.9220,0.007267
2038.8538,0.006535
2039.7856,0.008228
2040.7175,0.008204
2041.6493,0.005676
2042.5811,0.004623
2043.5130,0.006243
2044.4448,0.006944
2045.3766,0.004919
2046.3085,0.002585
2047.2403,0.004921
2048.1721,0.006836
2049.1040,0.006758
2050.0358,0.006719
2050.9676,0.006043
2051.8995,0.007074
2052.8313,0.009909
2053.7631,0.009678
2054.6950,0.010831
2055.6268,0.011646
2056.5587,0.010331
2057.4905,0.009090
2058.4223,0.008311
2059.3542,0.008006
2060.2860,0.012281
2061.2178,0.014267
2062.1497,0.013263
2063.0815,0.012045
2064.0133,0.009459
2064.9452,0.008144
2065.8770,0.009835
2066.8088,0.013126
2067.7407,0.013474
2068.6725,0.011913
2069.6043,0.010143
2070.5362,0.010519
2071.4680,0.011620
2072.3998,0.013044
2073.3317,0.012358
2074.2635,0.011597
2075.1953,0.011381
2076.1272,0.011007
2077.0590,0.010692
2077.9908,0.011746
2078.9227,0.011830
2079.8545,0.012296
2080.7863,0.013852
2081.7182,0.014380
2082.6500,0.013769
2083.5819,0.012391
2084.5137,0.011933
2085.4455,0.012775
2086.3774,0.013912
2087.3092,0.013765
2088.2410,0.013428
2089.1729,0.013441
2090.1047,0.013426
2091.0365,0.013434
2091.9684,0.012908
2092.9002,0.013049
2093.8320,0.012955
2094.7639,0.012518
2095.6957,0.012336
2096.6275,0.013215
2097.5594,0.013544
2098.4912,0.012551
2099.4230,0.012514
2100.3549,0.012555
2101.2867,0.012420
2102.2185,0.014253
2103.1504,0.014950
2104.0822,0.013184
2105.0140,0.011617
2105.9459,0.012578
2106.8777,0.014976
2107.8095,0.014603
2108.7414,0.013178
2109.6732,0.013177
2110.6051,0.013814
2111.5369,0.013038
2112.4687,0.013464
2113.4006,0.014854
2114.3324,0.016614
2115.2642,0.015592
2116.1961,0.012818
2117.1279,0.011702
2118.0597,0.013032
2118.9916,0.013334
2119.9234,0.012873
2120.8552,0.013840
2121.7871,0.015277
2122.7189,0.015460
2123.6507,0.013889
2124.5826,0.012915
2125.5144,0.012630
2126.4462,0.012917
2127.3781,0.013439
2128.3099,0.013067
2129.2417,0.013361
2130.1736,0.014355
2131.1054,0.014391
2132.0372,0.013992
2132.9691,0.013660
2133.9009,0.013007
2134.8327,0.011511
2135.7646,0.010814
2136.6964,0.013427
2137.6282,0.013953
2138.5601,0.012699
2139.4919,0.013765
2140.4238,0.012283
2141.3556,0.011275
2142.2874,0.013091
2143.2193,0.012953
2144.1511,0.011735
2145.0829,0.009495
2146.0148,0.010141
2146.9466,0.011084
2147.8784,0.010031
2148.8103,0.009957
2149.7421,0.011360
2150.6739,0.010758
2151.6058,0.009134
2152.5376,0.010379
2153.4694,0.008225
2154.4013,0.004161
2155.3331,0.003552
2156.2649,0.006665
2157.1968,0.012101
2158.1286,0.013725
2159.0604,0.007265
2159.9923,0.002850
2160.9241,0.003375
2161.8559,0.005622
2162.7878,0.007028
2163.7196,0.005747
2164.6514,0.006200
2165.5833,0.007299
2166.5151,0.006452
2167.4470,0.005697
2168.3788,0.007968
2169.3106,0.011098
2170.2425,0.008811
2171.1743,0.010375
2172.1061,0.011383
2173.0380,0.007300
2173.9698,0.004916
2174.9016,0.008380
2175.8335,0.010414
2176.7653,0.006149
2177.6971,0.004581
2178.6290,0.004991
2179.5608,0.004700
2180.4926,0.007077
2181.4245,0.010464
2182.3563,0.009509
2183.2881,0.006264
2184.2200,0.002513
2185.1518,0.004070
2186.0836,0.008122
2187.0155,0.007709
2187.9473,0.008614
2188.8791,0.011316
2189.8110,0.011933
2190.7428,0.009563
2191.6746,0.006805
2192.6065,0.005820
2193.5383,0.007618
2194.4702,0.007696
2195.4020,0.005151
2196.3338,0.003275
2197.2657,0.005650
2198.1975,0.011471
2199.1293,0.013195
2200.0612,0.010343
2200.9930,0.007999
2201.9248,0.009373
2202.8567,0.008195
2203.7885,0.006541
2204.7203,0.008761
2205.6522,0.007859
2206.5840,0.004698
2207.5158,0.006239
2208.4477,0.008810
2209.3795,0.009890
2210.3113,0.010901
2211.2432,0.010694
2212.1750,0.011721
2213.1068,0.010423
2214.0387,0.007860
2214.9705,0.007769
2215.9023,0.008621
2216.8342,0.010448
2217.7660,0.011428
2218.6978,0.012546
2219.6297,0.012947
2220.5615,0.009699
2221.4934,0.007971
2222.4252,0.008340
2223.3570,0.010549
2224.2889,0.010460
2225.2207,0.008252
2226.1525,0.008035
2227.0844,0.008172
2228.0162,0.007969
2228.9480,0.008751
2229.8799,0.009281
2230.8117,0.010259
2231.7435,0.010040
2232.6754,0.008234
2233.6072,0.006498
2234.5390,0.007261
2235.4709,0.009059
2236.4027,0.009054
2237.3345,0.007662
2238.2664,0.007889
2239.1982,0.008129
2240.1300,0.007195
2241.0619,0.007068
2241.9937,0.008915
2242.9255,0.010370
2243.8574,0.011239
2244.7892,0.011675
2245.7210,0.011119
2246.6529,0.009606
2247.5847,0.008367
2248.5166,0.009778
2249.4484,0.010487
2250.3802,0.008758
2251.3121,0.007687
2252.2439,0.009219
2253.1757,0.010088
2254.1076,0.009695
2255.0394,0.009321
2255.9712,0.007707
2256.9031,0.007199
2257.8349,0.009099
2258.7667,0.010165
2259.6986,0.010157
2260.6304,0.009517
2261.5622,0.009254
2262.4941,0.009880
2263.4259,0.009771
2264.3577,0.008797
2265.2896,0.008872
2266.2214,0.009535
2267.1532,0.009900
2268.0851,0.009588
2269.0169,0.009032
2269.9487,0.009402
2270.8806,0.009911
2271.8124,0.010330
2272.7442,0.009980
2273.6761,0.009497
2274.6079,0.009378
2275.5397,0.009900
2276.4716,0.010146
2277.4034,0.009593
2278.3353,0.010213
2279.2671,0.010227
2280.1989,0.010148
2281.1308,0.010056
2282.0626,0.009441
2282.9944,0.009376
2283.9263,0.009576
2284.8581,0.008966
2285.7899,0.009470
2286.7218,0.010869
2287.6536,0.011520
2288.5854,0.010307
2289.5173,0.008864
2290.4491,0.009182
2291.3809,0.010706
2292.3128,0.010835
2293.2446,0.009466
2294.1764,0.009110
2295.1083,0.009686
2296.0401,0.009514
2296.9719,0.009446
2297.9038,0.009906
2298.8356,0.009519
2299.7674,0.009122
2300.6993,0.009861
2301.6311,0.010365
2302.5629,0.009394
2303.4948,0.008646
2304.4266,0.008648
2305.3585,0.009072
2306.2903,0.009292
2307.2221,0.009291
2308.1540,0.009598
2309.0858,0.009943
2310.0176,0.010237
2310.9495,0.009704
2311.8813,0.009125
2312.8131,0.009187
2313.7450,0.009515
2314.6768,0.009609
2315.6086,0.009533
2316.5405,0.009019
2317.4723,0.008478
2318.4041,0.008433
2319.3360,0.008697
2320.2678,0.009166
2321.1996,0.009282
2322.1315,0.009102
2323.0633,0.009369
2323.9951,0.009346
2324.9270,0.009065
2325.8588,0.008667
2326.7906,0.008175
2327.7225,0.008617
2328.6543,0.008458
2329.5861,0.007531
2330.5180,0.007729
2331.4498,0.008749
2332.3817,0.009567
2333.3135,0.009417
2334.2453,0.008707
2335.1772,0.008754
2336.1090,0.008825
2337.0408,0.007915
2337.9727,0.008098
2338.9045,0.008933
2339.8363,0.008649
2340.7682,0.007951
2341.7000,0.007903
2342.6318,0.007914
2343.5637,0.007414
2344.4955,0.007415
2345.4273,0.008136
2346.3592,0.008264
2347.2910,0.007820
2348.2228,0.007347
2349.1547,0.007554
2350.0865,0.008281
2351.0183,0.008791
2351.9502,0.008465
2352.8820,0.007747
2353.8138,0.007650
2354.7457,0.008208
2355.6775,0.008217
2356.6093,0.007738
2357.5412,0.007592
2358.4730,0.006726
2359.4049,0.006042
2360.3367,0.006671
2361.2685,0.007277
2362.2004,0.006816
2363.1322,0.006353
2364.0640,0.007530
2364.9959,0.007934
2365.9277,0.007541
2366.8595,0.007416
2367.7914,0.007095
2368.7232,0.007357
2369.6550,0.006945
2370.5869,0.005693
2371.5187,0.005458
2372.4505,0.006734
2373.3824,0.007612
2374.3142,0.007699
2375.2460,0.006858
2376.1779,0.006398
2377.1097,0.007055
2378.0415,0.006998
2378.9734,0.006493
2379.9052,0.006833
2380.8370,0.007886
2381.7689,0.008625
2382.7007,0.008114
2383.6325,0.007119
2384.5644,0.007363
2385.4962,0.007668
2386.4281,0.007387
2387.3599,0.007499
2388.2917,0.007455
2389.2236,0.007001
2390.1554,0.007656
2391.0872,0.008200
2392.0191,0.007227
2392.9509,0.006946
2393.8827,0.007662
2394.8146,0.007715
2395.7464,0.007596
2396.6782,0.007703
2397.6101,0.007175
2398.5419,0.006739
2399.4737,0.006813
2400.4056,0.006753
2401.3374,0.006855
2402.2692,0.006645
2403.2011,0.006485
2404.1329,0.006623
2405.0647,0.006791
2405.9966,0.007057
2406.9284,0.007568
2407.8602,0.007546
2408.7921,0.007305
2409.7239,0.007445
2410.6557,0.007585
2411.5876,0.007604
2412.5194,0.007205
2413.4512,0.007121
2414.3831,0.007121
2415.3149,0.006531
2416.2468,0.006370
2417.1786,0.006755
2418.1104,0.006696
2419.0423,0.006323
2419.9741,0.006128
2420.9059,0.006513
2421.8378,0.006250
2422.7696,0.005188
2423.7014,0.005861
2424.6333,0.007061
2425.5651,0.007008
2426.4969,0.006485
2427.4288,0.006075
2428.3606,0.005852
2429.2924,0.005861
2430.2243,0.005901
2431.1561,0.005971
2432.0879,0.005776
2433.0198,0.004990
2433.9516,0.004863
2434.8834,0.005534
2435.8153,0.006020
2436.7471,0.006020
2437.6789,0.005597
2438.6108,0.005551
2439.5426,0.005593
2440.4744,0.005048
2441.4063,0.004960
2442.3381,0.005306
2443.2700,0.005371
2444.2018,0.005427
2445.1336,0.005315
2446.0655,0.005354
2446.9973,0.005610
2447.9291,0.005092
2448.8610,0.004965
2449.7928,0.006065
2450.7246,0.006299
2451.6565,0.005729
2452.5883,0.005681
2453.5201,0.005733
2454.4520,0.005950
2455.3838,0.006699
2456.3156,0.006298
2457.2475,0.004716
2458.1793,0.005124
2459.1111,0.005908
2460.0430,0.005080
2460.9748,0.004746
2461.9066,0.005345
2462.8385,0.005404
2463.7703,0.005085
2464.7021,0.005160
2465.6340,0.005164
2466.5658,0.005026
2467.4976,0.005327
2468.4295,0.005688
2469.3613,0.005954
2470.2932,0.006469
2471.2250,0.005914
2472.1568,0.005469
2473.0887,0.005367
2474.0205,0.005153
2474.9523,0.005652
2475.8842,0.005894
2476.8160,0.005854
2477.7478,0.005298
2478.6797,0.004685
2479.6115,0.005072
2480.5433,0.005980
2481.4752,0.006128
2482.4070,0.005773
2483.3388,0.005636
2484.2707,0.005355
2485.2025,0.005401
2486.1343,0.005164
2487.0662,0.005013
2487.9980,0.005924
2488.9298,0.006047
2489.8617,0.005111
2490.7935,0.005037
2491.7253,0.006142
2492.6572,0.006448
2493.5890,0.005176
2494.5208,0.004789
2495.4527,0.005714
2496.3845,0.005318
2497.3164,0.003945
2498.2482,0.003802
2499.1800,0.004996
2500.1119,0.006116
2501.0437,0.006065
2501.9755,0.005722
2502.9074,0.005459
2503.8392,0.005047
2504.7710,0.004466
2505.7029,0.004826
2506.6347,0.005886
2507.5665,0.005401
2508.4984,0.004825
2509.4302,0.005779
2510.3620,0.006077
2511.2939,0.005080
2512.2257,0.004463
2513.1575,0.004794
2514.0894,0.004648
2515.0212,0.004785
2515.9530,0.005120
2516.8849,0.005229
2517.8167,0.005912
2518.7485,0.005817
2519.6804,0.004651
2520.6122,0.004335
2521.5440,0.004467
2522.4759,0.004535
2523.4077,0.004712
2524.3396,0.004795
2525.2714,0.005145
2526.2032,0.005161
2527.1351,0.005091
2528.0669,0.006115
2528.9987,0.006373
2529.9306,0.004478
2530.8624,0.004163
2531.7942,0.006154
2532.7261,0.005919
2533.6579,0.004215
2534.5897,0.004309
2535.5216,0.004444
2536.4534,0.004742
2537.3852,0.005241
2538.3171,0.005062
2539.2489,0.004687
2540.1807,0.005029
2541.1126,0.005177
2542.0444,0.005023
2542.9762,0.005694
2543.9081,0.006221
2544.8399,0.006074
2545.7717,0.005683
2546.7036,0.005413
2547.6354,0.004994
2548.5672,0.003801
2549.4991,0.003885
2550.4309,0.005018
2551.3627,0.004561
2552.2946,0.004347
2553.2264,0.005440
2554.1583,0.005219
2555.0901,0.004474
2556.0219,0.004928
2556.9538,0.005308
2557.8856,0.004136
2558.8174,0.003250
2559.7493,0.004228
2560.6811,0.004642
2561.6129,0.004496
2562.5448,0.005223
2563.4766,0.005099
2564.4084,0.004040
2565.3403,0.004480
2566.2721,0.004863
2567.2039,0.004618
2568.1358,0.005215
2569.0676,0.005123
2569.9994,0.004522
2570.9313,0.004727
2571.8631,0.004713
2572.7949,0.004481
2573.7268,0.004490
2574.6586,0.004691
2575.5904,0.005100
2576.5223,0.005180
2577.4541,0.004346
2578.3859,0.004061
2579.3178,0.004489
2580.2496,0.004420
2581.1815,0.004382
2582.1133,0.005068
2583.0451,0.005555
2583.9770,0.005706
2584.9088,0.005847
2585.8406,0.005497
2586.7725,0.004488
2587.7043,0.003791
2588.6361,0.003682
2589.5680,0.003831
2590.4998,0.003922
2591.4316,0.004038
2592.3635,0.004825
2593.2953,0.005188
2594.2271,0.004602
2595.1590,0.004442
2596.0908,0.004467
2597.0226,0.004592
2597.9545,0.005636
2598.8863,0.006112
2599.8181,0.005520
2600.7500,0.005316
2601.6818,0.005200
2602.6136,0.004985
2603.5455,0.004850
2604.4773,0.004890
2605.4091,0.005103
2606.3410,0.005739
2607.2728,0.006114
2608.2047,0.005366
2609.1365,0.004398
2610.0683,0.004317
2611.0002,0.004982
2611.9320,0.004999
2612.8638,0.004797
2613.7957,0.005164
2614.7275,0.005288
2615.6593,0.005087
2616.5912,0.005171
2617.5230,0.005393
2618.4548,0.005463
2619.3867,0.005122
2620.3185,0.004896
2621.2503,0.005340
2622.1822,0.005719
2623.1140,0.005331
2624.0458,0.005541
2624.9777,0.006099
2625.9095,0.006003
2626.8413,0.005988
2627.7732,0.006037
2628.7050,0.005802
2629.6368,0.005989
2630.5687,0.005919
2631.5005,0.005893
2632.4323,0.006325
2633.3642,0.006082
2634.2960,0.005913
2635.2279,0.006064
2636.1597,0.005974
2637.0915,0.006087
2638.0234,0.006087
2638.9552,0.005788
2639.8870,0.005291
2640.8189,0.005216
2641.7507,0.006033
2642.6825,0.006113
2643.6144,0.005359
2644.5462,0.005195
2645.4780,0.005513
2646.4099,0.006552
2647.3417,0.007290
2648.2735,0.006731
2649.2054,0.006062
2650.1372,0.006177
2651.0690,0.006290
2652.0009,0.006305
2652.9327,0.006177
2653.8645,0.005989
2654.7964,0.006170
2655.7282,0.006209
2656.6600,0.006433
2657.5919,0.006524
2658.5237,0.006789
2659.4555,0.006850
2660.3874,0.006606
2661.3192,0.006550
2662.2511,0.006351
2663.1829,0.006116
2664.1147,0.006551
2665.0466,0.006983
2665.9784,0.007066
2666.9102,0.006968
2667.8421,0.006854
2668.7739,0.007176
2669.7057,0.007078
2670.6376,0.006814
2671.5694,0.007286
2672.5012,0.007676
2673.4331,0.007428
2674.3649,0.006813
2675.2967,0.006728
2676.2286,0.006637
2677.1604,0.006652
2678.0922,0.007057
2679.0241,0.007210
2679.9559,0.007133
2680.8877,0.006963
2681.8196,0.007209
2682.7514,0.007567
2683.6832,0.007766
2684.6151,0.007857
2685.5469,0.007852
2686.4787,0.007692
2687.4106,0.007505
2688.3424,0.007930
2689.2742,0.008298
2690.2061,0.008087
2691.1379,0.007901
2692.0698,0.007979
2693.0016,0.007689
2693.9334,0.007652
2694.8653,0.008025
2695.7971,0.008244
2696.7289,0.008018
2697.6608,0.007868
2698.5926,0.008048
2699.5244,0.008477
2700.4563,0.008664
2701.3881,0.008558
2702.3199,0.008233
2703.2518,0.008333
2704.1836,0.008387
2705.1154,0.008726
2706.0473,0.009223
2706.9791,0.009005
2707.9109,0.008936
2708.8428,0.009099
2709.7746,0.008923
2710.7064,0.008904
2711.6383,0.008989
2712.5701,0.008897
2713.5019,0.008567
2714.4338,0.008781
2715.3656,0.008973
2716.2974,0.008857
2717.2293,0.009197
2718.1611,0.009244
2719.0930,0.009206
2720.0248,0.009459
2720.9566,0.009982
2721.8885,0.010069
2722.8203,0.009778
2723.7521,0.009662
2724.6840,0.009678
2725.6158,0.009879
2726.5476,0.009947
2727.4795,0.010170
2728.4113,0.010628
2729.3431,0.011003
2730.2750,0.010950
2731.2068,0.010877
2732.1386,0.010465
2733.0705,0.009712
2734.0023,0.009885
2734.9341,0.010440
2735.8660,0.011097
2736.7978,0.011289
2737.7296,0.010752
2738.6615,0.010166
2739.5933,0.009807
2740.5251,0.010373
2741.4570,0.011089
2742.3888,0.011178
2743.3206,0.011233
2744.2525,0.011078
2745.1843,0.010786
2746.1162,0.010797
2747.0480,0.010667
2747.9798,0.010731
2748.9117,0.010947
2749.8435,0.010773
2750.7753,0.010988
2751.7072,0.011305
2752.6390,0.011454
2753.5708,0.011407
2754.5027,0.011307
2755.4345,0.011400
2756.3663,0.011751
2757.2982,0.011632
2758.2300,0.011540
2759.1618,0.011652
2760.0937,0.011898
2761.0255,0.012377
2761.9573,0.012425
2762.8892,0.012169
2763.8210,0.012008
2764.7528,0.011961
2765.6847,0.012167
2766.6165,0.011891
2767.5483,0.011832
2768.4802,0.012398
2769.4120,0.012618
2770.3438,0.012540
2771.2757,0.012195
2772.2075,0.011722
2773.1394,0.011958
2774.0712,0.012177
2775.0030,0.012220
2775.9349,0.012544
2776.8667,0.012594
2777.7985,0.012641
2778.7304,0.012534
2779.6622,0.012400
2780.5940,0.012326
2781.5259,0.012552
2782.4577,0.012756
2783.3895,0.013240
2784.3214,0.013642
2785.2532,0.013164
2786.1850,0.013223
2787.1169,0.013438
2788.0487,0.013087
2788.9805,0.012801
2789.9124,0.013042
2790.8442,0.013929
2791.7760,0.014253
2792.7079,0.014125
2793.6397,0.014329
2794.5715,0.014635
2795.5034,0.014400
2796.4352,0.014744
2797.3670,0.015317
2798.2989,0.015504
2799.2307,0.015374
2800.1626,0.015393
2801.0944,0.015605
2802.0262,0.015464
2802.9581,0.015932
2803.8899,0.016044
2804.8217,0.016077
2805.7536,0.016386
2806.6854,0.016773
2807.6172,0.017022
2808.5491,0.016248
2809.4809,0.016110
2810.4127,0.016847
2811.3446,0.017169
2812.2764,0.017564
2813.2082,0.018173
2814.1401,0.018322
2815.0719,0.018262
2816.0037,0.018282
2816.9356,0.018226
2817.8674,0.018044
2818.7992,0.018063
2819.7311,0.018281
2820.6629,0.018716
2821.5947,0.019355
2822.5266,0.019348
2823.4584,0.019401
2824.3902,0.019276
2825.3221,0.019057
2826.2539,0.019428
2827.1857,0.020315
2828.1176,0.020353
2829.0494,0.020469
2829.9813,0.020582
2830.9131,0.020383
2831.8449,0.020529
2832.7768,0.020707
2833.7086,0.020758
2834.6404,0.020979
2835.5723,0.021135
2836.5041,0.021467
2837.4359,0.022542
2838.3678,0.022798
2839.2996,0.022501
2840.2314,0.022356
2841.1633,0.022818
2842.0951,0.023282
2843.0269,0.023430
2843.9588,0.023396
2844.8906,0.023438
2845.8224,0.023339
2846.7543,0.023605
2847.6861,0.024405
2848.6179,0.024617
2849.5498,0.024391
2850.4816,0.024363
2851.4134,0.024954
2852.3453,0.025388
2853.2771,0.025334
2854.2089,0.025519
2855.1408,0.025601
2856.0726,0.025808
2857.0045,0.026556
2857.9363,0.027008
2858.8681,0.027236
2859.8000,0.027828
2860.7318,0.027818
2861.6636,0.027800
2862.5955,0.028697
2863.5273,0.029139
2864.4591,0.029149
2865.3910,0.029297
2866.3228,0.030356
2867.2546,0.030977
2868.1865,0.030867
2869.1183,0.031145
2870.0501,0.032590
2870.9820,0.032927
2871.9138,0.033018
2872.8456,0.033258
2873.7775,0.033697
2874.7093,0.035045
2875.6411,0.036176
2876.5730,0.036485
2877.5048,0.037072
2878.4366,0.037688
2879.3685,0.038313
2880.3003,0.038399
2881.2321,0.038622
2882.1640,0.039068
2883.0958,0.039605
2884.0277,0.040673
2884.9595,0.040863
2885.8913,0.040358
2886.8232,0.040149
2887.7550,0.040734
2888.6868,0.041481
2889.6187,0.042056
2890.5505,0.042728
2891.4823,0.043485
2892.4142,0.043855
2893.3460,0.044329
2894.2778,0.044970
2895.2097,0.045505
2896.1415,0.046116
2897.0733,0.046626
2898.0052,0.046865
2898.9370,0.046771
2899.8688,0.046705
2900.8007,0.047235
2901.7325,0.048345
2902.6643,0.048478
2903.5962,0.048074
2904.5280,0.047687
2905.4598,0.047691
2906.3917,0.048036
2907.3235,0.048285
2908.2553,0.048036
2909.1872,0.047583
2910.1190,0.046941
2911.0509,0.045881
2911.9827,0.045450
2912.9145,0.045489
2913.8464,0.045296
2914.7782,0.045512
2915.7100,0.045359
2916.6419,0.044645
2917.5737,0.044324
2918.5055,0.044781
2919.4374,0.044766
2920.3692,0.044401
2921.3010,0.044936
2922.2329,0.045105
2923.1647,0.045593
2924.0965,0.046211
2925.0284,0.046171
2925.9602,0.046052
2926.8920,0.046300
2927.8239,0.046481
2928.7557,0.046620
2929.6875,0.047356
2930.6194,0.047682
2931.5512,0.048006
2932.4830,0.048496
2933.4149,0.048464
2934.3467,0.048500
2935.2785,0.048701
2936.2104,0.048969
2937.1422,0.048929
2938.0741,0.048957
2939.0059,0.048744
2939.9377,0.048402
2940.8696,0.048636
2941.8014,0.048377
2942.7332,0.047956
2943.6651,0.048375
2944.5969,0.048911
2945.5287,0.049750
2946.4606,0.050040
2947.3924,0.049864
2948.3242,0.049878
2949.2561,0.050080
2950.1879,0.050092
2951.1197,0.050201
2952.0516,0.050402
2952.9834,0.050932
2953.9152,0.051731
2954.8471,0.051270
2955.7789,0.050880
2956.7107,0.051057
2957.6426,0.051376
2958.5744,0.051761
2959.5062,0.052580
2960.4381,0.053733
2961.3699,0.054084
2962.3017,0.054756
2963.2336,0.056475
2964.1654,0.058373
2965.0972,0.059976
2966.0291,0.061017
2966.9609,0.062584
2967.8928,0.064959
2968.8246,0.067408
2969.7564,0.069229
2970.6883,0.071542
2971.6201,0.074427
2972.5519,0.077228
2973.4838,0.080124
2974.4156,0.082040
2975.3474,0.083548
2976.2793,0.085731
2977.2111,0.088056
2978.1429,0.089854
2979.0748,0.090773
2980.0066,0.091464
2980.9384,0.091145
2981.8703,0.091127
2982.8021,0.091796
2983.7339,0.091104
2984.6658,0.088879
2985.5976,0.086249
2986.5294,0.083845
2987.4613,0.081758
2988.3931,0.079612
2989.3249,0.077988
2990.2568,0.075939
2991.1886,0.073643
2992.1204,0.071282
2993.0523,0.069209
2993.9841,0.067673
2994.9160,0.065375
2995.8478,0.063469
2996.7796,0.062681
2997.7115,0.061485
2998.6433,0.060260
2999.5751,0.059959
3000.5070,0.059562
3001.4388,0.058411
3002.3706,0.057881
3003.3025,0.058355
3004.2343,0.058877
3005.1661,0.058645
3006.0980,0.058236
3007.0298,0.057183
3007.9616,0.057730
3008.8935,0.058671
3009.8253,0.057939
3010.7571,0.057627
3011.6890,0.058666
3012.6208,0.059193
3013.5526,0.058880
3014.4845,0.058653
3015.4163,0.059266
3016.3481,0.060208
3017.2800,0.059957
3018.2118,0.059769
3019.1436,0.060152
3020.0755,0.060512
3021.0073,0.061443
3021.9392,0.062277
3022.8710,0.061959
3023.8028,0.062130
3024.7347,0.062931
3025.6665,0.063578
3026.5983,0.063978
3027.5302,0.063643
3028.4620,0.064361
3029.3938,0.065619
3030.3257,0.065746
3031.2575,0.065835
3032.1893,0.067189
3033.1212,0.067632
3034.0530,0.068103
3034.9848,0.068716
3035.9167,0.069234
3036.8485,0.069932
3037.7803,0.070555
3038.7122,0.070922
3039.6440,0.071907
3040.5758,0.072777
3041.5077,0.072785
3042.4395,0.072532
3043.3713,0.072393
3044.3032,0.073836
3045.2350,0.075605
3046.1668,0.076059
3047.0987,0.076448
3048.0305,0.077186
3048.9624,0.077990
3049.8942,0.078413
3050.8260,0.078938
3051.7579,0.079955
3052.6897,0.080426
3053.6215,0.080637
3054.5534,0.081160
3055.4852,0.082487
3056.4170,0.083078
3057.3489,0.082939
3058.2807,0.084284
3059.2125,0.085550
3060.1444,0.086508
3061.0762,0.087200
3062.0080,0.088510
3062.9399,0.089817
3063.8717,0.089292
3064.8035,0.090223
3065.7354,0.091452
3066.6672,0.091315
3067.5990,0.091170
3068.5309,0.091369
3069.4627,0.092871
3070.3945,0.094724
3071.3264,0.095466
3072.2582,0.095162
3073.1900,0.096860
3074.1219,0.099037
3075.0537,0.100105
3075.9856,0.099760
3076.9174,0.100058
3077.8492,0.101233
3078.7811,0.102713
3079.7129,0.103851
3080.6447,0.104438
3081.5766,0.104779
3082.5084,0.106556
3083.4402,0.107905
3084.3721,0.107838
3085.3039,0.108397
3086.2357,0.109219
3087.1676,0.109821
3088.0994,0.110666
3089.0312,0.110900
3089.9631,0.112208
3090.8949,0.114088
3091.8267,0.115465
3092.7586,0.115994
3093.6904,0.116516
3094.6222,0.117726
3095.5541,0.118383
3096.4859,0.119062
3097.4177,0.120470
3098.3496,0.122011
3099.2814,0.123589
3100.2132,0.123482
3101.1451,0.123687
3102.0769,0.125863
3103.0087,0.127397
3103.9406,0.127497
3104.8724,0.128927
3105.8043,0.130199
3106.7361,0.130070
3107.6679,0.130980
3108.5998,0.134318
3109.5316,0.136237
3110.4634,0.136556
3111.3953,0.137458
3112.3271,0.138275
3113.2589,0.138341
3114.1908,0.139315
3115.1226,0.141232
3116.0544,0.142760
3116.9863,0.143602
3117.9181,0.144182
3118.8499,0.144963
3119.7818,0.145814
3120.7136,0.147264
3121.6454,0.148693
3122.5773,0.150129
3123.5091,0.152502
3124.4409,0.153112
3125.3728,0.153620
3126.3046,0.155118
3127.2364,0.156807
3128.1683,0.157362
3129.1001,0.157604
3130.0319,0.159031
3130.9638,0.161856
3131.8956,0.162696
3132.8275,0.163159
3133.7593,0.164473
3134.6911,0.166788
3135.6230,0.167879
3136.5548,0.167786
3137.4866,0.168410
3138.4185,0.170100
3139.3503,0.170944
3140.2821,0.172255
3141.2140,0.174016
3142.1458,0.176028
3143.0776,0.177229
3144.0095,0.178317
3144.9413,0.180427
3145.8731,0.182473
3146.8050,0.183983
3147.7368,0.184563
3148.6686,0.184516
3149.6005,0.186239
3150.5323,0.188631
3151.4641,0.191123
3152.3960,0.191528
3153.3278,0.192154
3154.2596,0.193367
3155.1915,0.194625
3156.1233,0.195534
3157.0551,0.196643
3157.9870,0.196961
3158.9188,0.197525
3159.8507,0.197968
3160.7825,0.200145
3161.7143,0.202048
3162.6462,0.202960
3163.5780,0.204763
3164.5098,0.206854
3165.4417,0.207607
3166.3735,0.208557
3167.3053,0.209697
3168.2372,0.211491
3169.1690,0.213778
3170.1008,0.215431
3171.0327,0.215964
3171.9645,0.217441
3172.8963,0.218024
3173.8282,0.218685
3174.7600,0.220002
3175.6918,0.222238
3176.6237,0.223465
3177.5555,0.224802
3178.4873,0.226698
3179.4192,0.228533
3180.3510,0.228641
3181.2828,0.229402
3182.2147,0.231452
3183.1465,0.232165
3184.0783,0.232783
3185.0102,0.235305
3185.9420,0.236696
3186.8739,0.237544
3187.8057,0.238843
3188.7375,0.238993
3189.6694,0.238655
3190.6012,0.239628
3191.5330,0.241559
3192.4649,0.244271
3193.3967,0.245152
3194.3285,0.244786
3195.2604,0.245143
3196.1922,0.247527
3197.1240,0.249649
3198.0559,0.250545
3198.9877,0.252435
3199.9195,0.254338
3200.8514,0.253715
3201.7832,0.253328
3202.7150,0.254725
3203.6469,0.256823
3204.5787,0.257503
3205.5105,0.258758
3206.4424,0.259957
3207.3742,0.260184
3208.3060,0.260978
3209.2379,0.262906
3210.1697,0.263044
3211.1015,0.264333
3212.0334,0.265470
3212.9652,0.265597
3213.8971,0.265834
3214.8289,0.267420
3215.7607,0.268159
3216.6926,0.267446
3217.6244,0.268523
3218.5562,0.273428
3219.4881,0.274697
3220.4199,0.273908
3221.3517,0.272811
3222.2836,0.272329
3223.2154,0.273559
3224.1472,0.275894
3225.0791,0.277124
3226.0109,0.277414
3226.9427,0.278358
3227.8746,0.278742
3228.8064,0.277764
3229.7382,0.279877
3230.6701,0.282104
3231.6019,0.281708
3232.5337,0.280000
3233.4656,0.281288
3234.3974,0.283674
3235.3292,0.285493
3236.2611,0.286072
3237.1929,0.287039
3238.1247,0.285848
3239.0566,0.283996
3239.9884,0.284182
3240.9202,0.285140
3241.8521,0.285471
3242.7839,0.285646
3243.7158,0.286699
3244.6476,0.288048
3245.5794,0.287130
3246.5113,0.287177
3247.4431,0.288268
3248.3749,0.289323
3249.3068,0.289227
3250.2386,0.288169
3251.1704,0.289191
3252.1023,0.290920
3253.0341,0.291316
3253.9659,0.291149
3254.8978,0.291500
3255.8296,0.292615
3256.7614,0.291622
3257.6933,0.291020
3258.6251,0.292030
3259.5569,0.292500
3260.4888,0.292647
3261.4206,0.292647
3262.3524,0.291152
3263.2843,0.292372
3264.2161,0.294279
3265.1479,0.294387
3266.0798,0.295575
3267.0116,0.295771
3267.9434,0.292424
3268.8753,0.291672
3269.8071,0.293489
3270.7390,0.295812
3271.6708,0.295593
3272.6026,0.294341
3273.5345,0.292277
3274.4663,0.291674
3275.3981,0.293170
3276.3300,0.294549
3277.2618,0.295290
3278.1936,0.295509
3279.1255,0.294002
3280.0573,0.293646
3280.9891,0.295236
3281.9210,0.296068
3282.8528,0.295311
3283.7846,0.296763
3284.7165,0.296952
3285.6483,0.293751
3286.5801,0.292769
3287.5120,0.294575
3288.4438,0.295292
3289.3756,0.295686
3290.3075,0.295077
3291.2393,0.295812
3292.1711,0.296507
3293.1030,0.296800
3294.0348,0.296092
3294.9666,0.295459
3295.8985,0.295754
3296.8303,0.294383
3297.7622,0.292873
3298.6940,0.294827
3299.6258,0.295536
3300.5577,0.295263
3301.4895,0.296017
3302.4213,0.297083
3303.3532,0.296615
3304.2850,0.296139
3305.2168,0.296083
3306.1487,0.298718
3307.0805,0.298317
3308.0123,0.296417
3308.9442,0.298578
3309.8760,0.299369
3310.8078,0.295883
3311.7397,0.294312
3312.6715,0.295852
3313.6033,0.298581
3314.5352,0.298117
3315.4670,0.296494
3316.3988,0.296592
3317.3307,0.297972
3318.2625,0.297607
3319.1943,0.297590
3320.1262,0.298493
3321.0580,0.299105
3321.9898,0.299946
3322.9217,0.300281
3323.8535,0.298702
3324.7854,0.298444
3325.7172,0.298100
3326.6490,0.297359
3327.5809,0.298395
3328.5127,0.298863
3329.4445,0.296760
3330.3764,0.295318
3331.3082,0.295193
3332.2400,0.294788
3333.1719,0.295401
3334.1037,0.297792
3335.0355,0.298444
3335.9674,0.298213
3336.8992,0.297975
3337.8310,0.298508
3338.7629,0.297458
3339.6947,0.296569
3340.6265,0.297267
3341.5584,0.298968
3342.4902,0.299901
3343.4220,0.298295
3344.3539,0.297978
3345.2857,0.299621
3346.2175,0.296705
3347.1494,0.294117
3348.0812,0.295491
3349.0130,0.298011
3349.9449,0.299237
3350.8767,0.299168
3351.8086,0.297402
3352.7404,0.297281
3353.6722,0.299371
3354.6041,0.299239
3355.5359,0.296395
3356.4677,0.294534
3357.3996,0.294060
3358.3314,0.296372
3359.2632,0.300045
3360.1951,0.301625
3361.1269,0.301599
3362.0587,0.300126
3362.9906,0.296247
3363.9224,0.294735
3364.8542,0.295635
3365.7861,0.296794
3366.7179,0.297563
3367.6497,0.296420
3368.5816,0.295328
3369.5134,0.294100
3370.4452,0.292519
3371.3771,0.292711
3372.3089,0.293090
3373.2407,0.292504
3374.1726,0.291248
3375.1044,0.293040
3376.0362,0.293098
3376.9681,0.289881
3377.8999,0.288799
3378.8317,0.287821
3379.7636,0.287585
3380.6954,0.288927
3381.6273,0.288664
3382.5591,0.287438
3383.4909,0.287230
3384.4228,0.287898
3385.3546,0.289093
3386.2864,0.289568
3387.2183,0.287748
3388.1501,0.285858
3389.0819,0.284906
3390.0138,0.285623
3390.9456,0.286187
3391.8774,0.286706
3392.8093,0.286093
3393.7411,0.284512
3394.6729,0.282343
3395.6048,0.281855
3396.5366,0.282181
3397.4684,0.278542
3398.4003,0.276054
3399.3321,0.278344
3400.2639,0.279520
3401.1958,0.278781
3402.1276,0.276883
3403.0594,0.275543
3403.9913,0.275541
3404.9231,0.273512
3405.8549,0.268923
3406.7868,0.267858
3407.7186,0.270400
3408.6505,0.270305
3409.5823,0.267988
3410.5141,0.266524
3411.4460,0.265864
3412.3778,0.265738
3413.3096,0.265654
3414.2415,0.264849
3415.1733,0.264757
3416.1051,0.265370
3417.0370,0.264470
3417.9688,0.263623
3418.9006,0.261592
3419.8325,0.259927
3420.7643,0.262044
3421.6961,0.261783
3422.6280,0.258017
3423.5598,0.256356
3424.4916,0.254366
3425.4235,0.252387
3426.3553,0.253396
3427.2871,0.254531
3428.2190,0.253040
3429.1508,0.249962
3430.0826,0.247809
3431.0145,0.248705
3431.9463,0.249084
3432.8781,0.245564
3433.8100,0.244840
3434.7418,0.245990
3435.6737,0.244105
3436.6055,0.243245
3437.5373,0.243310
3438.4692,0.240413
3439.4010,0.237947
3440.3328,0.237779
3441.2647,0.237851
3442.1965,0.235732
3443.1283,0.232292
3444.0602,0.231316
3444.9920,0.230853
3445.9238,0.230743
3446.8557,0.230060
3447.7875,0.228277
3448.7193,0.228987
3449.6512,0.228626
3450.5830,0.228693
3451.5148,0.230067
3452.4467,0.228331
3453.3785,0.224877
3454.3103,0.223595
3455.2422,0.222983
3456.1740,0.222962
3457.1058,0.223201
3458.0377,0.221509
3458.9695,0.218417
3459.9013,0.215446
3460.8332,0.214387
3461.7650,0.215601
3462.6969,0.215917
3463.6287,0.214193
3464.5605,0.211913
3465.4924,0.209253
3466.4242,0.209088
3467.3560,0.208919
3468.2879,0.205712
3469.2197,0.203571
3470.1515,0.202505
3471.0834,0.200909
3472.0152,0.199347
3472.9470,0.199755
3473.8789,0.199588
3474.8107,0.198637
3475.7425,0.196820
3476.6744,0.194036
3477.6062,0.192775
3478.5380,0.193951
3479.4699,0.195936
3480.4017,0.195346
3481.3335,0.192066
3482.2654,0.189316
3483.1972,0.186812
3484.1290,0.187639
3485.0609,0.189322
3485.9927,0.189013
3486.9245,0.189398
3487.8564,0.188957
3488.7882,0.185171
3489.7201,0.183982
3490.6519,0.184605
3491.5837,0.182759
3492.5156,0.180977
3493.4474,0.181365
3494.3792,0.180761
3495.3111,0.178446
3496.2429,0.176065
3497.1747,0.175181
3498.1066,0.175074
3499.0384,0.174160
3499.9702,0.171453
3500.9021,0.171625
3501.8339,0.171324
3502.7657,0.166420
3503.6976,0.165829
3504.6294,0.169618
3505.5612,0.166682
3506.4931,0.162073
3507.4249,0.161282
3508.3567,0.163000
3509.2886,0.163327
3510.2204,0.161780
3511.1522,0.159767
3512.0841,0.160725
3513.0159,0.163189
3513.9477,0.164056
3514.8796,0.161189
3515.8114,0.156531
3516.7432,0.153254
3517.6751,0.151491
3518.6069,0.152146
3519.5388,0.153043
3520.4706,0.149787
3521.4024,0.147163
3522.3343,0.149258
3523.2661,0.150120
3524.1979,0.147667
3525.1298,0.145736
3526.0616,0.144319
3526.9934,0.144427
3527.9253,0.143181
3528.8571,0.141653
3529.7889,0.141400
3530.7208,0.141247
3531.6526,0.141669
3532.5844,0.143065
3533.5163,0.141467
3534.4481,0.136954
3535.3799,0.135376
3536.3118,0.135486
3537.2436,0.134859
3538.1754,0.134672
3539.1073,0.132113
3540.0391,0.129280
3540.9709,0.129332
3541.9028,0.128961
3542.8346,0.125127
3543.7664,0.122908
3544.6983,0.124293
3545.6301,0.126921
3546.5620,0.127189
3547.4938,0.126714
3548.4256,0.124227
3549.3575,0.122379
3550.2893,0.119026
3551.2211,0.117022
3552.1530,0.118495
3553.0848,0.117451
3554.0166,0.115993
3554.9485,0.112891
3555.8803,0.110870
3556.8121,0.112256
3557.7440,0.111133
3558.6758,0.112320
3559.6076,0.113325
3560.5395,0.109544
3561.4713,0.107131
3562.4031,0.106315
3563.3350,0.104981
3564.2668,0.104203
3565.1986,0.102809
3566.1305,0.102196
3567.0623,0.104214
3567.9941,0.103264
3568.9260,0.098992
3569.8578,0.098805
3570.7896,0.099872
3571.7215,0.100370
3572.6533,0.099348
3573.5852,0.097809
3574.5170,0.096822
3575.4488,0.097325
3576.3807,0.096452
3577.3125,0.094204
3578.2443,0.093343
3579.1762,0.093730
3580.1080,0.092180
3581.0398,0.090467
3581.9717,0.088928
3582.9035,0.086205
3583.8353,0.085129
3584.7672,0.087199
3585.6990,0.087223
3586.6308,0.083827
3587.5627,0.081189
3588.4945,0.081232
3589.4263,0.082949
3590.3582,0.083153
3591.2900,0.080477
3592.2218,0.079295
3593.1537,0.079796
3594.0855,0.079470
3595.0173,0.078744
3595.9492,0.079312
3596.8810,0.078069
3597.8128,0.076118
3598.7447,0.076107
3599.6765,0.078060
3600.6084,0.078045
3601.5402,0.075457
3602.4720,0.072655
3603.4039,0.071405
3604.3357,0.070588
3605.2675,0.070312
3606.1994,0.069646
3607.1312,0.067943
3608.0630,0.068030
3608.9949,0.069266
3609.9267,0.069516
3610.8585,0.067327
3611.7904,0.063875
3612.7222,0.063862
3613.6540,0.065307
3614.5859,0.064474
3615.5177,0.063212
3616.4495,0.063458
3617.3814,0.062409
3618.3132,0.059641
3619.2450,0.057769
3620.1769,0.058894
3621.1087,0.059560
3622.0405,0.058820
3622.9724,0.058920
3623.9042,0.058996
3624.8360,0.058488
3625.7679,0.057059
3626.6997,0.055593
3627.6316,0.054863
3628.5634,0.053934
3629.4952,0.053512
3630.4271,0.052846
3631.3589,0.053361
3632.2907,0.056285
3633.2226,0.055294
3634.1544,0.051793
3635.0862,0.050167
3636.0181,0.048791
3636.9499,0.048155
3637.8817,0.048667
3638.8136,0.048272
3639.7454,0.046988
3640.6772,0.045504
3641.6091,0.044955
3642.5409,0.044658
3643.4727,0.044212
3644.4046,0.044610
3645.3364,0.043669
3646.2682,0.043186
3647.2001,0.043287
3648.1319,0.041317
3649.0637,0.039567
3649.9956,0.038512
3650.9274,0.035605
3651.8592,0.035387
3652.7911,0.035483
3653.7229,0.036158
3654.6547,0.037164
3655.5866,0.035930
3656.5184,0.034067
3657.4503,0.034027
3658.3821,0.034683
3659.3139,0.033513
3660.2458,0.032559
3661.1776,0.031533
3662.1094,0.030769
3663.0413,0.029994
3663.9731,0.029029
3664.9049,0.028350
3665.8368,0.027711
3666.7686,0.026643
3667.7004,0.024977
3668.6323,0.024860
3669.5641,0.025843
3670.4959,0.025232
3671.4278,0.023313
3672.3596,0.022159
3673.2914,0.021560
3674.2233,0.019763
3675.1551,0.019192
3676.0869,0.019608
3677.0188,0.020570
3677.9506,0.020049
3678.8824,0.017705
3679.8143,0.016749
3680.7461,0.016812
3681.6779,0.016691
3682.6098,0.016923
3683.5416,0.017332
3684.4735,0.016827
3685.4053,0.014877
3686.3371,0.014260
3687.2690,0.014233
3688.2008,0.014468
3689.1326,0.013656
3690.0645,0.011965
3690.9963,0.010748
3691.9281,0.010796
3692.8600,0.011436
3693.7918,0.011055
3694.7236,0.010792
3695.6555,0.009718
3696.5873,0.008442
3697.5191,0.008465
3698.4510,0.009739
3699.3828,0.009595
3700.3146,0.008239
3701.2465,0.008523
3702.1783,0.008535
3703.1101,0.008216
3704.0420,0.007704
3704.9738,0.005759
3705.9056,0.005515
3706.8375,0.007194
3707.7693,0.007828
3708.7011,0.007346
3709.6330,0.006555
3710.5648,0.005311
3711.4967,0.004743
3712.4285,0.004358
3713.3603,0.003913
3714.2922,0.004905
3715.2240,0.005924
3716.1558,0.005990
3717.0877,0.004979
3718.0195,0.004258
3718.9513,0.004761
3719.8832,0.005067
3720.8150,0.005133
3721.7468,0.005093
3722.6787,0.003810
3723.6105,0.003244
3724.5423,0.003983
3725.4742,0.004435
3726.4060,0.004362
3727.3378,0.003935
3728.2697,0.003962
3729.2015,0.004549
3730.1333,0.004092
3731.0652,0.002558
3731.9970,0.001917
3732.9288,0.001834
3733.8607,0.001740
3734.7925,0.001092
3735.7243,0.000601
3736.6562,-0.000326
3737.5880,-0.000904
3738.5199,-0.000081
3739.4517,0.001463
3740.3835,0.002705
3741.3154,0.003512
3742.2472,0.003405
3743.1790,0.002709
3744.1109,0.001951
3745.0427,0.000551
3745.9745,0.001073
3746.9064,0.003345
3747.8382,0.003107
3748.7700,0.002141
3749.7019,0.001308
3750.6337,0.000752
3751.5655,0.000141
3752.4974,-0.000707
3753.4292,-0.000801
3754.3610,-0.000022
3755.2929,0.001617
3756.2247,0.002367
3757.1565,0.001901
3758.0884,0.001465
3759.0202,0.001578
3759.9520,0.002402
3760.8839,0.002997
3761.8157,0.002311
3762.7475,0.002742
3763.6794,0.003231
3764.6112,0.003225
3765.5431,0.003075
3766.4749,0.003083
3767.4067,0.003175
3768.3386,0.002298
3769.2704,0.001853
3770.2022,0.001725
3771.1341,0.000910
3772.0659,0.001207
3772.9977,0.001746
3773.9296,0.002284
3774.8614,0.002161
3775.7932,0.001220
3776.7251,0.000786
3777.6569,0.001934
3778.5887,0.002192
3779.5206,0.001114
3780.4524,0.001078
3781.3842,0.001635
3782.3161,0.001542
3783.2479,0.002013
3784.1797,0.001950
3785.1116,0.001458
3786.0434,0.001588
3786.9752,0.002119
3787.9071,0.002281
3788.8389,0.001910
3789.7707,0.002627
3790.7026,0.003717
3791.6344,0.003000
3792.5662,0.001541
3793.4981,0.001756
3794.4299,0.002304
3795.3618,0.002143
3796.2936,0.002060
3797.2254,0.001763
3798.1573,0.001133
3799.0891,0.000349
3800.0209,0.001279
3800.9528,0.001728
3801.8846,0.000586
3802.8164,-0.000358
3803.7483,0.000005
3804.6801,0.000947
3805.6119,0.000955
3806.5438,0.001367
3807.4756,0.002247
3808.4074,0.001736
3809.3393,0.000993
3810.2711,0.001669
3811.2029,0.001580
3812.1348,0.000556
3813.0666,0.000979
3813.9984,0.001590
3814.9303,0.001182
3815.8621,0.000776
3816.7939,0.001340
3817.7258,0.001476
3818.6576,0.000661
3819.5894,0.000217
3820.5213,0.000539
3821.4531,0.000035
3822.3850,-0.000489
3823.3168,0.000139
3824.2486,0.000825
3825.1805,0.000876
3826.1123,0.001116
3827.0441,0.001762
3827.9760,0.002023
3828.9078,0.001891
3829.8396,0.001268
3830.7715,0.001101
3831.7033,0.001348
3832.6351,0.001683
3833.5670,0.001285
3834.4988,0.001363
3835.4306,0.001470
3836.3625,0.000726
3837.2943,0.000570
3838.2261,0.000783
3839.1580,0.000632
3840.0898,0.000104
3841.0216,-0.000537
3841.9535,-0.000592
3842.8853,-0.000712
3843.8171,0.000589
3844.7490,0.001672
3845.6808,0.001606
3846.6126,0.001371
3847.5445,0.001410
3848.4763,0.001330
3849.4082,0.000367
3850.3400,0.000880
3851.2718,0.001007
3852.2037,0.000322
3853.1355,0.000080
3854.0673,0.000165
3854.9992,-0.000276
3855.9310,0.001158
3856.8628,0.001980
3857.7947,0.001640
3858.7265,0.001942
3859.6583,0.001517
3860.5902,0.001013
3861.5220,0.001480
3862.4538,0.001172
3863.3857,0.000651
3864.3175,0.000271
3865.2493,-0.000237
3866.1812,0.000604
3867.1130,0.000235
3868.0448,-0.000888
3868.9767,0.000668
3869.9085,0.001663
3870.8403,0.000587
3871.7722,0.000813
3872.7040,0.001532
3873.6358,0.000753
3874.5677,0.001978
3875.4995,0.002354
3876.4314,0.000805
3877.3632,0.000353
3878.2950,0.001718
3879.2269,0.002006
3880.1587,0.001393
3881.0905,0.000030
3882.0224,-0.000149
3882.9542,0.000775
3883.8860,0.001605
3884.8179,0.001931
3885.7497,0.001910
3886.6815,0.001404
3887.6134,0.000397
3888.5452,0.000179
3889.4770,0.000846
3890.4089,0.000787
3891.3407,0.000880
3892.2725,0.001152
3893.2044,0.000459
3894.1362,0.000286
3895.0680,0.000033
3895.9999,-0.000139
3896.9317,0.001117
3897.8635,0.002453
3898.7954,0.001405
3899.7272,0.000767
3900.6590,0.000630
3901.5909,0.000330
3902.5227,0.000450
3903.4546,0.001430
3904.3864,0.000665
3905.3182,-0.000102
3906.2501,-0.000139
3907.1819,-0.000427
3908.1137,-0.000212
3909.0456,0.000164
3909.9774,0.000883
3910.9092,0.001728
3911.8411,0.001310
3912.7729,0.001636
3913.7047,0.002045
3914.6366,0.002006
3915.5684,0.001954
3916.5002,0.001800
3917.4321,0.001645
3918.3639,0.001378
3919.2957,0.001764
3920.2276,0.001564
3921.1594,0.001508
3922.0912,0.000641
3923.0231,0.000689
3923.9549,0.001671
3924.8867,0.000829
3925.8186,0.000067
3926.7504,0.001785
3927.6822,0.003144
3928.6141,0.002587
3929.5459,0.001371
3930.4777,0.002737
3931.4096,0.002831
3932.3414,0.000937
3933.2733,0.000430
3934.2051,0.001051
3935.1369,0.002063
3936.0688,0.002651
3937.0006,0.002446
3937.9324,0.001841
3938.8643,0.001017
3939.7961,0.000477
3940.7279,0.001072
3941.6598,0.001577
3942.5916,0.001387
3943.5234,0.000848
3944.4553,0.000589
3945.3871,0.001199
3946.3189,0.002164
3947.2508,0.001936
3948.1826,0.002580
3949.1144,0.002844
3950.0463,0.001699
3950.9781,0.001378
3951.9099,0.001271
3952.8418,0.001641
3953.7736,0.001488
3954.7054,0.000835
3955.6373,0.001377
3956.5691,0.002132
3957.5009,0.001831
3958.4328,0.001498
3959.3646,0.001929
3960.2965,0.002191
3961.2283,0.001968
3962.1601,0.001492
3963.0920,0.001937
3964.0238,0.002201
3964.9556,0.001101
3965.8875,0.001743
3966.8193,0.002498
3967.7511,0.002112
3968.6830,0.001714
3969.6148,0.001665
3970.5466,0.001755
3971.4785,0.001851
3972.4103,0.001618
3973.3421,0.001362
3974.2740,0.001284
3975.2058,0.000911
3976.1376,0.000159
3977.0695,0.000505
3978.0013,0.001593
3978.9331,0.002138
3979.8650,0.001792
3980.7968,0.001497
3981.7286,0.002461
3982.6605,0.001551
3983.5923,0.000872
3984.5241,0.002233
3985.4560,0.002845
3986.3878,0.002037
3987.3197,0.001885
3988.2515,0.002372
3989.1833,0.001495
3990.1152,0.001498
3991.0470,0.001481
3991.9788,0.000942
3992.9107,0.000956
3993.8425,0.001473
3994.7743,0.001092
3995.7062,0.002010
3996.6380,0.002364
3997.5698,0.001685
3998.5017,0.001858
3999.4335,0.001513
4000.3653,0.000189
