Wavenumber,Intensity
650.4205,0.380067
651.3523,0.380154
652.2841,0.382424
653.2160,0.400597
654.1478,0.393679
655.0796,0.370983
656.0115,0.374804
656.9433,0.385900
657.8751,0.369823
658.8070,0.356851
659.7388,0.362196
660.6706,0.362946
661.6025,0.363271
662.5343,0.373975
663.4661,0.374561
664.3980,0.368595
665.3298,0.365763
666.2616,0.358901
667.1935,0.348859
668.1253,0.352799
669.0571,0.362857
669.9890,0.363826
670.9208,0.362744
671.8526,0.363131
672.7845,0.358719
673.7163,0.354300
674.6481,0.349308
675.5800,0.346864
676.5118,0.345771
677.4437,0.350858
678.3755,0.359164
679.3073,0.359523
680.2392,0.351610
681.1710,0.345290
682.1028,0.341815
683.0347,0.340610
683.9665,0.337956
684.8983,0.335613
685.8302,0.334289
686.7620,0.337607
687.6938,0.340569
688.6257,0.340108
689.5575,0.336433
690.4893,0.333963
691.4212,0.331363
692.3530,0.329164
693.2848,0.327084
694.2167,0.329300
695.1485,0.330359
696.0803,0.326285
697.0122,0.328030
697.9440,0.330063
698.8758,0.324090
699.8077,0.320790
700.7395,0.322248
701.6713,0.320353
702.6032,0.316472
703.5350,0.315803
704.4669,0.314414
705.3987,0.313752
706.3305,0.311115
707.2624,0.308480
708.1942,0.310514
709.1260,0.314059
710.0579,0.310893
710.9897,0.308089
711.9215,0.307999
712.8534,0.306950
713.7852,0.304499
714.7170,0.303749
715.6489,0.300515
716.5807,0.295703
717.5125,0.294160
718.4444,0.296282
719.3762,0.296260
720.3080,0.294228
721.2399,0.291953
722.1717,0.292202
723.1035,0.294302
724.0354,0.291927
724.9672,0.285329
725.8990,0.285271
726.8309,0.286844
727.7627,0.283743
728.6945,0.278683
729.6264,0.278103
730.5582,0.279668
731.4901,0.280777
732.4219,0.279131
733.3537,0.276808
734.2856,0.274691
735.2174,0.275117
736.1492,0.274083
737.0811,0.272803
738.0129,0.271769
738.9447,0.269750
739.8766,0.266529
740.8084,0.264705
741.7402,0.263178
742.6721,0.263156
743.6039,0.261575
744.5357,0.259999
745.4676,0.259147
746.3994,0.257894
747.3312,0.254977
748.2631,0.254883
749.1949,0.255910
750.1267,0.254596
751.0586,0.251829
751.9904,0.251486
752.9222,0.250529
753.8541,0.247758
754.7859,0.246475
755.7177,0.245378
756.6496,0.243507
757.5814,0.242460
758.5132,0.242516
759.4451,0.240549
760.3769,0.237646
761.3088,0.238482
762.2406,0.237101
763.1724,0.233944
764.1043,0.231875
765.0361,0.231264
765.9679,0.230850
766.8998,0.231093
767.8316,0.230481
768.7634,0.228577
769.6953,0.227032
770.6271,0.226065
771.5589,0.224703
772.4908,0.224236
773.4226,0.222970
774.3544,0.222380
775.2863,0.220801
776.2181,0.218374
777.1499,0.217063
778.0818,0.216948
779.0136,0.215074
779.9454,0.213003
780.8773,0.212000
781.8091,0.211145
782.7409,0.209409
783.6728,0.207211
784.6046,0.206353
785.5364,0.207171
786.4683,0.206566
787.4001,0.203732
788.3320,0.200934
789.2638,0.199705
790.1956,0.199243
791.1275,0.198013
792.0593,0.196820
792.9911,0.195110
793.9230,0.193395
794.8548,0.193603
795.7866,0.192822
796.7185,0.190705
797.6503,0.189654
798.5821,0.189691
799.5140,0.190005
800.4458,0.189314
801.3776,0.187305
802.3095,0.185996
803.2413,0.184923
804.1731,0.184588
805.1050,0.183190
806.0368,0.181565
806.9686,0.179507
807.9005,0.177988
808.8323,0.176501
809.7641,0.175005
810.6960,0.173625
811.6278,0.172463
812.5596,0.171779
813.4915,0.170248
814.4233,0.168556
815.3552,0.167108
816.2870,0.165282
817.2188,0.163257
818.1507,0.162823
819.0825,0.161812
820.0143,0.160136
820.9462,0.159868
821.8780,0.158960
822.8098,0.156737
823.7417,0.155406
824.6735,0.155288
825.6053,0.155259
826.5372,0.153997
827.4690,0.151779
828.4008,0.149765
829.3327,0.148336
830.2645,0.147981
831.1963,0.147397
832.1282,0.146585
833.0600,0.145123
833.9918,0.144746
834.9237,0.144009
835.8555,0.142687
836.7873,0.141074
837.7192,0.140103
838.6510,0.139283
839.5828,0.138520
840.5147,0.138399
841.4465,0.137489
842.3784,0.135973
843.3102,0.135548
844.2420,0.134794
845.1739,0.133629
846.1057,0.132562
847.0375,0.131882
847.9694,0.131073
848.9012,0.130297
849.8330,0.129408
850.7649,0.128711
851.6967,0.128695
852.6285,0.127554
853.5604,0.126188
854.4922,0.125867
855.4240,0.125381
856.3559,0.124289
857.2877,0.123441
858.2195,0.123400
859.1514,0.123150
860.0832,0.122542
861.0150,0.121430
861.9469,0.121137
862.8787,0.121695
863.8105,0.121933
864.7424,0.121864
865.6742,0.122611
866.6060,0.123172
867.5379,0.124257
868.4697,0.125980
869.4016,0.128336
870.3334,0.130749
871.2652,0.133471
872.1971,0.136918
873.1289,0.141798
874.0607,0.146859
874.9926,0.151033
875.9244,0.155037
876.8562,0.158229
877.7881,0.159109
878.7199,0.157977
879.6517,0.154832
880.5836,0.149998
881.5154,0.143987
882.4472,0.137604
883.3791,0.130754
884.3109,0.124066
885.2427,0.118189
886.1746,0.113233
887.1064,0.108593
888.0382,0.104437
888.9701,0.101037
889.9019,0.098517
890.8337,0.096091
891.7656,0.094441
892.6974,0.092705
893.6292,0.090698
894.5611,0.089515
895.4929,0.088445
896.4247,0.087353
897.3566,0.086119
898.2884,0.085040
899.2203,0.084296
900.1521,0.083263
901.0839,0.082303
902.0158,0.081501
902.9476,0.081157
903.8794,0.080501
904.8113,0.079487
905.7431,0.078781
906.6749,0.078059
907.6068,0.077378
908.5386,0.076909
909.4704,0.076233
910.4023,0.076175
911.3341,0.075557
912.2659,0.074324
913.1978,0.073858
914.1296,0.073822
915.0614,0.073410
915.9933,0.072966
916.9251,0.072128
917.8569,0.071494
918.7888,0.071024
919.7206,0.070488
920.6524,0.070028
921.5843,0.069884
922.5161,0.069380
923.4479,0.068777
924.3798,0.068706
925.3116,0.067887
926.2435,0.066858
927.1753,0.066598
928.1071,0.066983
929.0390,0.066911
929.9708,0.066333
930.9026,0.065603
931.8345,0.064841
932.7663,0.064341
933.6981,0.064591
934.6300,0.064971
935.5618,0.064672
936.4936,0.063802
937.4255,0.063583
938.3573,0.063655
939.2891,0.063250
940.2210,0.062806
941.1528,0.062315
942.0846,0.061540
943.0165,0.061204
943.9483,0.061088
944.8801,0.060962
945.8120,0.060831
946.7438,0.060099
947.6756,0.059778
948.6075,0.060177
949.5393,0.059844
950.4711,0.059410
951.4030,0.058936
952.3348,0.058693
953.2667,0.059110
954.1985,0.059271
955.1303,0.058454
956.0622,0.057798
956.9940,0.057694
957.9258,0.057683
958.8577,0.057283
959.7895,0.057075
960.7213,0.057091
961.6532,0.057035
962.5850,0.056925
963.5168,0.056867
964.4487,0.056602
965.3805,0.056170
966.3123,0.056090
967.2442,0.056340
968.1760,0.056120
969.1078,0.055813
970.0397,0.055869
970.9715,0.055646
971.9033,0.055316
972.8352,0.055314
973.7670,0.055442
974.6988,0.055282
975.6307,0.054965
976.5625,0.054746
977.4943,0.054738
978.4262,0.054798
979.3580,0.054967
980.2899,0.054755
981.2217,0.054310
982.1535,0.054474
983.0854,0.054845
984.0172,0.054718
984.9490,0.054333
985.8809,0.054245
986.8127,0.054383
987.7445,0.054500
988.6764,0.054408
989.6082,0.054548
990.5400,0.054658
991.4719,0.054730
992.4037,0.054635
993.3355,0.054803
994.2674,0.054996
995.1992,0.054985
996.1310,0.054882
997.0629,0.054940
997.9947,0.055147
998.9265,0.055578
999.8584,0.055702
1000.7902,0.055675
1001.7220,0.055869
1002.6539,0.056052
1003.5857,0.056197
1004.5175,0.056766
1005.4494,0.057243
1006.3812,0.057421
1007.3131,0.057672
1008.2449,0.057941
1009.1767,0.058105
1010.1086,0.058418
1011.0404,0.058981
1011.9722,0.059620
1012.9041,0.060321
1013.8359,0.061300
1014.7677,0.062027
1015.6996,0.062455
1016.6314,0.063108
1017.5632,0.064067
1018.4951,0.065345
1019.4269,0.066638
1020.3587,0.067857
1021.2906,0.069165
1022.2224,0.070838
1023.1542,0.072940
1024.0861,0.075120
1025.0179,0.077549
1025.9497,0.080162
1026.8816,0.082627
1027.8134,0.085554
1028.7452,0.089078
1029.6771,0.092986
1030.6089,0.097462
1031.5407,0.102968
1032.4726,0.109405
1033.4044,0.116643
1034.3362,0.124679
1035.2681,0.133992
1036.1999,0.144715
1037.1318,0.156445
1038.0636,0.169459
1038.9954,0.183251
1039.9273,0.197138
1040.8591,0.210313
1041.7909,0.221904
1042.7228,0.231008
1043.6546,0.236058
1044.5864,0.236825
1045.5183,0.233460
1046.4501,0.226062
1047.3819,0.215280
1048.3138,0.202295
1049.2456,0.188031
1050.1774,0.172919
1051.1093,0.158182
1052.0411,0.144076
1052.9729,0.130780
1053.9048,0.119064
1054.8366,0.109072
1055.7684,0.100496
1056.7003,0.093212
1057.6321,0.087015
1058.5639,0.081753
1059.4958,0.077776
1060.4276,0.074731
1061.3594,0.072208
1062.2913,0.070471
1063.2231,0.069383
1064.1550,0.068555
1065.0868,0.068025
1066.0186,0.067671
1066.9505,0.067755
1067.8823,0.068192
1068.8141,0.069108
1069.7460,0.069892
1070.6778,0.070816
1071.6096,0.072482
1072.5415,0.074165
1073.4733,0.075807
1074.4051,0.077866
1075.3370,0.080287
1076.2688,0.082691
1077.2006,0.085300
1078.1325,0.088093
1079.0643,0.090920
1079.9961,0.093716
1080.9280,0.096392
1081.8598,0.098640
1082.7916,0.100526
1083.7235,0.101950
1084.6553,0.102932
1085.5871,0.103260
1086.5190,0.102841
1087.4508,0.101862
1088.3826,0.099882
1089.3145,0.096801
1090.2463,0.093482
1091.1782,0.089905
1092.1100,0.086046
1093.0418,0.082148
1093.9737,0.078260
1094.9055,0.074421
1095.8373,0.070581
1096.7692,0.067060
1097.7010,0.064233
1098.6328,0.061508
1099.5647,0.059131
1100.4965,0.057269
1101.4283,0.055705
1102.3602,0.054325
1103.2920,0.052837
1104.2238,0.051688
1105.1557,0.050750
1106.0875,0.049812
1107.0193,0.049002
1107.9512,0.048463
1108.8830,0.047910
1109.8148,0.047379
1110.7467,0.047258
1111.6785,0.046900
1112.6103,0.046433
1113.5422,0.046120
1114.4740,0.045906
1115.4058,0.045761
1116.3377,0.045416
1117.2695,0.045288
1118.2014,0.045366
1119.1332,0.045346
1120.0650,0.045229
1120.9969,0.045421
1121.9287,0.045624
1122.8605,0.045580
1123.7924,0.045396
1124.7242,0.045395
1125.6560,0.045263
1126.5879,0.045134
1127.5197,0.045190
1128.4515,0.045083
1129.3834,0.044804
1130.3152,0.044602
1131.2470,0.044368
1132.1789,0.044216
1133.1107,0.044280
1134.0425,0.044092
1134.9744,0.043992
1135.9062,0.044109
1136.8380,0.043917
1137.7699,0.043707
1138.7017,0.043397
1139.6335,0.043094
1140.5654,0.043102
1141.4972,0.043255
1142.4290,0.043152
1143.3609,0.043145
1144.2927,0.043145
1145.2246,0.043208
1146.1564,0.043269
1147.0882,0.043078
1148.0201,0.043005
1148.9519,0.043024
1149.8837,0.042944
1150.8156,0.043002
1151.7474,0.043116
1152.6792,0.043161
1153.6111,0.043153
1154.5429,0.043072
1155.4747,0.042963
1156.4066,0.042844
1157.3384,0.042671
1158.2702,0.042441
1159.2021,0.042383
1160.1339,0.042525
1161.0657,0.042467
1161.9976,0.042100
1162.9294,0.041746
1163.8612,0.041760
1164.7931,0.041629
1165.7249,0.041273
1166.6567,0.041152
1167.5886,0.041155
1168.5204,0.041167
1169.4522,0.040999
1170.3841,0.040839
1171.3159,0.040852
1172.2477,0.040694
1173.1796,0.040495
1174.1114,0.040578
1175.0433,0.040664
1175.9751,0.040463
1176.9069,0.040345
1177.8388,0.040325
1178.7706,0.040310
1179.7024,0.040390
1180.6343,0.040309
1181.5661,0.040278
1182.4979,0.040523
1183.4298,0.040490
1184.3616,0.040376
1185.2934,0.040394
1186.2253,0.040442
1187.1571,0.040416
1188.0889,0.040331
1189.0208,0.040439
1189.9526,0.040634
1190.8844,0.040638
1191.8163,0.040529
1192.7481,0.040461
1193.6799,0.040431
1194.6118,0.040373
1195.5436,0.040378
1196.4754,0.040378
1197.4073,0.040611
1198.3391,0.040605
1199.2709,0.040559
1200.2028,0.040611
1201.1346,0.040463
1202.0665,0.040593
1202.9983,0.040878
1203.9301,0.040778
1204.8620,0.040539
1205.7938,0.040583
1206.7256,0.040890
1207.6575,0.040979
1208.5893,0.040888
1209.5211,0.040867
1210.4530,0.040917
1211.3848,0.041135
1212.3166,0.041294
1213.2485,0.041075
1214.1803,0.040917
1215.1121,0.041133
1216.0440,0.041337
1216.9758,0.041303
1217.9076,0.041273
1218.8395,0.041246
1219.7713,0.041323
1220.7031,0.041445
1221.6350,0.041451
1222.5668,0.041489
1223.4986,0.041729
1224.4305,0.041879
1225.3623,0.041848
1226.2941,0.041820
1227.2260,0.041685
1228.1578,0.041627
1229.0897,0.041740
1230.0215,0.042183
1230.9533,0.042509
1231.8852,0.042489
1232.8170,0.042382
1233.7488,0.042342
1234.6807,0.042416
1235.6125,0.042350
1236.5443,0.042442
1237.4762,0.042502
1238.4080,0.042714
1239.3398,0.042886
1240.2717,0.042939
1241.2035,0.043101
1242.1353,0.043124
1243.0672,0.043280
1243.9990,0.043539
1244.9308,0.043829
1245.8627,0.043724
1246.7945,0.043534
1247.7263,0.043749
1248.6582,0.044106
1249.5900,0.044382
1250.5218,0.044462
1251.4537,0.044541
1252.3855,0.044625
1253.3173,0.044687
1254.2492,0.045135
1255.1810,0.045517
1256.1129,0.045731
1257.0447,0.046012
1257.9765,0.046332
1258.9084,0.046792
1259.8402,0.047101
1260.7720,0.047404
1261.7039,0.047892
1262.6357,0.048185
1263.5675,0.048563
1264.4994,0.049068
1265.4312,0.049603
1266.3630,0.050244
1267.2949,0.050787
1268.2267,0.051415
1269.1585,0.051968
1270.0904,0.052345
1271.0222,0.052758
1271.9540,0.053106
1272.8859,0.053321
1273.8177,0.053265
1274.7495,0.053193
1275.6814,0.053335
1276.6132,0.053250
1277.5450,0.052957
1278.4769,0.052588
1279.4087,0.052263
1280.3405,0.051823
1281.2724,0.051391
1282.2042,0.051149
1283.1361,0.050644
1284.0679,0.050032
1284.9997,0.049650
1285.9316,0.049749
1286.8634,0.049967
1287.7952,0.049896
1288.7271,0.049861
1289.6589,0.049873
1290.5907,0.049777
1291.5226,0.049758
1292.4544,0.049934
1293.3862,0.050036
1294.3181,0.049896
1295.2499,0.049844
1296.1817,0.050089
1297.1136,0.050319
1298.0454,0.050491
1298.9772,0.050636
1299.9091,0.050861
1300.8409,0.051208
1301.7727,0.051548
1302.7046,0.051817
1303.6364,0.051883
1304.5682,0.051984
1305.5001,0.052250
1306.4319,0.052494
1307.3637,0.052826
1308.2956,0.053046
1309.2274,0.053355
1310.1592,0.053732
1311.0911,0.053973
1312.0229,0.054012
1312.9548,0.053985
1313.8866,0.054422
1314.8184,0.054839
1315.7503,0.054661
1316.6821,0.054564
1317.6139,0.055087
1318.5458,0.055534
1319.4776,0.055563
1320.4094,0.055693
1321.3413,0.055882
1322.2731,0.055872
1323.2049,0.055865
1324.1368,0.055857
1325.0686,0.055825
1326.0004,0.055996
1326.9323,0.055927
1327.8641,0.055594
1328.7959,0.055408
1329.7278,0.055503
1330.6596,0.055583
1331.5914,0.055362
1332.5233,0.054846
1333.4551,0.054417
1334.3869,0.054197
1335.3188,0.053737
1336.2506,0.053350
1337.1824,0.053419
1338.1143,0.053503
1339.0461,0.053440
1339.9780,0.053559
1340.9098,0.053801
1341.8416,0.053502
1342.7735,0.052491
1343.7053,0.051837
1344.6371,0.051605
1345.5690,0.051336
1346.5008,0.051227
1347.4326,0.050938
1348.3645,0.050432
1349.2963,0.050282
1350.2281,0.050219
1351.1600,0.050008
1352.0918,0.049762
1353.0236,0.049587
1353.9555,0.049505
1354.8873,0.049359
1355.8191,0.049477
1356.7510,0.049650
1357.6828,0.049214
1358.6146,0.048850
1359.5465,0.048829
1360.4783,0.048691
1361.4101,0.048784
1362.3420,0.049304
1363.2738,0.050228
1364.2056,0.051583
1365.1375,0.051636
1366.0693,0.050784
1367.0012,0.050584
1367.9330,0.051021
1368.8648,0.051677
1369.7967,0.052657
1370.7285,0.053526
1371.6603,0.054018
1372.5922,0.054716
1373.5240,0.055982
1374.4558,0.057956
1375.3877,0.060269
1376.3195,0.061518
1377.2513,0.061673
1378.1832,0.061843
1379.1150,0.062509
1380.0468,0.063120
1380.9787,0.063490
1381.9105,0.063726
1382.8423,0.063853
1383.7742,0.063812
1384.7060,0.063917
1385.6378,0.063992
1386.5697,0.063738
1387.5015,0.064113
1388.4333,0.065223
1389.3652,0.064881
1390.2970,0.063440
1391.2288,0.062353
1392.1607,0.061583
1393.0925,0.060856
1394.0244,0.060249
1394.9562,0.060647
1395.8880,0.062105
1396.8199,0.062489
1397.7517,0.061988
1398.6835,0.061435
1399.6154,0.061584
1400.5472,0.062705
1401.4790,0.062385
1402.4109,0.061401
1403.3427,0.061198
1404.2745,0.061285
1405.2064,0.061834
1406.1382,0.063305
1407.0700,0.063853
1408.0019,0.063274
1408.9337,0.063069
1409.8655,0.063238
1410.7974,0.063265
1411.7292,0.063536
1412.6610,0.064046
1413.5929,0.063833
1414.5247,0.062994
1415.4565,0.062298
1416.3884,0.062106
1417.3202,0.062329
1418.2520,0.062938
1419.1839,0.063454
1420.1157,0.064782
1421.0476,0.065610
1421.9794,0.063666
1422.9112,0.062103
1423.8431,0.061973
1424.7749,0.062837
1425.7067,0.062992
1426.6386,0.061531
1427.5704,0.060238
1428.5022,0.059765
1429.4341,0.059418
1430.3659,0.059207
1431.2977,0.059376
1432.2296,0.058876
1433.1614,0.057619
1434.0932,0.056777
1435.0251,0.056301
1435.9569,0.055593
1436.8887,0.055889
1437.8206,0.058095
1438.7524,0.058266
1439.6842,0.056442
1440.6161,0.055389
1441.5479,0.055256
1442.4797,0.055364
1443.4116,0.055437
1444.3434,0.055579
1445.2752,0.055988
1446.2071,0.056473
1447.1389,0.057079
1448.0707,0.058385
1449.0026,0.060418
1449.9344,0.061268
1450.8663,0.060899
1451.7981,0.060931
1452.7299,0.061096
1453.6618,0.060622
1454.5936,0.059775
1455.5254,0.059328
1456.4573,0.059396
1457.3891,0.060635
1458.3209,0.061416
1459.2528,0.059123
1460.1846,0.056826
1461.1164,0.054866
1462.0483,0.052731
1462.9801,0.050709
1463.9119,0.049300
1464.8438,0.048696
1465.7756,0.049068
1466.7074,0.049403
1467.6393,0.048329
1468.5711,0.046919
1469.5029,0.045717
1470.4348,0.044999
1471.3666,0.044738
1472.2984,0.044848
1473.2303,0.046168
1474.1621,0.047853
1475.0939,0.047778
1476.0258,0.046396
1476.9576,0.046364
1477.8895,0.047631
1478.8213,0.047140
1479.7531,0.046240
1480.6850,0.046098
1481.6168,0.046291
1482.5486,0.046522
1483.4805,0.046402
1484.4123,0.045963
1485.3441,0.045509
1486.2760,0.045077
1487.2078,0.044735
1488.1396,0.045056
1489.0715,0.045539
1490.0033,0.045338
1490.9351,0.045472
1491.8670,0.045677
1492.7988,0.044344
1493.7306,0.042798
1494.6625,0.042099
1495.5943,0.041376
1496.5261,0.041117
1497.4580,0.042803
1498.3898,0.043324
1499.3216,0.042450
1500.2535,0.042435
1501.1853,0.041943
1502.1171,0.040933
1503.0490,0.040570
1503.9808,0.040319
1504.9127,0.039506
1505.8445,0.038956
1506.7763,0.040944
1507.7082,0.045574
1508.6400,0.045793
1509.5718,0.044077
1510.5037,0.043112
1511.4355,0.042333
1512.3673,0.041654
1513.2992,0.041778
1514.2310,0.041609
1515.1628,0.040193
1516.0947,0.039627
1517.0265,0.040514
1517.9583,0.041737
1518.8902,0.042513
1519.8220,0.041288
1520.7538,0.040346
1521.6857,0.041828
1522.6175,0.044410
1523.5493,0.043950
1524.4812,0.042467
1525.4130,0.041461
1526.3448,0.041729
1527.2767,0.042870
1528.2085,0.042584
1529.1403,0.042338
1530.0722,0.042345
1531.0040,0.041804
1531.9359,0.041164
1532.8677,0.041215
1533.7995,0.042136
1534.7314,0.043150
1535.6632,0.043222
1536.5950,0.042293
1537.5269,0.041242
1538.4587,0.040149
1539.3905,0.040061
1540.3224,0.043559
1541.2542,0.046871
1542.1860,0.046164
1543.1179,0.045765
1544.0497,0.045479
1544.9815,0.044655
1545.9134,0.045193
1546.8452,0.046248
1547.7770,0.045107
1548.7089,0.043634
1549.6407,0.043511
1550.5725,0.044632
1551.5044,0.045840
1552.4362,0.045241
1553.3680,0.044014
1554.2999,0.043582
1555.2317,0.044448
1556.1635,0.046000
1557.0954,0.045333
1558.0272,0.044261
1558.9591,0.047042
1559.8909,0.053700
1560.8227,0.054287
1561.7546,0.052223
1562.6864,0.050266
1563.6182,0.048597
1564.5501,0.047765
1565.4819,0.048497
1566.4137,0.049761
1567.3456,0.049509
1568.2774,0.048967
1569.2092,0.049585
1570.1411,0.051491
1571.0729,0.053819
1572.0047,0.053322
1572.9366,0.051607
1573.8684,0.051178
1574.8002,0.051352
1575.7321,0.051984
1576.6639,0.054555
1577.5957,0.058295
1578.5276,0.058253
1579.4594,0.057235
1580.3912,0.056971
1581.3231,0.056775
1582.2549,0.057246
1583.1867,0.058238
1584.1186,0.059044
1585.0504,0.059856
1585.9822,0.060316
1586.9141,0.060690
1587.8459,0.061598
1588.7778,0.062684
1589.7096,0.063623
1590.6414,0.064531
1591.5733,0.065354
1592.5051,0.066008
1593.4369,0.067062
1594.3688,0.068300
1595.3006,0.069271
1596.2324,0.070779
1597.1643,0.072254
1598.0961,0.073281
1599.0279,0.073899
1599.9598,0.074864
1600.8916,0.076360
1601.8234,0.077555
1602.7553,0.079142
1603.6871,0.081066
1604.6189,0.082913
1605.5508,0.084489
1606.4826,0.085859
1607.4144,0.087108
1608.3463,0.088611
1609.2781,0.090680
1610.2099,0.093159
1611.1418,0.095284
1612.0736,0.096430
1613.0054,0.097447
1613.9373,0.098679
1614.8691,0.100434
1615.8010,0.102659
1616.7328,0.106100
1617.6646,0.112188
1618.5965,0.116815
1619.5283,0.115636
1620.4601,0.114922
1621.3920,0.115940
1622.3238,0.117426
1623.2556,0.120199
1624.1875,0.125011
1625.1193,0.128944
1626.0511,0.129355
1626.9830,0.129460
1627.9148,0.130637
1628.8466,0.133453
1629.7785,0.135976
1630.7103,0.135479
1631.6421,0.135148
1632.5740,0.135761
1633.5058,0.136247
1634.4376,0.136534
1635.3695,0.138536
1636.3013,0.145672
1637.2331,0.152679
1638.1650,0.149678
1639.0968,0.147314
1640.0286,0.145483
1640.9605,0.143568
1641.8923,0.143042
1642.8242,0.142276
1643.7560,0.141017
1644.6878,0.139848
1645.6197,0.139666
1646.5515,0.140749
1647.4833,0.142136
1648.4152,0.142226
1649.3470,0.140692
1650.2788,0.137485
1651.2107,0.134002
1652.1425,0.131582
1653.0743,0.132193
1654.0062,0.141203
1654.9380,0.146461
1655.8698,0.139488
1656.8017,0.133037
1657.7335,0.128801
1658.6653,0.125686
1659.5972,0.123683
1660.5290,0.122606
1661.4608,0.121325
1662.3927,0.119697
1663.3245,0.118491
1664.2563,0.117939
1665.1882,0.115986
1666.1200,0.113068
1667.0518,0.110534
1667.9837,0.108088
1668.9155,0.106662
1669.8474,0.106167
1670.7792,0.105718
1671.7110,0.104192
1672.6429,0.102277
1673.5747,0.100110
1674.5065,0.097428
1675.4384,0.095668
1676.3702,0.095578
1677.3020,0.094567
1678.2339,0.091391
1679.1657,0.088539
1680.0975,0.086620
1681.0294,0.085176
1681.9612,0.083882
1682.8930,0.082026
1683.8249,0.080742
1684.7567,0.079569
1685.6885,0.079279
1686.6204,0.077823
1687.5522,0.075175
1688.4840,0.072866
1689.4159,0.071392
1690.3477,0.069780
1691.2795,0.068156
1692.2114,0.066436
1693.1432,0.064521
1694.0750,0.062880
1695.0069,0.061376
1695.9387,0.059831
1696.8706,0.059492
1697.8024,0.059481
1698.7342,0.056974
1699.6661,0.054396
1700.5979,0.052797
1701.5297,0.053968
1702.4616,0.054578
1703.3934,0.051556
1704.3252,0.048982
1705.2571,0.047770
1706.1889,0.047186
1707.1207,0.047187
1708.0526,0.046755
1708.9844,0.045554
1709.9162,0.044137
1710.8481,0.042790
1711.7799,0.042027
1712.7117,0.040751
1713.6436,0.039271
1714.5754,0.038638
1715.5072,0.038014
1716.4391,0.037654
1717.3709,0.037282
1718.3027,0.036041
1719.2346,0.036315
1720.1664,0.036402
1721.0982,0.035090
1722.0301,0.033740
1722.9619,0.032692
1723.8937,0.031915
1724.8256,0.031668
1725.7574,0.031703
1726.6893,0.031049
1727.6211,0.030204
1728.5529,0.029379
1729.4848,0.028616
1730.4166,0.027998
1731.3484,0.028021
1732.2803,0.028084
1733.2121,0.027144
1734.1439,0.026190
1735.0758,0.026463
1736.0076,0.027448
1736.9394,0.027092
1737.8713,0.025861
1738.8031,0.024516
1739.7349,0.023943
1740.6668,0.024264
1741.5986,0.025201
1742.5304,0.024493
1743.4623,0.023218
1744.3941,0.022643
1745.3259,0.022901
1746.2578,0.022675
1747.1896,0.022183
1748.1214,0.021663
1749.0533,0.021349
1749.9851,0.021377
1750.9169,0.021495
1751.8488,0.020777
1752.7806,0.020464
1753.7125,0.020483
1754.6443,0.020040
1755.5761,0.019676
1756.5080,0.019303
1757.4398,0.019409
1758.3716,0.019446
1759.3035,0.019174
1760.2353,0.018684
1761.1671,0.018302
1762.0990,0.018017
1763.0308,0.017888
1763.9626,0.017801
1764.8945,0.017189
1765.8263,0.016964
1766.7581,0.016837
1767.6900,0.016679
1768.6218,0.016315
1769.5536,0.016402
1770.4855,0.016301
1771.4173,0.015825
1772.3491,0.015825
1773.2810,0.015984
1774.2128,0.016567
1775.1446,0.016520
1776.0765,0.015892
1777.0083,0.015448
1777.9401,0.015219
1778.8720,0.015012
1779.8038,0.014832
1780.7357,0.014757
1781.6675,0.014771
1782.5993,0.015191
1783.5312,0.015170
1784.4630,0.014739
1785.3948,0.014569
1786.3267,0.014569
1787.2585,0.014593
1788.1903,0.014120
1789.1222,0.013638
1790.0540,0.013777
1790.9858,0.013605
1791.9177,0.013106
1792.8495,0.013349
1793.7813,0.013706
1794.7132,0.014114
1795.6450,0.013482
1796.5768,0.012689
1797.5087,0.012667
1798.4405,0.012159
1799.3723,0.012001
1800.3042,0.012758
1801.2360,0.013420
1802.1678,0.013225
1803.0997,0.012696
1804.0315,0.012621
1804.9633,0.012903
1805.8952,0.012829
1806.8270,0.012235
1807.7589,0.012074
1808.6907,0.011939
1809.6225,0.011994
1810.5544,0.012387
1811.4862,0.012064
1812.4180,0.011827
1813.3499,0.011752
1814.2817,0.011798
1815.2135,0.011752
1816.1454,0.011422
1817.0772,0.010956
1818.0090,0.011224
1818.9409,0.011935
1819.8727,0.011915
1820.8045,0.011616
1821.7364,0.010894
1822.6682,0.010553
1823.6000,0.011282
1824.5319,0.011561
1825.4637,0.010711
1826.3955,0.010209
1827.3274,0.009696
1828.2592,0.009825
1829.1910,0.010531
1830.1229,0.011064
1831.0547,0.011333
1831.9865,0.011090
1832.9184,0.010815
1833.8502,0.010256
1834.7821,0.010214
1835.7139,0.009880
1836.6457,0.009722
1837.5776,0.010196
1838.5094,0.010585
1839.4412,0.010682
1840.3731,0.010781
1841.3049,0.010202
1842.2367,0.009591
1843.1686,0.009797
1844.1004,0.009995
1845.0322,0.009411
1845.9641,0.009921
1846.8959,0.010283
1847.8277,0.009868
1848.7596,0.009908
1849.6914,0.009767
1850.6232,0.009679
1851.5551,0.009203
1852.4869,0.008757
1853.4187,0.008986
1854.3506,0.009663
1855.2824,0.010054
1856.2142,0.010058
1857.1461,0.009732
1858.0779,0.009732
1859.0097,0.009874
1859.9416,0.009437
1860.8734,0.009416
1861.8052,0.009570
1862.7371,0.010106
1863.6689,0.010100
1864.6008,0.009156
1865.5326,0.009458
1866.4644,0.010171
1867.3963,0.009788
1868.3281,0.009424
1869.2599,0.008979
1870.1918,0.008572
1871.1236,0.008586
1872.0554,0.008423
1872.9873,0.007980
1873.9191,0.008167
1874.8509,0.008086
1875.7828,0.008879
1876.7146,0.009781
1877.6464,0.009469
1878.5783,0.008388
1879.5101,0.008439
1880.4419,0.008814
1881.3738,0.008345
1882.3056,0.009163
1883.2374,0.010433
1884.1693,0.009983
1885.1011,0.009425
1886.0329,0.009092
1886.9648,0.009742
1887.8966,0.010746
1888.8284,0.010933
1889.7603,0.009893
1890.6921,0.009553
1891.6240,0.008376
1892.5558,0.007116
1893.4876,0.007673
1894.4195,0.008030
1895.3513,0.008600
1896.2831,0.009207
1897.2150,0.008845
1898.1468,0.009269
1899.0786,0.009344
1900.0105,0.008899
1900.9423,0.008242
1901.8741,0.007748
1902.8060,0.007887
1903.7378,0.008275
1904.6696,0.008865
1905.6015,0.009676
1906.5333,0.009112
1907.4651,0.008372
1908.3970,0.009616
1909.3288,0.010131
1910.2606,0.009248
1911.1925,0.009399
1912.1243,0.009075
1913.0561,0.008529
1913.9880,0.009945
1914.9198,0.010140
1915.8516,0.009942
1916.7835,0.010167
1917.7153,0.011144
1918.6472,0.009912
1919.5790,0.008101
1920.5108,0.008245
1921.4427,0.008395
1922.3745,0.009407
1923.3063,0.010218
1924.2382,0.009242
1925.1700,0.008736
1926.1018,0.009734
1927.0337,0.009008
1927.9655,0.007168
1928.8973,0.007520
1929.8292,0.010161
1930.7610,0.010490
1931.6928,0.009463
1932.6247,0.008837
1933.5565,0.008860
1934.4883,0.008125
1935.4202,0.006616
1936.3520,0.006890
1937.2838,0.008018
1938.2157,0.006906
1939.1475,0.007920
1940.0793,0.009491
1941.0112,0.007810
1941.9430,0.006554
1942.8748,0.006717
1943.8067,0.006906
1944.7385,0.006856
1945.6704,0.007848
1946.6022,0.007934
1947.5340,0.005795
1948.4659,0.007665
1949.3977,0.009488
1950.3295,0.008062
1951.2614,0.008286
1952.1932,0.007511
1953.1250,0.004927
1954.0569,0.004531
1954.9887,0.005134
1955.9205,0.005687
1956.8524,0.007065
1957.7842,0.006802
1958.7160,0.004815
1959.6479,0.004027
1960.5797,0.005026
1961.5115,0.004111
1962.4434,0.006988
1963.3752,0.008712
1964.3070,0.005127
1965.2389,0.004057
1966.1707,0.005033
1967.1025,0.004687
1968.0344,0.003867
1968.9662,0.005462
1969.8980,0.007314
1970.8299,0.007686
1971.7617,0.005500
1972.6936,0.006137
1973.6254,0.008906
1974.5572,0.008259
1975.4891,0.005250
1976.4209,0.004033
1977.3527,0.005970
1978.2846,0.006188
1979.2164,0.001700
1980.1482,0.001382
1981.0801,0.004514
1982.0119,0.005778
1982.9437,0.003411
1983.8756,0.003174
1984.8074,0.003880
1985.7392,0.006827
1986.6711,0.008745
1987.6029,0.005760
1988.5347,0.004435
1989.4666,0.005408
1990.3984,0.005246
1991.3302,0.004387
1992.2621,0.005160
1993.1939,0.009547
1994.1257,0.008730
1995.0576,0.006147
1995.9894,0.008569
1996.9212,0.008994
1997.8531,0.005909
1998.7849,0.004521
1999.7167,0.004617
2000.6486,0.003284
2001.5804,0.004985
2002.5123,0.006598
2003.4441,0.006183
2004.3759,0.005218
2005.3078,0.004697
2006.2396,0.006739
2007.1714,0.006414
2008.1033,0.004395
2009.0351,0.002515
2009.9669,0.002900
2010.8988,0.006115
2011.8306,0.009007
2012.7624,0.006312
2013.6943,0.003284
2014.6261,0.004719
2015.5579,0.008829
2016.4898,0.007833
2017.4216,0.006409
2018.3534,0.007354
2019.2853,0.007072
2020.2171,0.004533
2021.1489,0.002658
2022.0808,0.004807
2023.0126,0.008181
2023.9444,0.007822
2024.8763,0.004584
2025.8081,0.003249
2026.7399,0.003419
2027.6718,0.005787
2028.6036,0.010114
2029.5355,0.011783
2030.4673,0.007725
2031.3991,0.004577
2032.3310,0.007905
2033.2628,0.008719
2034.1946,0.009247
2035.1265,0.007545
2036.0583,0.008658
2036.9901,0.010480
2037.9220,0.008570
2038.8538,0.006791
2039.7856,0.006105
2040.7175,0.006393
2041.6493,0.007594
2042.5811,0.011243
2043.5130,0.010336
2044.4448,0.007997
2045.3766,0.009916
2046.3085,0.010122
2047.2403,0.010435
2048.1721,0.007811
2049.1040,0.007407
2050.0358,0.009917
2050.9676,0.010153
2051.8995,0.009735
2052.8313,0.009191
2053.7631,0.008855
2054.6950,0.008839
2055.6268,0.009876
2056.5587,0.009932
2057.4905,0.010611
2058.4223,0.011834
2059.3542,0.010412
2060.2860,0.008991
2061.2178,0.010423
2062.1497,0.013034
2063.0815,0.012973
2064.0133,0.011940
2064.9452,0.012776
2065.8770,0.012265
2066.8088,0.011683
2067.7407,0.012727
2068.6725,0.012156
2069.6043,0.012377
2070.5362,0.012394
2071.4680,0.013021
2072.3998,0.013641
2073.3317,0.012468
2074.2635,0.012136
2075.1953,0.012453
2076.1272,0.011347
2077.0590,0.011097
2077.9908,0.011626
2078.9227,0.012475
2079.8545,0.014438
2080.7863,0.015147
2081.7182,0.012814
2082.6500,0.011509
2083.5819,0.012602
2084.5137,0.014092
2085.4455,0.013303
2086.3774,0.012251
2087.3092,0.012937
2088.2410,0.014291
2089.1729,0.014672
2090.1047,0.015220
2091.0365,0.015396
2091.9684,0.014260
2092.9002,0.013015
2093.8320,0.012978
2094.7639,0.012692
2095.6957,0.013314
2096.6275,0.014762
2097.5594,0.015406
2098.4912,0.015128
2099.4230,0.014170
2100.3549,0.012607
2101.2867,0.012654
2102.2185,0.012820
2103.1504,0.012599
2104.0822,0.012870
2105.0140,0.014278
2105.9459,0.015224
2106.8777,0.014901
2107.8095,0.013387
2108.7414,0.011578
2109.6732,0.013286
2110.6051,0.013903
2111.5369,0.014047
2112.4687,0.015650
2113.4006,0.014824
2114.3324,0.012825
2115.2642,0.012591
2116.1961,0.013537
2117.1279,0.014443
2118.0597,0.015176
2118.9916,0.014668
2119.9234,0.014703
2120.8552,0.015831
2121.7871,0.014340
2122.7189,0.012522
2123.6507,0.013669
2124.5826,0.015197
2125.5144,0.015462
2126.4462,0.015546
2127.3781,0.014891
2128.3099,0.013106
2129.2417,0.012996
2130.1736,0.014001
2131.1054,0.012935
2132.0372,0.012268
2132.9691,0.012783
2133.9009,0.012598
2134.8327,0.012247
2135.7646,0.013203
2136.6964,0.012631
2137.6282,0.011774
2138.5601,0.012229
2139.4919,0.012757
2140.4238,0.014034
2141.3556,0.012946
2142.2874,0.013365
2143.2193,0.015365
2144.1511,0.016952
2145.0829,0.012524
2146.0148,0.008408
2146.9466,0.010581
2147.8784,0.011523
2148.8103,0.009665
2149.7421,0.007526
2150.6739,0.007714
2151.6058,0.006558
2152.5376,0.005643
2153.4694,0.005664
2154.4013,0.005354
2155.3331,0.006116
2156.2649,0.006494
2157.1968,0.005855
2158.1286,0.006207
2159.0604,0.007089
2159.9923,0.006089
2160.9241,0.003448
2161.8559,0.001092
2162.7878,0.001868
2163.7196,0.007875
2164.6514,0.011241
2165.5833,0.007575
2166.5151,0.008519
2167.4470,0.012479
2168.3788,0.013384
2169.3106,0.009960
2170.2425,0.004897
2171.1743,0.005094
2172.1061,0.008471
2173.0380,0.009107
2173.9698,0.006177
2174.9016,0.002762
2175.8335,0.005637
2176.7653,0.011847
2177.6971,0.012812
2178.6290,0.009764
2179.5608,0.009119
2180.4926,0.011651
2181.4245,0.009114
2182.3563,0.005520
2183.2881,0.006846
2184.2200,0.010201
2185.1518,0.012449
2186.0836,0.011801
2187.0155,0.010259
2187.9473,0.008940
2188.8791,0.007131
2189.8110,0.006020
2190.7428,0.006593
2191.6746,0.008415
2192.6065,0.008530
2193.5383,0.008517
2194.4702,0.009178
2195.4020,0.009784
2196.3338,0.008838
2197.2657,0.007893
2198.1975,0.007456
2199.1293,0.007703
2200.0612,0.008412
2200.9930,0.010550
2201.9248,0.011414
2202.8567,0.008053
2203.7885,0.006673
2204.7203,0.008739
2205.6522,0.010698
2206.5840,0.010268
2207.5158,0.007290
2208.4477,0.007224
2209.3795,0.009772
2210.3113,0.010567
2211.2432,0.008613
2212.1750,0.008688
2213.1068,0.010166
2214.0387,0.009126
2214.9705,0.009958
2215.9023,0.011165
2216.8342,0.009092
2217.7660,0.007252
2218.6978,0.008680
2219.6297,0.009389
2220.5615,0.009359
2221.4934,0.009306
2222.4252,0.007641
2223.3570,0.007733
2224.2889,0.009525
2225.2207,0.011257
2226.1525,0.011647
2227.0844,0.011107
2228.0162,0.012006
2228.9480,0.010848
2229.8799,0.008095
2230.8117,0.008729
2231.7435,0.010246
2232.6754,0.009730
2233.6072,0.009804
2234.5390,0.010299
2235.4709,0.009871
2236.4027,0.009775
2237.3345,0.010359
2238.2664,0.008570
2239.1982,0.008379
2240.1300,0.008917
2241.0619,0.008532
2241.9937,0.009446
2242.9255,0.009979
2243.8574,0.009028
2244.7892,0.008400
2245.7210,0.009276
2246.6529,0.009373
2247.5847,0.008874
2248.5166,0.008585
2249.4484,0.009284
2250.3802,0.011742
2251.3121,0.012792
2252.2439,0.010893
2253.1757,0.010148
2254.1076,0.010031
2255.0394,0.008592
2255.9712,0.009191
2256.9031,0.009902
2257.8349,0.009297
2258.7667,0.009803
2259.6986,0.010883
2260.6304,0.010828
2261.5622,0.010115
2262.4941,0.009722
2263.4259,0.008701
2264.3577,0.007541
2265.2896,0.008365
2266.2214,0.009407
2267.1532,0.008989
2268.0851,0.009390
2269.0169,0.009955
2269.9487,0.009210
2270.8806,0.008673
2271.8124,0.009666
2272.7442,0.011070
2273.6761,0.010389
2274.6079,0.009518
2275.5397,0.009677
2276.4716,0.009883
2277.4034,0.009609
2278.3353,0.009335
2279.2671,0.008999
2280.1989,0.009091
2281.1308,0.009677
2282.0626,0.009183
2282.9944,0.008608
2283.9263,0.009559
2284.8581,0.009864
2285.7899,0.009269
2286.7218,0.009006
2287.6536,0.009958
2288.5854,0.010592
2289.5173,0.010148
2290.4491,0.010484
2291.3809,0.010288
2292.3128,0.009724
2293.2446,0.010360
2294.1764,0.010710
2295.1083,0.010457
2296.0401,0.009970
2296.9719,0.009546
2297.9038,0.009308
2298.8356,0.009416
2299.7674,0.009623
2300.6993,0.009607
2301.6311,0.009570
2302.5629,0.010139
2303.4948,0.010544
2304.4266,0.009996
2305.3585,0.009870
2306.2903,0.010073
2307.2221,0.009855
2308.1540,0.009889
2309.0858,0.010381
2310.0176,0.010161
2310.9495,0.009852
2311.8813,0.009957
2312.8131,0.009724
2313.7450,0.010080
2314.6768,0.010163
2315.6086,0.009780
2316.5405,0.009830
2317.4723,0.009633
2318.4041,0.009457
2319.3360,0.009358
2320.2678,0.008816
2321.1996,0.008743
2322.1315,0.009164
2323.0633,0.008419
2323.9951,0.007763
2324.9270,0.009038
2325.8588,0.009760
2326.7906,0.009137
2327.7225,0.009123
2328.6543,0.008834
2329.5861,0.008735
2330.5180,0.009780
2331.4498,0.010354
2332.3817,0.009711
2333.3135,0.008961
2334.2453,0.009369
2335.1772,0.009716
2336.1090,0.009128
2337.0408,0.008620
2337.9727,0.008325
2338.9045,0.008265
2339.8363,0.008841
2340.7682,0.008990
2341.7000,0.009224
2342.6318,0.009698
2343.5637,0.009860
2344.4955,0.009450
2345.4273,0.008614
2346.3592,0.008069
2347.2910,0.008333
2348.2228,0.008900
2349.1547,0.008751
2350.0865,0.008395
2351.0183,0.008563
2351.9502,0.008249
2352.8820,0.007769
2353.8138,0.008022
2354.7457,0.008203
2355.6775,0.008371
2356.6093,0.009007
2357.5412,0.008860
2358.4730,0.008022
2359.4049,0.008181
2360.3367,0.008695
2361.2685,0.008351
2362.2004,0.007567
2363.1322,0.008466
2364.0640,0.009164
2364.9959,0.007330
2365.9277,0.007242
2366.8595,0.008481
2367.7914,0.008247
2368.7232,0.008042
2369.6550,0.007754
2370.5869,0.006501
2371.5187,0.006231
2372.4505,0.007694
2373.3824,0.008492
2374.3142,0.008158
2375.2460,0.007892
2376.1779,0.007759
2377.1097,0.007182
2378.0415,0.006940
2378.9734,0.007544
2379.9052,0.007556
2380.8370,0.006729
2381.7689,0.007016
2382.7007,0.008083
2383.6325,0.008301
2384.5644,0.008016
2385.4962,0.008103
2386.4281,0.008068
2387.3599,0.007388
2388.2917,0.006777
2389.2236,0.006613
2390.1554,0.006930
2391.0872,0.007428
2392.0191,0.007455
2392.9509,0.007238
2393.8827,0.007100
2394.8146,0.007156
2395.7464,0.007664
2396.6782,0.008157
2397.6101,0.008060
2398.5419,0.007897
2399.4737,0.007226
2400.4056,0.006439
2401.3374,0.006862
2402.2692,0.006967
2403.2011,0.006686
2404.1329,0.006767
2405.0647,0.007328
2405.9966,0.007576
2406.9284,0.007170
2407.8602,0.007069
2408.7921,0.007338
2409.7239,0.007543
2410.6557,0.007245
2411.5876,0.007121
2412.5194,0.006762
2413.4512,0.006641
2414.3831,0.006827
2415.3149,0.007031
2416.2468,0.007051
2417.1786,0.006204
2418.1104,0.005991
2419.0423,0.006239
2419.9741,0.006395
2420.9059,0.006768
2421.8378,0.006553
2422.7696,0.006046
2423.7014,0.006240
2424.6333,0.006662
2425.5651,0.006610
2426.4969,0.005989
2427.4288,0.005580
2428.3606,0.006206
2429.2924,0.006779
2430.2243,0.006821
2431.1561,0.006656
2432.0879,0.006035
2433.0198,0.004956
2433.9516,0.004662
2434.8834,0.005830
2435.8153,0.006708
2436.7471,0.006584
2437.6789,0.006502
2438.6108,0.006932
2439.5426,0.006888
2440.4744,0.006393
2441.4063,0.006270
2442.3381,0.006142
2443.2700,0.006180
2444.2018,0.006358
2445.1336,0.006568
2446.0655,0.006420
2446.9973,0.005173
2447.9291,0.004506
2448.8610,0.004955
2449.7928,0.005274
2450.7246,0.005320
2451.6565,0.005540
2452.5883,0.005545
2453.5201,0.005072
2454.4520,0.005477
2455.3838,0.006108
2456.3156,0.005718
2457.2475,0.005473
2458.1793,0.006035
2459.1111,0.006265
2460.0430,0.005214
2460.9748,0.004834
2461.9066,0.005654
2462.8385,0.005908
2463.7703,0.006024
2464.7021,0.005639
2465.6340,0.005281
2466.5658,0.006042
2467.4976,0.006486
2468.4295,0.005862
2469.3613,0.005501
2470.2932,0.005781
2471.2250,0.006054
2472.1568,0.006099
2473.0887,0.006037
2474.0205,0.006045
2474.9523,0.006247
2475.8842,0.006501
2476.8160,0.006440
2477.7478,0.005352
2478.6797,0.004555
2479.6115,0.005291
2480.5433,0.006053
2481.4752,0.006268
2482.4070,0.005830
2483.3388,0.005765
2484.2707,0.006139
2485.2025,0.006322
2486.1343,0.006411
2487.0662,0.006642
2487.9980,0.006578
2488.9298,0.005897
2489.8617,0.005613
2490.7935,0.005926
2491.7253,0.006253
2492.6572,0.006002
2493.5890,0.005302
2494.5208,0.005395
2495.4527,0.005538
2496.3845,0.005944
2497.3164,0.006144
2498.2482,0.005882
2499.1800,0.005711
2500.1119,0.005288
2501.0437,0.004955
2501.9755,0.005425
2502.9074,0.005666
2503.8392,0.005512
2504.7710,0.005531
2505.7029,0.005711
2506.6347,0.006120
2507.5665,0.006032
2508.4984,0.006007
2509.4302,0.006056
2510.3620,0.005966
2511.2939,0.005712
2512.2257,0.005098
2513.1575,0.005070
2514.0894,0.005999
2515.0212,0.006108
2515.9530,0.005081
2516.8849,0.004752
2517.8167,0.005647
2518.7485,0.005694
2519.6804,0.004673
2520.6122,0.005129
2521.5440,0.006052
2522.4759,0.005310
2523.4077,0.005077
2524.3396,0.005905
2525.2714,0.005612
2526.2032,0.005133
2527.1351,0.005945
2528.0669,0.006496
2528.9987,0.006282
2529.9306,0.006088
2530.8624,0.005763
2531.7942,0.005940
2532.7261,0.005781
2533.6579,0.005473
2534.5897,0.005728
2535.5216,0.005333
2536.4534,0.004819
2537.3852,0.005166
2538.3171,0.005726
2539.2489,0.005563
2540.1807,0.005302
2541.1126,0.005812
2542.0444,0.005597
2542.9762,0.004182
2543.9081,0.003438
2544.8399,0.003771
2545.7717,0.004602
2546.7036,0.005286
2547.6354,0.005533
2548.5672,0.005760
2549.4991,0.005674
2550.4309,0.005663
2551.3627,0.005930
2552.2946,0.005296
2553.2264,0.004498
2554.1583,0.004762
2555.0901,0.005093
2556.0219,0.005476
2556.9538,0.005559
2557.8856,0.004590
2558.8174,0.004335
2559.7493,0.003860
2560.6811,0.004392
2561.6129,0.005857
2562.5448,0.005475
2563.4766,0.005043
2564.4084,0.005587
2565.3403,0.005455
2566.2721,0.005300
2567.2039,0.004836
2568.1358,0.004389
2569.0676,0.004083
2569.9994,0.004757
2570.9313,0.006294
2571.8631,0.005900
2572.7949,0.004720
2573.7268,0.004711
2574.6586,0.004543
2575.5904,0.004792
2576.5223,0.005251
2577.4541,0.004876
2578.3859,0.005001
2579.3178,0.006245
2580.2496,0.007009
2581.1815,0.006221
2582.1133,0.005576
2583.0451,0.005840
2583.9770,0.005011
2584.9088,0.004348
2585.8406,0.004922
2586.7725,0.004718
2587.7043,0.004751
2588.6361,0.005012
2589.5680,0.005161
2590.4998,0.004928
2591.4316,0.004544
2592.3635,0.004546
2593.2953,0.004876
2594.2271,0.004867
2595.1590,0.004800
2596.0908,0.005139
2597.0226,0.005165
2597.9545,0.005352
2598.8863,0.005428
2599.8181,0.005314
2600.7500,0.005803
2601.6818,0.005223
2602.6136,0.004695
2603.5455,0.005515
2604.4773,0.005390
2605.4091,0.004866
2606.3410,0.005189
2607.2728,0.005487
2608.2047,0.005229
2609.1365,0.005602
2610.0683,0.005772
2611.0002,0.005200
2611.9320,0.005005
2612.8638,0.004799
2613.7957,0.005058
2614.7275,0.005445
2615.6593,0.005109
2616.5912,0.004610
2617.5230,0.004887
2618.4548,0.005725
2619.3867,0.005854
2620.3185,0.005445
2621.2503,0.005939
2622.1822,0.006090
2623.1140,0.005545
2624.0458,0.005591
2624.9777,0.005340
2625.9095,0.005415
2626.8413,0.005590
2627.7732,0.005316
2628.7050,0.006003
2629.6368,0.007007
2630.5687,0.006583
2631.5005,0.005934
2632.4323,0.006277
2633.3642,0.006619
2634.2960,0.006618
2635.2279,0.006284
2636.1597,0.005802
2637.0915,0.005702
2638.0234,0.005969
2638.9552,0.006125
2639.8870,0.006218
2640.8189,0.006539
2641.7507,0.006583
2642.6825,0.006498
2643.6144,0.006406
2644.5462,0.006079
2645.4780,0.006150
2646.4099,0.006134
2647.3417,0.005970
2648.2735,0.006467
2649.2054,0.006709
2650.1372,0.006206
2651.0690,0.006231
2652.0009,0.007030
2652.9327,0.007371
2653.8645,0.006967
2654.7964,0.006838
2655.7282,0.006482
2656.6600,0.006346
2657.5919,0.006943
2658.5237,0.007094
2659.4555,0.006895
2660.3874,0.006867
2661.3192,0.006865
2662.2511,0.007433
2663.1829,0.007537
2664.1147,0.006898
2665.0466,0.006346
2665.9784,0.006376
2666.9102,0.006987
2667.8421,0.007109
2668.7739,0.006854
2669.7057,0.007045
2670.6376,0.007392
2671.5694,0.007407
2672.5012,0.007245
2673.4331,0.007407
2674.3649,0.007356
2675.2967,0.007453
2676.2286,0.007554
2677.1604,0.007227
2678.0922,0.007092
2679.0241,0.007320
2679.9559,0.007634
2680.8877,0.007697
2681.8196,0.007631
2682.7514,0.008092
2683.6832,0.008000
2684.6151,0.007615
2685.5469,0.007619
2686.4787,0.007631
2687.4106,0.007818
2688.3424,0.007984
2689.2742,0.008128
2690.2061,0.008777
2691.1379,0.008773
2692.0698,0.008361
2693.0016,0.007893
2693.9334,0.007265
2694.8653,0.007691
2695.7971,0.008437
2696.7289,0.008518
2697.6608,0.008461
2698.5926,0.008681
2699.5244,0.009126
2700.4563,0.009497
2701.3881,0.009272
2702.3199,0.008971
2703.2518,0.008635
2704.1836,0.008115
2705.1154,0.008005
2706.0473,0.008563
2706.9791,0.009315
2707.9109,0.009486
2708.8428,0.009025
2709.7746,0.009251
2710.7064,0.009097
2711.6383,0.008804
2712.5701,0.009244
2713.5019,0.009387
2714.4338,0.009030
2715.3656,0.009330
2716.2974,0.009454
2717.2293,0.008992
2718.1611,0.008876
2719.0930,0.009187
2720.0248,0.009214
2720.9566,0.009267
2721.8885,0.009700
2722.8203,0.010122
2723.7521,0.010223
2724.6840,0.009880
2725.6158,0.009985
2726.5476,0.010313
2727.4795,0.010621
2728.4113,0.010809
2729.3431,0.010938
2730.2750,0.011039
2731.2068,0.011209
2732.1386,0.010991
2733.0705,0.010899
2734.0023,0.011297
2734.9341,0.010883
2735.8660,0.010158
2736.7978,0.010068
2737.7296,0.010606
2738.6615,0.010895
2739.5933,0.011095
2740.5251,0.011141
2741.4570,0.011074
2742.3888,0.011039
2743.3206,0.010979
2744.2525,0.010984
2745.1843,0.011286
2746.1162,0.011755
2747.0480,0.011837
2747.9798,0.012320
2748.9117,0.012254
2749.8435,0.011885
2750.7753,0.011897
2751.7072,0.011832
2752.6390,0.011832
2753.5708,0.011236
2754.5027,0.011284
2755.4345,0.011724
2756.3663,0.011548
2757.2982,0.011341
2758.2300,0.011685
2759.1618,0.012126
2760.0937,0.012053
2761.0255,0.011783
2761.9573,0.011582
2762.8892,0.011650
2763.8210,0.012020
2764.7528,0.011945
2765.6847,0.011811
2766.6165,0.011893
2767.5483,0.012278
2768.4802,0.012468
2769.4120,0.012355
2770.3438,0.011970
2771.2757,0.012175
2772.2075,0.012312
2773.1394,0.011762
2774.0712,0.011893
2775.0030,0.012590
2775.9349,0.013350
2776.8667,0.013088
2777.7985,0.012724
2778.7304,0.013076
2779.6622,0.013252
2780.5940,0.012924
2781.5259,0.012813
2782.4577,0.013051
2783.3895,0.013266
2784.3214,0.013700
2785.2532,0.013418
2786.1850,0.013293
2787.1169,0.013223
2788.0487,0.013089
2788.9805,0.013444
2789.9124,0.013582
2790.8442,0.013863
2791.7760,0.014183
2792.7079,0.014209
2793.6397,0.014037
2794.5715,0.014458
2795.5034,0.015029
2796.4352,0.015330
2797.3670,0.015062
2798.2989,0.014708
2799.2307,0.014947
2800.1626,0.015435
2801.0944,0.015592
2802.0262,0.016047
2802.9581,0.016705
2803.8899,0.016729
2804.8217,0.016556
2805.7536,0.016981
2806.6854,0.017417
2807.6172,0.017038
2808.5491,0.016558
2809.4809,0.016436
2810.4127,0.016668
2811.3446,0.016872
2812.2764,0.017108
2813.2082,0.017802
2814.1401,0.018270
2815.0719,0.017771
2816.0037,0.017842
2816.9356,0.018892
2817.8674,0.018653
2818.7992,0.018210
2819.7311,0.018819
2820.6629,0.019020
2821.5947,0.018788
2822.5266,0.018732
2823.4584,0.019153
2824.3902,0.019935
2825.3221,0.019915
2826.2539,0.019918
2827.1857,0.020322
2828.1176,0.020518
2829.0494,0.020338
2829.9813,0.020275
2830.9131,0.020676
2831.8449,0.021230
2832.7768,0.021334
2833.7086,0.021201
2834.6404,0.021699
2835.5723,0.022304
2836.5041,0.022459
2837.4359,0.021881
2838.3678,0.022177
2839.2996,0.022742
2840.2314,0.023216
2841.1633,0.023421
2842.0951,0.023468
2843.0269,0.022824
2843.9588,0.022962
2844.8906,0.023375
2845.8224,0.022981
2846.7543,0.023739
2847.6861,0.024550
2848.6179,0.024923
2849.5498,0.025345
2850.4816,0.025135
2851.4134,0.024624
2852.3453,0.025127
2853.2771,0.025448
2854.2089,0.025389
2855.1408,0.026508
2856.0726,0.027129
2857.0045,0.027091
2857.9363,0.026891
2858.8681,0.026772
2859.8000,0.027536
2860.7318,0.028633
2861.6636,0.029041
2862.5955,0.029296
2863.5273,0.029251
2864.4591,0.029319
2865.3910,0.029838
2866.3228,0.030509
2867.2546,0.030734
2868.1865,0.031258
2869.1183,0.031827
2870.0501,0.032414
2870.9820,0.033582
2871.9138,0.034409
2872.8456,0.034410
2873.7775,0.034934
2874.7093,0.035517
2875.6411,0.035940
2876.5730,0.036138
2877.5048,0.036618
2878.4366,0.037513
2879.3685,0.038015
2880.3003,0.038255
2881.2321,0.038541
2882.1640,0.038894
2883.0958,0.039672
2884.0277,0.040443
2884.9595,0.040586
2885.8913,0.040920
2886.8232,0.041125
2887.7550,0.041070
2888.6868,0.041404
2889.6187,0.041910
2890.5505,0.042212
2891.4823,0.042433
2892.4142,0.043060
2893.3460,0.044633
2894.2778,0.045217
2895.2097,0.044659
2896.1415,0.044788
2897.0733,0.045865
2898.0052,0.046711
2898.9370,0.047055
2899.8688,0.047100
2900.8007,0.047176
2901.7325,0.047886
2902.6643,0.048529
2903.5962,0.048868
2904.5280,0.048382
2905.4598,0.048030
2906.3917,0.047879
2907.3235,0.048091
2908.2553,0.048044
2909.1872,0.047285
2910.1190,0.046408
2911.0509,0.045551
2911.9827,0.045391
2912.9145,0.045378
2913.8464,0.045491
2914.7782,0.045691
2915.7100,0.045208
2916.6419,0.045339
2917.5737,0.044776
2918.5055,0.044000
2919.4374,0.044530
2920.3692,0.045267
2921.3010,0.046271
2922.2329,0.046628
2923.1647,0.045508
2924.0965,0.045414
2925.0284,0.045868
2925.9602,0.046031
2926.8920,0.046656
2927.8239,0.047406
2928.7557,0.047840
2929.6875,0.047684
2930.6194,0.047476
2931.5512,0.047891
2932.4830,0.048583
2933.4149,0.048882
2934.3467,0.048599
2935.2785,0.048120
2936.2104,0.048360
2937.1422,0.048918
2938.0741,0.049126
2939.0059,0.049658
2939.9377,0.049905
2940.8696,0.049724
2941.8014,0.049656
2942.7332,0.049200
2943.6651,0.048970
2944.5969,0.049288
2945.5287,0.049568
2946.4606,0.049925
2947.3924,0.049677
2948.3242,0.049764
2949.2561,0.049540
2950.1879,0.049871
2951.1197,0.050858
2952.0516,0.050619
2952.9834,0.050178
2953.9152,0.050804
2954.8471,0.050987
2955.7789,0.051082
2956.7107,0.050928
2957.6426,0.051540
2958.5744,0.052414
2959.5062,0.052705
2960.4381,0.053508
2961.3699,0.054741
2962.3017,0.056065
2963.2336,0.057494
2964.1654,0.058251
2965.0972,0.059383
2966.0291,0.061309
2966.9609,0.062709
2967.8928,0.064569
2968.8246,0.067518
2969.7564,0.069252
2970.6883,0.071114
2971.6201,0.074160
2972.5519,0.076424
2973.4838,0.078449
2974.4156,0.080724
2975.3474,0.083126
2976.2793,0.085548
2977.2111,0.087313
2978.1429,0.089439
2979.0748,0.090642
2980.0066,0.091343
2980.9384,0.091570
2981.8703,0.091584
2982.8021,0.091456
2983.7339,0.090688
2984.6658,0.088350
2985.5976,0.086031
2986.5294,0.084508
2987.4613,0.082315
2988.3931,0.079165
2989.3249,0.076751
2990.2568,0.074761
2991.1886,0.073494
2992.1204,0.071290
2993.0523,0.069311
2993.9841,0.067799
2994.9160,0.066001
2995.8478,0.064133
2996.7796,0.062714
2997.7115,0.061554
2998.6433,0.061216
2999.5751,0.060799
3000.5070,0.060408
3001.4388,0.059745
3002.3706,0.058865
3003.3025,0.058295
3004.2343,0.058271
3005.1661,0.058243
3006.0980,0.058642
3007.0298,0.058628
3007.9616,0.058187
3008.8935,0.058066
3009.8253,0.058413
3010.7571,0.058585
3011.6890,0.058706
3012.6208,0.059431
3013.5526,0.060203
3014.4845,0.059931
3015.4163,0.060297
3016.3481,0.060428
3017.2800,0.060473
3018.2118,0.060896
3019.1436,0.061249
3020.0755,0.060961
3021.0073,0.061058
3021.9392,0.061304
3022.8710,0.062001
3023.8028,0.062836
3024.7347,0.063396
3025.6665,0.063372
3026.5983,0.063999
3027.5302,0.064920
3028.4620,0.065613
3029.3938,0.065797
3030.3257,0.066291
3031.2575,0.066538
3032.1893,0.066690
3033.1212,0.067866
3034.0530,0.068803
3034.9848,0.069462
3035.9167,0.070892
3036.8485,0.071543
3037.7803,0.071104
3038.7122,0.071379
3039.6440,0.072331
3040.5758,0.072626
3041.5077,0.072679
3042.4395,0.073502
3043.3713,0.074385
3044.3032,0.074861
3045.2350,0.075552
3046.1668,0.076513
3047.0987,0.077393
3048.0305,0.078007
3048.9624,0.079107
3049.8942,0.079072
3050.8260,0.079148
3051.7579,0.079115
3052.6897,0.080042
3053.6215,0.081435
3054.5534,0.081924
3055.4852,0.082327
3056.4170,0.083418
3057.3489,0.083979
3058.2807,0.084154
3059.2125,0.084846
3060.1444,0.085834
3061.0762,0.086430
3062.0080,0.087422
3062.9399,0.088692
3063.8717,0.089815
3064.8035,0.090163
3065.7354,0.090794
3066.6672,0.092353
3067.5990,0.093486
3068.5309,0.094762
3069.4627,0.094851
3070.3945,0.094213
3071.3264,0.095141
3072.2582,0.096786
3073.1900,0.098369
3074.1219,0.098698
3075.0537,0.098486
3075.9856,0.099709
3076.9174,0.101710
3077.8492,0.102235
3078.7811,0.102690
3079.7129,0.103614
3080.6447,0.104610
3081.5766,0.106048
3082.5084,0.107812
3083.4402,0.108387
3084.3721,0.108688
3085.3039,0.109186
3086.2357,0.110023
3087.1676,0.111265
3088.0994,0.112427
3089.0312,0.112003
3089.9631,0.112770
3090.8949,0.113853
3091.8267,0.114624
3092.7586,0.115951
3093.6904,0.117234
3094.6222,0.118363
3095.5541,0.118870
3096.4859,0.119913
3097.4177,0.120991
3098.3496,0.122293
3099.2814,0.123383
3100.2132,0.123812
3101.1451,0.124660
3102.0769,0.126266
3103.0087,0.127675
3103.9406,0.128666
3104.8724,0.129630
3105.8043,0.131215
3106.7361,0.132404
3107.6679,0.132466
3108.5998,0.133493
3109.5316,0.135247
3110.4634,0.136524
3111.3953,0.137746
3112.3271,0.139329
3113.2589,0.140404
3114.1908,0.142037
3115.1226,0.143458
3116.0544,0.144366
3116.9863,0.144372
3117.9181,0.145166
3118.8499,0.147130
3119.7818,0.147721
3120.7136,0.148047
3121.6454,0.149860
3122.5773,0.151174
3123.5091,0.152067
3124.4409,0.152855
3125.3728,0.153303
3126.3046,0.154329
3127.2364,0.156755
3128.1683,0.157988
3129.1001,0.158172
3130.0319,0.160032
3130.9638,0.162775
3131.8956,0.164287
3132.8275,0.165033
3133.7593,0.165815
3134.6911,0.167077
3135.6230,0.168341
3136.5548,0.169962
3137.4866,0.170569
3138.4185,0.171215
3139.3503,0.172160
3140.2821,0.174620
3141.2140,0.176301
3142.1458,0.176337
3143.0776,0.177001
3144.0095,0.178094
3144.9413,0.178989
3145.8731,0.181699
3146.8050,0.182865
3147.7368,0.184427
3148.6686,0.187268
3149.6005,0.189228
3150.5323,0.189773
3151.4641,0.190759
3152.3960,0.191418
3153.3278,0.192113
3154.2596,0.193073
3155.1915,0.194633
3156.1233,0.195735
3157.0551,0.196721
3157.9870,0.197966
3158.9188,0.199488
3159.8507,0.200670
3160.7825,0.202890
3161.7143,0.203882
3162.6462,0.204361
3163.5780,0.205350
3164.5098,0.206068
3165.4417,0.206611
3166.3735,0.208360
3167.3053,0.210699
3168.2372,0.213890
3169.1690,0.215245
3170.1008,0.215274
3171.0327,0.215273
3171.9645,0.216812
3172.8963,0.219050
3173.8282,0.221094
3174.7600,0.222315
3175.6918,0.222748
3176.6237,0.222806
3177.5555,0.223804
3178.4873,0.225212
3179.4192,0.227430
3180.3510,0.229229
3181.2828,0.230485
3182.2147,0.231271
3183.1465,0.233192
3184.0783,0.235562
3185.0102,0.237165
3185.9420,0.237068
3186.8739,0.237773
3187.8057,0.239104
3188.7375,0.240271
3189.6694,0.241431
3190.6012,0.241697
3191.5330,0.242788
3192.4649,0.245670
3193.3967,0.246088
3194.3285,0.246036
3195.2604,0.247650
3196.1922,0.248802
3197.1240,0.248347
3198.0559,0.249462
3198.9877,0.251017
3199.9195,0.253062
3200.8514,0.254755
3201.7832,0.255789
3202.7150,0.256146
3203.6469,0.257644
3204.5787,0.259579
3205.5105,0.260218
3206.4424,0.259713
3207.3742,0.260171
3208.3060,0.260465
3209.2379,0.262020
3210.1697,0.263669
3211.1015,0.265172
3212.0334,0.266447
3212.9652,0.268888
3213.8971,0.269569
3214.8289,0.268767
3215.7607,0.268360
3216.6926,0.269680
3217.6244,0.271100
3218.5562,0.271200
3219.4881,0.272293
3220.4199,0.274217
3221.3517,0.274867
3222.2836,0.275504
3223.2154,0.276670
3224.1472,0.278599
3225.0791,0.280329
3226.0109,0.281078
3226.9427,0.279207
3227.8746,0.279606
3228.8064,0.281463
3229.7382,0.282348
3230.6701,0.280951
3231.6019,0.280529
3232.5337,0.281400
3233.4656,0.282103
3234.3974,0.282993
3235.3292,0.283176
3236.2611,0.282522
3237.1929,0.283153
3238.1247,0.284663
3239.0566,0.286360
3239.9884,0.287712
3240.9202,0.288358
3241.8521,0.287810
3242.7839,0.287864
3243.7158,0.287585
3244.6476,0.287669
3245.5794,0.289447
3246.5113,0.290607
3247.4431,0.290051
3248.3749,0.290513
3249.3068,0.289429
3250.2386,0.288381
3251.1704,0.289925
3252.1023,0.291899
3253.0341,0.291582
3253.9659,0.291395
3254.8978,0.293063
3255.8296,0.294033
3256.7614,0.292349
3257.6933,0.291536
3258.6251,0.292414
3259.5569,0.292338
3260.4888,0.292004
3261.4206,0.293553
3262.3524,0.294423
3263.2843,0.293507
3264.2161,0.292080
3265.1479,0.293170
3266.0798,0.294771
3267.0116,0.295525
3267.9434,0.295455
3268.8753,0.295135
3269.8071,0.294646
3270.7390,0.294165
3271.6708,0.292821
3272.6026,0.292490
3273.5345,0.293409
3274.4663,0.292857
3275.3981,0.291391
3276.3300,0.293505
3277.2618,0.296595
3278.1936,0.297447
3279.1255,0.296140
3280.0573,0.295472
3280.9891,0.294289
3281.9210,0.293088
3282.8528,0.293623
3283.7846,0.295491
3284.7165,0.296667
3285.6483,0.295782
3286.5801,0.294283
3287.5120,0.295304
3288.4438,0.296316
3289.3756,0.295552
3290.3075,0.296042
3291.2393,0.297903
3292.1711,0.297623
3293.1030,0.295677
3294.0348,0.293884
3294.9666,0.294372
3295.8985,0.294749
3296.8303,0.295372
3297.7622,0.297330
3298.6940,0.298270
3299.6258,0.296615
3300.5577,0.294720
3301.4895,0.295767
3302.4213,0.297426
3303.3532,0.296458
3304.2850,0.296889
3305.2168,0.297837
3306.1487,0.296334
3307.0805,0.296246
3308.0123,0.297155
3308.9442,0.294889
3309.8760,0.294613
3310.8078,0.296443
3311.7397,0.296720
3312.6715,0.296667
3313.6033,0.296010
3314.5352,0.296962
3315.4670,0.299432
3316.3988,0.297059
3317.3307,0.295838
3318.2625,0.298474
3319.1943,0.299393
3320.1262,0.298717
3321.0580,0.298678
3321.9898,0.299096
3322.9217,0.298744
3323.8535,0.298035
3324.7854,0.298030
3325.7172,0.298322
3326.6490,0.298713
3327.5809,0.298186
3328.5127,0.297046
3329.4445,0.295668
3330.3764,0.296472
3331.3082,0.297921
3332.2400,0.298286
3333.1719,0.298046
3334.1037,0.297754
3335.0355,0.296590
3335.9674,0.297078
3336.8992,0.297945
3337.8310,0.297960
3338.7629,0.300385
3339.6947,0.302441
3340.6265,0.301483
3341.5584,0.301441
3342.4902,0.300421
3343.4220,0.297661
3344.3539,0.297048
3345.2857,0.297983
3346.2175,0.298178
3347.1494,0.298686
3348.0812,0.299754
3349.0130,0.299166
3349.9449,0.296983
3350.8767,0.297959
3351.8086,0.300733
3352.7404,0.300029
3353.6722,0.297089
3354.6041,0.295447
3355.5359,0.296936
3356.4677,0.300107
3357.3996,0.299517
3358.3314,0.297127
3359.2632,0.297077
3360.1951,0.296597
3361.1269,0.296743
3362.0587,0.297247
3362.9906,0.295785
3363.9224,0.295863
3364.8542,0.296559
3365.7861,0.296575
3366.7179,0.297082
3367.6497,0.297421
3368.5816,0.296990
3369.5134,0.294370
3370.4452,0.292899
3371.3771,0.294852
3372.3089,0.296272
3373.2407,0.294617
3374.1726,0.291408
3375.1044,0.291358
3376.0362,0.291727
3376.9681,0.290290
3377.8999,0.291619
3378.8317,0.293005
3379.7636,0.291672
3380.6954,0.290189
3381.6273,0.290374
3382.5591,0.291261
3383.4909,0.290465
3384.4228,0.288831
3385.3546,0.288271
3386.2864,0.288131
3387.2183,0.288136
3388.1501,0.288826
3389.0819,0.289052
3390.0138,0.288400
3390.9456,0.286379
3391.8774,0.283776
3392.8093,0.282234
3393.7411,0.280448
3394.6729,0.280391
3395.6048,0.280735
3396.5366,0.280811
3397.4684,0.280771
3398.4003,0.279921
3399.3321,0.279539
3400.2639,0.279198
3401.1958,0.278315
3402.1276,0.276964
3403.0594,0.274832
3403.9913,0.272761
3404.9231,0.272542
3405.8549,0.272332
3406.7868,0.270704
3407.7186,0.270080
3408.6505,0.267508
3409.5823,0.266401
3410.5141,0.270612
3411.4460,0.273006
3412.3778,0.271459
3413.3096,0.268682
3414.2415,0.266021
3415.1733,0.265166
3416.1051,0.263549
3417.0370,0.260914
3417.9688,0.260191
3418.9006,0.261351
3419.8325,0.260735
3420.7643,0.261105
3421.6961,0.262451
3422.6280,0.260986
3423.5598,0.257464
3424.4916,0.256230
3425.4235,0.256600
3426.3553,0.255882
3427.2871,0.254189
3428.2190,0.253877
3429.1508,0.252200
3430.0826,0.250285
3431.0145,0.249816
3431.9463,0.248815
3432.8781,0.247231
3433.8100,0.246960
3434.7418,0.245187
3435.6737,0.241696
3436.6055,0.240531
3437.5373,0.242514
3438.4692,0.242460
3439.4010,0.240585
3440.3328,0.239865
3441.2647,0.238969
3442.1965,0.238048
3443.1283,0.238351
3444.0602,0.234965
3444.9920,0.231535
3445.9238,0.230401
3446.8557,0.231114
3447.7875,0.233395
3448.7193,0.232929
3449.6512,0.231058
3450.5830,0.228809
3451.5148,0.226914
3452.4467,0.225988
3453.3785,0.224247
3454.3103,0.224111
3455.2422,0.222991
3456.1740,0.220496
3457.1058,0.220090
3458.0377,0.219766
3458.9695,0.218438
3459.9013,0.217038
3460.8332,0.216542
3461.7650,0.219567
3462.6969,0.221476
3463.6287,0.218649
3464.5605,0.211961
3465.4924,0.209747
3466.4242,0.211562
3467.3560,0.211942
3468.2879,0.208985
3469.2197,0.205227
3470.1515,0.202472
3471.0834,0.200669
3472.0152,0.199524
3472.9470,0.200653
3473.8789,0.202132
3474.8107,0.203097
3475.7425,0.203464
3476.6744,0.200919
3477.6062,0.198065
3478.5380,0.196619
3479.4699,0.195370
3480.4017,0.193100
3481.3335,0.191496
3482.2654,0.191459
3483.1972,0.189957
3484.1290,0.190271
3485.0609,0.193153
3485.9927,0.194354
3486.9245,0.191594
3487.8564,0.187300
3488.7882,0.185978
3489.7201,0.185199
3490.6519,0.183559
3491.5837,0.182619
3492.5156,0.179121
3493.4474,0.178327
3494.3792,0.179457
3495.3111,0.176725
3496.2429,0.174102
3497.1747,0.176831
3498.1066,0.178265
3499.0384,0.176698
3499.9702,0.173253
3500.9021,0.172161
3501.8339,0.171460
3502.7657,0.169288
3503.6976,0.167613
3504.6294,0.167882
3505.5612,0.168502
3506.4931,0.169746
3507.4249,0.166483
3508.3567,0.161080
3509.2886,0.159712
3510.2204,0.161117
3511.1522,0.163179
3512.0841,0.163189
3513.0159,0.161239
3513.9477,0.160774
3514.8796,0.160743
3515.8114,0.158608
3516.7432,0.154767
3517.6751,0.152589
3518.6069,0.149881
3519.5388,0.150562
3520.4706,0.152284
3521.4024,0.150234
3522.3343,0.147147
3523.2661,0.145590
3524.1979,0.146679
3525.1298,0.149252
3526.0616,0.147784
3526.9934,0.143061
3527.9253,0.143322
3528.8571,0.145723
3529.7889,0.144833
3530.7208,0.142342
3531.6526,0.139255
3532.5844,0.137812
3533.5163,0.138449
3534.4481,0.139416
3535.3799,0.138435
3536.3118,0.135729
3537.2436,0.133073
3538.1754,0.132880
3539.1073,0.131615
3540.0391,0.130837
3540.9709,0.130743
3541.9028,0.128965
3542.8346,0.127836
3543.7664,0.128275
3544.6983,0.127945
3545.6301,0.125486
3546.5620,0.123588
3547.4938,0.124518
3548.4256,0.123058
3549.3575,0.120117
3550.2893,0.120516
3551.2211,0.120754
3552.1530,0.119209
3553.0848,0.118966
3554.0166,0.117957
3554.9485,0.117273
3555.8803,0.116444
3556.8121,0.113948
3557.7440,0.111771
3558.6758,0.109865
3559.6076,0.107275
3560.5395,0.106598
3561.4713,0.107707
3562.4031,0.109525
3563.3350,0.109004
3564.2668,0.105822
3565.1986,0.103689
3566.1305,0.104701
3567.0623,0.106202
3567.9941,0.106956
3568.9260,0.104389
3569.8578,0.103261
3570.7896,0.104743
3571.7215,0.105820
3572.6533,0.103105
3573.5852,0.099744
3574.5170,0.097294
3575.4488,0.096079
3576.3807,0.095119
3577.3125,0.094198
3578.2443,0.091842
3579.1762,0.091292
3580.1080,0.091776
3581.0398,0.089890
3581.9717,0.087837
3582.9035,0.088583
3583.8353,0.089814
3584.7672,0.088802
3585.6990,0.087386
3586.6308,0.087562
3587.5627,0.086988
3588.4945,0.084400
3589.4263,0.082606
3590.3582,0.084280
3591.2900,0.085528
3592.2218,0.083244
3593.1537,0.082062
3594.0855,0.082161
3595.0173,0.081327
3595.9492,0.080544
3596.8810,0.078171
3597.8128,0.076662
3598.7447,0.077389
3599.6765,0.077672
3600.6084,0.077040
3601.5402,0.076242
3602.4720,0.074772
3603.4039,0.071665
3604.3357,0.069611
3605.2675,0.070403
3606.1994,0.070037
3607.1312,0.069950
3608.0630,0.069404
3608.9949,0.067384
3609.9267,0.068385
3610.8585,0.070049
3611.7904,0.067749
3612.7222,0.065328
3613.6540,0.065648
3614.5859,0.067250
3615.5177,0.066493
3616.4495,0.064130
3617.3814,0.062616
3618.3132,0.062043
3619.2450,0.061037
3620.1769,0.058980
3621.1087,0.058870
3622.0405,0.059576
3622.9724,0.057161
3623.9042,0.057303
3624.8360,0.057341
3625.7679,0.056481
3626.6997,0.055807
3627.6316,0.055777
3628.5634,0.054598
3629.4952,0.052851
3630.4271,0.052655
3631.3589,0.052120
3632.2907,0.050726
3633.2226,0.050872
3634.1544,0.051536
3635.0862,0.052365
3636.0181,0.051383
3636.9499,0.048437
3637.8817,0.047426
3638.8136,0.048453
3639.7454,0.048243
3640.6772,0.046131
3641.6091,0.045135
3642.5409,0.045806
3643.4727,0.045441
3644.4046,0.043475
3645.3364,0.042473
3646.2682,0.041961
3647.2001,0.041021
3648.1319,0.041213
3649.0637,0.040861
3649.9956,0.039653
3650.9274,0.039515
3651.8592,0.038581
3652.7911,0.036949
3653.7229,0.036372
3654.6547,0.036159
3655.5866,0.034745
3656.5184,0.034016
3657.4503,0.034447
3658.3821,0.035363
3659.3139,0.034303
3660.2458,0.031239
3661.1776,0.030891
3662.1094,0.031681
3663.0413,0.031009
3663.9731,0.029085
3664.9049,0.028440
3665.8368,0.027613
3666.7686,0.027549
3667.7004,0.027393
3668.6323,0.026364
3669.5641,0.025863
3670.4959,0.025505
3671.4278,0.023106
3672.3596,0.021947
3673.2914,0.022754
3674.2233,0.021359
3675.1551,0.019643
3676.0869,0.019826
3677.0188,0.019751
3677.9506,0.019967
3678.8824,0.020626
3679.8143,0.020658
3680.7461,0.019017
3681.6779,0.017457
3682.6098,0.015882
3683.5416,0.015147
3684.4735,0.015580
3685.4053,0.014916
3686.3371,0.013462
3687.2690,0.013083
3688.2008,0.013166
3689.1326,0.012998
3690.0645,0.013075
3690.9963,0.011219
3691.9281,0.009646
3692.8600,0.011821
3693.7918,0.012125
3694.7236,0.010667
3695.6555,0.010250
3696.5873,0.010855
3697.5191,0.010945
3698.4510,0.010648
3699.3828,0.010705
3700.3146,0.009218
3701.2465,0.007663
3702.1783,0.006640
3703.1101,0.006094
3704.0420,0.006558
3704.9738,0.006996
3705.9056,0.007221
3706.8375,0.007709
3707.7693,0.006928
3708.7011,0.006543
3709.6330,0.005776
3710.5648,0.004893
3711.4967,0.005664
3712.4285,0.005306
3713.3603,0.005613
3714.2922,0.006327
3715.2240,0.005273
3716.1558,0.004776
3717.0877,0.005038
3718.0195,0.004895
3718.9513,0.004382
3719.8832,0.004872
3720.8150,0.004697
3721.7468,0.004706
3722.6787,0.004896
3723.6105,0.004820
3724.5423,0.003740
3725.4742,0.001548
3726.4060,0.002501
3727.3378,0.005074
3728.2697,0.005662
3729.2015,0.005265
3730.1333,0.003609
3731.0652,0.002489
3731.9970,0.003062
3732.9288,0.003427
3733.8607,0.003882
3734.7925,0.003998
3735.7243,0.003809
3736.6562,0.004014
3737.5880,0.002902
3738.5199,0.001497
3739.4517,0.000757
3740.3835,0.001814
3741.3154,0.001610
3742.2472,0.002376
3743.1790,0.003089
3744.1109,0.001813
3745.0427,0.001847
3745.9745,0.001743
3746.9064,0.000762
3747.8382,0.003705
3748.7700,0.003688
3749.7019,0.002448
3750.6337,0.003007
3751.5655,0.002737
3752.4974,0.002112
3753.4292,0.001701
3754.3610,0.001548
3755.2929,0.002844
3756.2247,0.002906
3757.1565,0.002634
3758.0884,0.003418
3759.0202,0.002666
3759.9520,0.002465
3760.8839,0.002317
3761.8157,0.000926
3762.7475,0.001506
3763.6794,0.002398
3764.6112,0.002487
3765.5431,0.002536
3766.4749,0.001467
3767.4067,0.001750
3768.3386,0.002198
3769.2704,0.002858
3770.2022,0.002351
3771.1341,0.001668
3772.0659,0.002344
3772.9977,0.002554
3773.9296,0.002741
3774.8614,0.001983
3775.7932,0.001961
3776.7251,0.002005
3777.6569,0.001794
3778.5887,0.002350
3779.5206,0.002058
3780.4524,0.002215
3781.3842,0.002067
3782.3161,0.001334
3783.2479,0.001781
3784.1797,0.002112
3785.1116,0.002745
3786.0434,0.002565
3786.9752,0.001874
3787.9071,0.002155
3788.8389,0.002375
3789.7707,0.002944
3790.7026,0.003684
3791.6344,0.003387
3792.5662,0.002646
3793.4981,0.001923
3794.4299,0.002170
3795.3618,0.002007
3796.2936,0.001249
3797.2254,0.001134
3798.1573,0.002567
3799.0891,0.002527
3800.0209,0.000740
3800.9528,0.001024
3801.8846,0.001763
3802.8164,0.001534
3803.7483,0.002100
3804.6801,0.002960
3805.6119,0.003213
3806.5438,0.002312
3807.4756,0.001178
3808.4074,0.000921
3809.3393,0.001301
3810.2711,0.001284
3811.2029,0.001904
3812.1348,0.002535
3813.0666,0.002294
3813.9984,0.002114
3814.9303,0.002144
3815.8621,0.002152
3816.7939,0.001931
3817.7258,0.000741
3818.6576,0.000599
3819.5894,0.001331
3820.5213,0.002854
3821.4531,0.003029
3822.3850,0.001091
3823.3168,-0.000155
3824.2486,0.000877
3825.1805,0.001714
3826.1123,0.002455
3827.0441,0.001698
3827.9760,0.000400
3828.9078,0.000716
3829.8396,0.001668
3830.7715,0.001387
3831.7033,0.001089
3832.6351,0.000870
3833.5670,0.000453
3834.4988,0.001410
3835.4306,0.001515
3836.3625,0.001417
3837.2943,0.000209
3838.2261,-0.000573
3839.1580,0.000617
3840.0898,0.001329
3841.0216,0.001505
3841.9535,0.000788
3842.8853,-0.000336
3843.8171,0.000829
3844.7490,0.002203
3845.6808,0.002789
3846.6126,0.002458
3847.5445,0.001692
3848.4763,0.001482
3849.4082,0.002192
3850.3400,0.001583
3851.2718,0.000734
3852.2037,0.000791
3853.1355,0.001303
3854.0673,0.000642
3854.9992,-0.001394
3855.9310,-0.003137
3856.8628,-0.001322
3857.7947,0.002620
3858.7265,0.002705
3859.6583,0.002027
3860.5902,0.003213
3861.5220,0.002232
3862.4538,0.000138
3863.3857,0.000870
3864.3175,0.001089
3865.2493,-0.000364
3866.1812,0.000733
3867.1130,0.001783
3868.0448,0.000941
3868.9767,0.001663
3869.9085,0.001728
3870.8403,0.000679
3871.7722,0.000398
3872.7040,0.001215
3873.6358,0.001320
3874.5677,0.001783
3875.4995,0.001969
3876.4314,0.001769
3877.3632,0.001672
3878.2950,0.002854
3879.2269,0.004018
3880.1587,0.003483
3881.0905,0.001710
3882.0224,0.000400
3882.9542,0.000836
3883.8860,0.001095
3884.8179,0.001769
3885.7497,0.001422
3886.6815,0.001088
3887.6134,0.002512
3888.5452,0.002178
3889.4770,0.001580
3890.4089,0.002078
3891.3407,0.002465
3892.2725,0.001930
3893.2044,0.000595
3894.1362,0.000434
3895.0680,0.000416
3895.9999,0.001340
3896.9317,0.002099
3897.8635,0.001823
3898.7954,0.002067
3899.7272,0.001109
3900.6590,0.000235
3901.5909,0.000863
3902.5227,0.000708
3903.4546,0.000858
3904.3864,0.001100
3905.3182,0.002041
3906.2501,0.001700
3907.1819,0.000641
3908.1137,0.001554
3909.0456,0.003439
3909.9774,0.003223
3910.9092,0.001884
3911.8411,0.001731
3912.7729,0.002353
3913.7047,0.002290
3914.6366,0.001731
3915.5684,0.001316
3916.5002,0.001255
3917.4321,0.001133
3918.3639,-0.000010
3919.2957,0.000280
3920.2276,0.001401
3921.1594,0.001550
3922.0912,0.001674
3923.0231,0.002809
3923.9549,0.003207
3924.8867,0.002043
3925.8186,0.001539
3926.7504,0.001199
3927.6822,0.000132
3928.6141,0.000654
3929.5459,0.002553
3930.4777,0.002685
3931.4096,0.000916
3932.3414,0.000862
3933.2733,0.001663
3934.2051,0.001877
3935.1369,0.001092
3936.0688,0.000548
3937.0006,0.001292
3937.9324,0.002062
3938.8643,0.001754
3939.7961,0.000959
3940.7279,0.001223
3941.6598,0.001816
3942.5916,0.002097
3943.5234,0.002582
3944.4553,0.002152
3945.3871,0.002118
3946.3189,0.003382
3947.2508,0.004159
3948.1826,0.002832
3949.1144,0.002179
3950.0463,0.002030
3950.9781,0.001429
3951.9099,0.001063
3952.8418,0.001175
3953.7736,0.001595
3954.7054,0.002229
3955.6373,0.002658
3956.5691,0.002582
3957.5009,0.003265
3958.4328,0.003072
3959.3646,0.001747
3960.2965,0.001043
3961.2283,0.001119
3962.1601,0.001100
3963.0920,0.000958
3964.0238,0.001673
3964.9556,0.001908
3965.8875,0.001783
3966.8193,0.002193
3967.7511,0.001688
3968.6830,0.001076
3969.6148,0.002197
3970.5466,0.002944
3971.4785,0.003335
3972.4103,0.003241
3973.3421,0.001931
3974.2740,0.001328
3975.2058,0.002128
3976.1376,0.002778
3977.0695,0.002139
3978.0013,0.002505
3978.9331,0.002525
3979.8650,0.002090
3980.7968,0.002275
3981.7286,0.002224
3982.6605,0.002117
3983.5923,0.001317
3984.5241,0.001472
3985.4560,0.001796
3986.3878,0.002536
3987.3197,0.003262
3988.2515,0.002922
3989.1833,0.002192
3990.1152,0.001644
3991.0470,0.001954
3991.9788,0.002717
3992.9107,0.001853
3993.8425,0.000985
3994.7743,0.001392
3995.7062,0.000926
3996.6380,0.000453
3997.5698,0.001368
3998.5017,0.002462
3999.4335,0.002730
4000.3653,0.002847
