Wavenumber,Intensity
650.4205,0.384601
651.3523,0.374841
652.2841,0.370159
653.2160,0.374219
654.1478,0.368318
655.0796,0.379438
656.0115,0.389445
656.9433,0.388748
657.8751,0.383160
658.8070,0.373237
659.7388,0.365055
660.6706,0.365703
661.6025,0.368511
662.5343,0.365743
663.4661,0.361153
664.3980,0.362211
665.3298,0.363672
666.2616,0.364222
667.1935,0.356795
668.1253,0.367778
669.0571,0.391188
669.9890,0.382785
670.9208,0.363591
671.8526,0.351440
672.7845,0.353653
673.7163,0.361903
674.6481,0.359199
675.5800,0.355553
676.5118,0.353707
677.4437,0.353524
678.3755,0.350624
679.3073,0.352362
680.2392,0.350081
681.1710,0.348669
682.1028,0.348862
683.0347,0.345218
683.9665,0.344934
684.8983,0.349828
685.8302,0.346485
686.7620,0.345040
687.6938,0.343592
688.6257,0.341238
689.5575,0.340978
690.4893,0.340896
691.4212,0.336176
692.3530,0.334373
693.2848,0.333656
694.2167,0.328013
695.1485,0.326666
696.0803,0.331285
697.0122,0.327399
697.9440,0.324571
698.8758,0.323129
699.8077,0.321805
700.7395,0.323554
701.6713,0.324267
702.6032,0.322242
703.5350,0.321297
704.4669,0.317595
705.3987,0.315178
706.3305,0.315283
707.2624,0.313767
708.1942,0.310964
709.1260,0.312719
710.0579,0.312711
710.9897,0.313236
711.9215,0.309004
712.8534,0.304551
713.7852,0.304942
714.7170,0.303097
715.6489,0.299947
716.5807,0.301987
717.5125,0.301642
718.4444,0.298894
719.3762,0.295444
720.3080,0.295203
721.2399,0.296009
722.1717,0.293264
723.1035,0.288532
724.0354,0.288080
724.9672,0.288833
725.8990,0.289727
726.8309,0.288628
727.7627,0.286285
728.6945,0.286036
729.6264,0.286447
730.5582,0.282024
731.4901,0.281677
732.4219,0.282985
733.3537,0.279629
734.2856,0.277659
735.2174,0.277740
736.1492,0.275960
737.0811,0.273461
738.0129,0.271906
738.9447,0.272213
739.8766,0.271491
740.8084,0.269862
741.7402,0.267812
742.6721,0.266417
743.6039,0.265871
744.5357,0.263914
745.4676,0.262131
746.3994,0.260425
747.3312,0.256712
748.2631,0.255715
749.1949,0.256630
750.1267,0.255621
751.0586,0.252551
751.9904,0.251214
752.9222,0.251051
753.8541,0.251893
754.7859,0.251007
755.7177,0.247673
756.6496,0.244934
757.5814,0.243455
758.5132,0.240542
759.4451,0.239314
760.3769,0.240247
761.3088,0.239575
762.2406,0.238600
763.1724,0.240014
764.1043,0.238533
765.0361,0.236587
765.9679,0.234855
766.8998,0.234162
767.8316,0.234184
768.7634,0.233106
769.6953,0.231008
770.6271,0.229293
771.5589,0.226121
772.4908,0.223758
773.4226,0.223897
774.3544,0.223183
775.2863,0.221728
776.2181,0.221357
777.1499,0.219256
778.0818,0.217275
779.0136,0.214998
779.9454,0.214048
780.8773,0.213259
781.8091,0.212349
782.7409,0.210863
783.6728,0.210590
784.6046,0.210001
785.5364,0.207742
786.4683,0.205494
787.4001,0.203989
788.3320,0.202668
789.2638,0.202714
790.1956,0.201061
791.1275,0.198972
792.0593,0.198301
792.9911,0.197189
793.9230,0.196121
794.8548,0.195968
795.7866,0.195149
796.7185,0.193392
797.6503,0.192273
798.5821,0.191571
799.5140,0.190521
800.4458,0.188981
801.3776,0.188429
802.3095,0.187305
803.2413,0.186201
804.1731,0.185714
805.1050,0.183794
806.0368,0.182962
806.9686,0.180573
807.9005,0.178562
808.8323,0.177486
809.7641,0.176050
810.6960,0.174193
811.6278,0.173271
812.5596,0.172045
813.4915,0.171093
814.4233,0.171145
815.3552,0.170461
816.2870,0.168568
817.2188,0.166811
818.1507,0.165327
819.0825,0.163826
820.0143,0.162119
820.9462,0.161294
821.8780,0.160123
822.8098,0.158440
823.7417,0.157204
824.6735,0.156200
825.6053,0.154490
826.5372,0.153442
827.4690,0.153337
828.4008,0.152334
829.3327,0.152004
830.2645,0.151605
831.1963,0.149886
832.1282,0.147569
833.0600,0.146520
833.9918,0.146422
834.9237,0.146614
835.8555,0.145544
836.7873,0.143302
837.7192,0.141447
838.6510,0.139820
839.5828,0.139708
840.5147,0.139896
841.4465,0.138466
842.3784,0.136614
843.3102,0.136068
844.2420,0.135692
845.1739,0.135178
846.1057,0.133606
847.0375,0.132336
847.9694,0.131777
848.9012,0.131130
849.8330,0.130547
850.7649,0.129689
851.6967,0.128616
852.6285,0.127345
853.5604,0.126033
854.4922,0.125770
855.4240,0.125674
856.3559,0.125550
857.2877,0.124565
858.2195,0.123477
859.1514,0.123490
860.0832,0.123232
861.0150,0.122141
861.9469,0.122124
862.8787,0.122708
863.8105,0.122962
864.7424,0.122899
865.6742,0.122968
866.6060,0.123526
867.5379,0.124730
868.4697,0.126191
869.4016,0.128295
870.3334,0.131198
871.2652,0.133962
872.1971,0.136652
873.1289,0.140289
874.0607,0.144721
874.9926,0.149485
875.9244,0.153219
876.8562,0.155723
877.7881,0.156491
878.7199,0.154958
879.6517,0.152605
880.5836,0.148310
881.5154,0.142102
882.4472,0.136044
883.3791,0.129879
884.3109,0.123572
885.2427,0.117457
886.1746,0.112694
887.1064,0.108011
888.0382,0.103665
888.9701,0.100734
889.9019,0.098501
890.8337,0.096144
891.7656,0.094323
892.6974,0.092841
893.6292,0.091296
894.5611,0.089729
895.4929,0.088651
896.4247,0.087519
897.3566,0.086468
898.2884,0.085659
899.2203,0.084774
900.1521,0.083544
901.0839,0.082831
902.0158,0.082216
902.9476,0.081342
903.8794,0.080459
904.8113,0.080006
905.7431,0.079434
906.6749,0.078863
907.6068,0.078220
908.5386,0.077326
909.4704,0.076846
910.4023,0.076351
911.3341,0.075629
912.2659,0.075192
913.1978,0.074637
914.1296,0.073591
915.0614,0.073099
915.9933,0.073335
916.9251,0.073048
917.8569,0.072176
918.7888,0.071589
919.7206,0.071104
920.6524,0.070624
921.5843,0.069850
922.5161,0.069657
923.4479,0.069639
924.3798,0.068627
925.3116,0.068070
926.2435,0.068061
927.1753,0.067869
928.1071,0.067181
929.0390,0.066540
929.9708,0.066324
930.9026,0.066182
931.8345,0.066154
932.7663,0.065681
933.6981,0.064695
934.6300,0.064353
935.5618,0.064722
936.4936,0.064273
937.4255,0.063630
938.3573,0.063409
939.2891,0.062857
940.2210,0.062280
941.1528,0.061705
942.0846,0.061369
943.0165,0.061244
943.9483,0.061259
944.8801,0.060995
945.8120,0.060582
946.7438,0.060698
947.6756,0.060212
948.6075,0.059788
949.5393,0.059743
950.4711,0.059434
951.4030,0.059364
952.3348,0.059044
953.2667,0.058694
954.1985,0.058774
955.1303,0.058528
956.0622,0.058131
956.9940,0.057873
957.9258,0.058167
958.8577,0.058118
959.7895,0.057665
960.7213,0.057338
961.6532,0.057150
962.5850,0.056692
963.5168,0.056260
964.4487,0.056248
965.3805,0.056238
966.3123,0.056359
967.2442,0.056340
968.1760,0.055938
969.1078,0.055831
970.0397,0.055940
970.9715,0.055627
971.9033,0.055282
972.8352,0.055220
973.7670,0.055120
974.6988,0.055077
975.6307,0.054923
976.5625,0.054499
977.4943,0.054500
978.4262,0.054814
979.3580,0.054805
980.2899,0.054593
981.2217,0.054403
982.1535,0.054390
983.0854,0.054075
984.0172,0.053935
984.9490,0.054319
985.8809,0.054383
986.8127,0.053964
987.7445,0.053997
988.6764,0.054120
989.6082,0.054180
990.5400,0.054439
991.4719,0.054386
992.4037,0.054149
993.3355,0.054303
994.2674,0.054542
995.1992,0.054345
996.1310,0.054130
997.0629,0.054308
997.9947,0.054433
998.9265,0.054825
999.8584,0.055099
1000.7902,0.055047
1001.7220,0.054975
1002.6539,0.055218
1003.5857,0.055608
1004.5175,0.056141
1005.4494,0.056465
1006.3812,0.056567
1007.3131,0.056564
1008.2449,0.056914
1009.1767,0.057720
1010.1086,0.058030
1011.0404,0.058229
1011.9722,0.058415
1012.9041,0.058978
1013.8359,0.059758
1014.7677,0.060440
1015.6996,0.061251
1016.6314,0.062031
1017.5632,0.062922
1018.4951,0.063872
1019.4269,0.065085
1020.3587,0.066400
1021.2906,0.067797
1022.2224,0.069612
1023.1542,0.071431
1024.0861,0.073250
1025.0179,0.075191
1025.9497,0.077486
1026.8816,0.080217
1027.8134,0.083163
1028.7452,0.086585
1029.6771,0.090463
1030.6089,0.094656
1031.5407,0.099605
1032.4726,0.105335
1033.4044,0.112218
1034.3362,0.120249
1035.2681,0.129537
1036.1999,0.139912
1037.1318,0.151231
1038.0636,0.163584
1038.9954,0.176697
1039.9273,0.190054
1040.8591,0.202790
1041.7909,0.214263
1042.7228,0.222985
1043.6546,0.228368
1044.5864,0.229602
1045.5183,0.226087
1046.4501,0.218716
1047.3819,0.208341
1048.3138,0.195634
1049.2456,0.181791
1050.1774,0.167257
1051.1093,0.152607
1052.0411,0.138961
1052.9729,0.126773
1053.9048,0.115513
1054.8366,0.105472
1055.7684,0.096894
1056.7003,0.089979
1057.6321,0.084362
1058.5639,0.079644
1059.4958,0.075906
1060.4276,0.072812
1061.3594,0.070337
1062.2913,0.068774
1063.2231,0.067872
1064.1550,0.067189
1065.0868,0.066445
1066.0186,0.066112
1066.9505,0.066336
1067.8823,0.066787
1068.8141,0.067268
1069.7460,0.068080
1070.6778,0.069237
1071.6096,0.070584
1072.5415,0.072116
1073.4733,0.073984
1074.4051,0.076007
1075.3370,0.078307
1076.2688,0.081036
1077.2006,0.083672
1078.1325,0.085852
1079.0643,0.088161
1079.9961,0.090961
1080.9280,0.093718
1081.8598,0.095805
1082.7916,0.097689
1083.7235,0.099354
1084.6553,0.100311
1085.5871,0.100616
1086.5190,0.100033
1087.4508,0.098688
1088.3826,0.096630
1089.3145,0.094207
1090.2463,0.091250
1091.1782,0.087479
1092.1100,0.083516
1093.0418,0.079665
1093.9737,0.076014
1094.9055,0.072465
1095.8373,0.068915
1096.7692,0.065696
1097.7010,0.062840
1098.6328,0.060375
1099.5647,0.058245
1100.4965,0.056256
1101.4283,0.054617
1102.3602,0.053295
1103.2920,0.051927
1104.2238,0.050723
1105.1557,0.049910
1106.0875,0.049086
1107.0193,0.048199
1107.9512,0.047591
1108.8830,0.047137
1109.8148,0.046696
1110.7467,0.046379
1111.6785,0.046151
1112.6103,0.045867
1113.5422,0.045613
1114.4740,0.045348
1115.4058,0.045035
1116.3377,0.044835
1117.2695,0.044842
1118.2014,0.044883
1119.1332,0.044784
1120.0650,0.044567
1120.9969,0.044629
1121.9287,0.044707
1122.8605,0.044626
1123.7924,0.044701
1124.7242,0.044899
1125.6560,0.044920
1126.5879,0.044605
1127.5197,0.044300
1128.4515,0.044234
1129.3834,0.044402
1130.3152,0.044413
1131.2470,0.044156
1132.1789,0.044188
1133.1107,0.044144
1134.0425,0.043801
1134.9744,0.043841
1135.9062,0.043901
1136.8380,0.043559
1137.7699,0.043175
1138.7017,0.043138
1139.6335,0.043177
1140.5654,0.043015
1141.4972,0.042975
1142.4290,0.042986
1143.3609,0.042800
1144.2927,0.042707
1145.2246,0.042738
1146.1564,0.042581
1147.0882,0.042475
1148.0201,0.042699
1148.9519,0.042819
1149.8837,0.042744
1150.8156,0.042763
1151.7474,0.042647
1152.6792,0.042666
1153.6111,0.042903
1154.5429,0.043029
1155.4747,0.042824
1156.4066,0.042484
1157.3384,0.042320
1158.2702,0.042208
1159.2021,0.042237
1160.1339,0.042421
1161.0657,0.042498
1161.9976,0.042260
1162.9294,0.041850
1163.8612,0.041552
1164.7931,0.041259
1165.7249,0.041010
1166.6567,0.041129
1167.5886,0.041113
1168.5204,0.040814
1169.4522,0.040590
1170.3841,0.040619
1171.3159,0.040754
1172.2477,0.040858
1173.1796,0.040755
1174.1114,0.040444
1175.0433,0.040409
1175.9751,0.040565
1176.9069,0.040591
1177.8388,0.040536
1178.7706,0.040529
1179.7024,0.040531
1180.6343,0.040333
1181.5661,0.040336
1182.4979,0.040357
1183.4298,0.040192
1184.3616,0.040339
1185.2934,0.040530
1186.2253,0.040583
1187.1571,0.040401
1188.0889,0.040203
1189.0208,0.040295
1189.9526,0.040405
1190.8844,0.040571
1191.8163,0.040783
1192.7481,0.040737
1193.6799,0.040535
1194.6118,0.040508
1195.5436,0.040524
1196.4754,0.040583
1197.4073,0.040659
1198.3391,0.040556
1199.2709,0.040595
1200.2028,0.040704
1201.1346,0.040610
1202.0665,0.040575
1202.9983,0.040668
1203.9301,0.040709
1204.8620,0.040662
1205.7938,0.040599
1206.7256,0.040647
1207.6575,0.040725
1208.5893,0.040835
1209.5211,0.040882
1210.4530,0.040927
1211.3848,0.041010
1212.3166,0.041133
1213.2485,0.041135
1214.1803,0.041094
1215.1121,0.041003
1216.0440,0.040931
1216.9758,0.041034
1217.9076,0.041115
1218.8395,0.041199
1219.7713,0.041352
1220.7031,0.041334
1221.6350,0.041338
1222.5668,0.041379
1223.4986,0.041481
1224.4305,0.041600
1225.3623,0.041549
1226.2941,0.041518
1227.2260,0.041519
1228.1578,0.041539
1229.0897,0.041629
1230.0215,0.041770
1230.9533,0.041834
1231.8852,0.041864
1232.8170,0.042145
1233.7488,0.042113
1234.6807,0.041908
1235.6125,0.041988
1236.5443,0.042242
1237.4762,0.042339
1238.4080,0.042313
1239.3398,0.042630
1240.2717,0.043047
1241.2035,0.043044
1242.1353,0.042774
1243.0672,0.042540
1243.9990,0.042575
1244.9308,0.042871
1245.8627,0.043105
1246.7945,0.043364
1247.7263,0.043776
1248.6582,0.043921
1249.5900,0.043730
1250.5218,0.043657
1251.4537,0.043839
1252.3855,0.044190
1253.3173,0.044656
1254.2492,0.045039
1255.1810,0.045232
1256.1129,0.045378
1257.0447,0.045502
1257.9765,0.045652
1258.9084,0.045781
1259.8402,0.046001
1260.7720,0.046681
1261.7039,0.047375
1262.6357,0.047731
1263.5675,0.048172
1264.4994,0.048705
1265.4312,0.048969
1266.3630,0.049254
1267.2949,0.049883
1268.2267,0.050635
1269.1585,0.051137
1270.0904,0.051535
1271.0222,0.051857
1271.9540,0.052129
1272.8859,0.052496
1273.8177,0.052666
1274.7495,0.052474
1275.6814,0.052484
1276.6132,0.052590
1277.5450,0.052309
1278.4769,0.051809
1279.4087,0.051419
1280.3405,0.051189
1281.2724,0.050926
1282.2042,0.050475
1283.1361,0.050007
1284.0679,0.049812
1284.9997,0.049402
1285.9316,0.048946
1286.8634,0.048816
1287.7952,0.049062
1288.7271,0.049200
1289.6589,0.048889
1290.5907,0.048800
1291.5226,0.048986
1292.4544,0.048996
1293.3862,0.049112
1294.3181,0.049403
1295.2499,0.049475
1296.1817,0.049663
1297.1136,0.049896
1298.0454,0.050097
1298.9772,0.050391
1299.9091,0.050511
1300.8409,0.050510
1301.7727,0.050669
1302.7046,0.050817
1303.6364,0.051024
1304.5682,0.051434
1305.5001,0.051689
1306.4319,0.051731
1307.3637,0.051886
1308.2956,0.052178
1309.2274,0.052430
1310.1592,0.052472
1311.0911,0.052597
1312.0229,0.053045
1312.9548,0.053566
1313.8866,0.053652
1314.8184,0.053563
1315.7503,0.053893
1316.6821,0.054205
1317.6139,0.054273
1318.5458,0.054345
1319.4776,0.054727
1320.4094,0.055118
1321.3413,0.054972
1322.2731,0.054659
1323.2049,0.054700
1324.1368,0.054759
1325.0686,0.054774
1326.0004,0.054878
1326.9323,0.054952
1327.8641,0.054840
1328.7959,0.054644
1329.7278,0.054637
1330.6596,0.054597
1331.5914,0.054437
1332.5233,0.054209
1333.4551,0.053894
1334.3869,0.053790
1335.3188,0.053481
1336.2506,0.052992
1337.1824,0.052862
1338.1143,0.052619
1339.0461,0.052123
1339.9780,0.052085
1340.9098,0.052681
1341.8416,0.052959
1342.7735,0.052161
1343.7053,0.051137
1344.6371,0.050649
1345.5690,0.050491
1346.5008,0.050429
1347.4326,0.050209
1348.3645,0.049868
1349.2963,0.049342
1350.2281,0.049097
1351.1600,0.049293
1352.0918,0.049117
1353.0236,0.048921
1353.9555,0.049082
1354.8873,0.049024
1355.8191,0.048747
1356.7510,0.048433
1357.6828,0.048233
1358.6146,0.048188
1359.5465,0.047945
1360.4783,0.047440
1361.4101,0.047717
1362.3420,0.048850
1363.2738,0.049621
1364.2056,0.050256
1365.1375,0.050405
1366.0693,0.049954
1367.0012,0.049676
1367.9330,0.049836
1368.8648,0.050466
1369.7967,0.051510
1370.7285,0.052246
1371.6603,0.052735
1372.5922,0.053494
1373.5240,0.054495
1374.4558,0.056405
1375.3877,0.058774
1376.3195,0.059899
1377.2513,0.060077
1378.1832,0.060366
1379.1150,0.060950
1380.0468,0.061334
1380.9787,0.061819
1381.9105,0.062325
1382.8423,0.062565
1383.7742,0.062724
1384.7060,0.062698
1385.6378,0.062582
1386.5697,0.062545
1387.5015,0.062825
1388.4333,0.063602
1389.3652,0.063497
1390.2970,0.062101
1391.2288,0.061003
1392.1607,0.060504
1393.0925,0.059811
1394.0244,0.058991
1394.9562,0.059229
1395.8880,0.060485
1396.8199,0.060612
1397.7517,0.059966
1398.6835,0.059813
1399.6154,0.060727
1400.5472,0.061662
1401.4790,0.061088
1402.4109,0.060282
1403.3427,0.060021
1404.2745,0.060231
1405.2064,0.061126
1406.1382,0.062402
1407.0700,0.062231
1408.0019,0.061126
1408.9337,0.060995
1409.8655,0.061370
1410.7974,0.061568
1411.7292,0.061920
1412.6610,0.062123
1413.5929,0.061857
1414.5247,0.061400
1415.4565,0.061016
1416.3884,0.060722
1417.3202,0.060756
1418.2520,0.061013
1419.1839,0.061599
1420.1157,0.063657
1421.0476,0.064655
1421.9794,0.062732
1422.9112,0.060804
1423.8431,0.060187
1424.7749,0.060974
1425.7067,0.061177
1426.6386,0.060055
1427.5704,0.059101
1428.5022,0.058427
1429.4341,0.058080
1430.3659,0.058507
1431.2977,0.058797
1432.2296,0.057653
1433.1614,0.056305
1434.0932,0.055723
1435.0251,0.054981
1435.9569,0.054415
1436.8887,0.055419
1437.8206,0.057588
1438.7524,0.057059
1439.6842,0.055248
1440.6161,0.054713
1441.5479,0.054542
1442.4797,0.054221
1443.4116,0.054542
1444.3434,0.054897
1445.2752,0.055105
1446.2071,0.055442
1447.1389,0.055892
1448.0707,0.057220
1449.0026,0.059475
1449.9344,0.060343
1450.8663,0.059454
1451.7981,0.058975
1452.7299,0.059201
1453.6618,0.059205
1454.5936,0.058633
1455.5254,0.057848
1456.4573,0.057671
1457.3891,0.058741
1458.3209,0.059703
1459.2528,0.058230
1460.1846,0.055975
1461.1164,0.053471
1462.0483,0.051066
1462.9801,0.049651
1463.9119,0.048959
1464.8438,0.048570
1465.7756,0.049193
1466.7074,0.049233
1467.6393,0.047443
1468.5711,0.045719
1469.5029,0.044536
1470.4348,0.043639
1471.3666,0.043146
1472.2984,0.043690
1473.2303,0.045643
1474.1621,0.046543
1475.0939,0.046044
1476.0258,0.045692
1476.9576,0.045924
1477.8895,0.046569
1478.8213,0.045974
1479.7531,0.045441
1480.6850,0.045792
1481.6168,0.045979
1482.5486,0.046009
1483.4805,0.045924
1484.4123,0.045571
1485.3441,0.045109
1486.2760,0.044610
1487.2078,0.044485
1488.1396,0.044497
1489.0715,0.044509
1490.0033,0.044773
1490.9351,0.045123
1491.8670,0.044995
1492.7988,0.044245
1493.7306,0.043151
1494.6625,0.041929
1495.5943,0.041087
1496.5261,0.041142
1497.4580,0.042616
1498.3898,0.043404
1499.3216,0.042698
1500.2535,0.042420
1501.1853,0.041889
1502.1171,0.041020
1503.0490,0.040524
1503.9808,0.039883
1504.9127,0.039113
1505.8445,0.038939
1506.7763,0.039985
1507.7082,0.042938
1508.6400,0.044579
1509.5718,0.043570
1510.5037,0.042392
1511.4355,0.041446
1512.3673,0.040739
1513.2992,0.040675
1514.2310,0.040761
1515.1628,0.040368
1516.0947,0.040036
1517.0265,0.040354
1517.9583,0.041432
1518.8902,0.042143
1519.8220,0.040811
1520.7538,0.040174
1521.6857,0.042243
1522.6175,0.044419
1523.5493,0.043963
1524.4812,0.042385
1525.4130,0.041381
1526.3448,0.042297
1527.2767,0.043455
1528.2085,0.042901
1529.1403,0.042543
1530.0722,0.042467
1531.0040,0.041949
1531.9359,0.041591
1532.8677,0.041689
1533.7995,0.042426
1534.7314,0.043650
1535.6632,0.043339
1536.5950,0.041728
1537.5269,0.040623
1538.4587,0.039924
1539.3905,0.040135
1540.3224,0.041778
1541.2542,0.043758
1542.1860,0.045146
1543.1179,0.045938
1544.0497,0.045759
1544.9815,0.044883
1545.9134,0.044976
1546.8452,0.045551
1547.7770,0.044972
1548.7089,0.044250
1549.6407,0.044145
1550.5725,0.044890
1551.5044,0.046151
1552.4362,0.045910
1553.3680,0.044617
1554.2999,0.043690
1555.2317,0.044031
1556.1635,0.045134
1557.0954,0.044411
1558.0272,0.043571
1558.9591,0.045600
1559.8909,0.050170
1560.8227,0.053024
1561.7546,0.052478
1562.6864,0.050068
1563.6182,0.048657
1564.5501,0.048282
1565.4819,0.048654
1566.4137,0.049325
1567.3456,0.049280
1568.2774,0.049251
1569.2092,0.049501
1570.1411,0.050810
1571.0729,0.052758
1572.0047,0.052570
1572.9366,0.051561
1573.8684,0.051127
1574.8002,0.051409
1575.7321,0.052220
1576.6639,0.054677
1577.5957,0.058468
1578.5276,0.058381
1579.4594,0.056619
1580.3912,0.056429
1581.3231,0.057293
1582.2549,0.057955
1583.1867,0.058494
1584.1186,0.059097
1585.0504,0.059912
1585.9822,0.060995
1586.9141,0.062189
1587.8459,0.062687
1588.7778,0.062879
1589.7096,0.063915
1590.6414,0.065202
1591.5733,0.066231
1592.5051,0.067192
1593.4369,0.067763
1594.3688,0.068384
1595.3006,0.069941
1596.2324,0.071928
1597.1643,0.073347
1598.0961,0.074598
1599.0279,0.075738
1599.9598,0.076302
1600.8916,0.077136
1601.8234,0.078925
1602.7553,0.080855
1603.6871,0.082796
1604.6189,0.084711
1605.5508,0.086018
1606.4826,0.087007
1607.4144,0.088444
1608.3463,0.090417
1609.2781,0.092481
1610.2099,0.094597
1611.1418,0.096434
1612.0736,0.097213
1613.0054,0.098334
1613.9373,0.099842
1614.8691,0.101806
1615.8010,0.104532
1616.7328,0.107669
1617.6646,0.113216
1618.5965,0.117887
1619.5283,0.116719
1620.4601,0.116732
1621.3920,0.118218
1622.3238,0.119829
1623.2556,0.122581
1624.1875,0.127438
1625.1193,0.131694
1626.0511,0.131447
1626.9830,0.131167
1627.9148,0.133065
1628.8466,0.136456
1629.7785,0.138974
1630.7103,0.138208
1631.6421,0.137128
1632.5740,0.136884
1633.5058,0.137511
1634.4376,0.138485
1635.3695,0.139810
1636.3013,0.145988
1637.2331,0.153553
1638.1650,0.151747
1639.0968,0.149390
1640.0286,0.147114
1640.9605,0.144892
1641.8923,0.143642
1642.8242,0.143419
1643.7560,0.142947
1644.6878,0.141643
1645.6197,0.140790
1646.5515,0.142232
1647.4833,0.144719
1648.4152,0.144243
1649.3470,0.141234
1650.2788,0.138019
1651.2107,0.135207
1652.1425,0.133519
1653.0743,0.135299
1654.0062,0.144030
1654.9380,0.146216
1655.8698,0.139683
1656.8017,0.133440
1657.7335,0.129674
1658.6653,0.127844
1659.5972,0.126188
1660.5290,0.124602
1661.4608,0.122536
1662.3927,0.120376
1663.3245,0.119592
1664.2563,0.119496
1665.1882,0.116963
1666.1200,0.113725
1667.0518,0.111859
1667.9837,0.110014
1668.9155,0.108125
1669.8474,0.107109
1670.7792,0.106433
1671.7110,0.104966
1672.6429,0.103027
1673.5747,0.100636
1674.5065,0.098566
1675.4384,0.097116
1676.3702,0.096709
1677.3020,0.095150
1678.2339,0.091933
1679.1657,0.088747
1680.0975,0.086805
1681.0294,0.085372
1681.9612,0.083572
1682.8930,0.081673
1683.8249,0.080187
1684.7567,0.080117
1685.6885,0.080734
1686.6204,0.079289
1687.5522,0.076273
1688.4840,0.073531
1689.4159,0.071833
1690.3477,0.069863
1691.2795,0.068194
1692.2114,0.066550
1693.1432,0.064655
1694.0750,0.063136
1695.0069,0.061669
1695.9387,0.060626
1696.8706,0.060644
1697.8024,0.059478
1698.7342,0.057010
1699.6661,0.055382
1700.5979,0.054605
1701.5297,0.054953
1702.4616,0.054576
1703.3934,0.051690
1704.3252,0.049614
1705.2571,0.048902
1706.1889,0.048621
1707.1207,0.047813
1708.0526,0.046643
1708.9844,0.044942
1709.9162,0.043665
1710.8481,0.042538
1711.7799,0.041699
1712.7117,0.041206
1713.6436,0.040228
1714.5754,0.038560
1715.5072,0.037612
1716.4391,0.037805
1717.3709,0.036765
1718.3027,0.036212
1719.2346,0.037270
1720.1664,0.036420
1721.0982,0.034957
1722.0301,0.033430
1722.9619,0.032538
1723.8937,0.032205
1724.8256,0.031845
1725.7574,0.031167
1726.6893,0.030308
1727.6211,0.029823
1728.5529,0.029220
1729.4848,0.028195
1730.4166,0.027799
1731.3484,0.027770
1732.2803,0.027339
1733.2121,0.026611
1734.1439,0.026671
1735.0758,0.027393
1736.0076,0.026798
1736.9394,0.025467
1737.8713,0.024530
1738.8031,0.024237
1739.7349,0.024028
1740.6668,0.024039
1741.5986,0.024382
1742.5304,0.023962
1743.4623,0.023118
1744.3941,0.022480
1745.3259,0.022163
1746.2578,0.021596
1747.1896,0.021076
1748.1214,0.020748
1749.0533,0.020894
1749.9851,0.021247
1750.9169,0.021053
1751.8488,0.021059
1752.7806,0.021430
1753.7125,0.020785
1754.6443,0.019411
1755.5761,0.018895
1756.5080,0.019013
1757.4398,0.019356
1758.3716,0.019270
1759.3035,0.019301
1760.2353,0.018936
1761.1671,0.018298
1762.0990,0.017686
1763.0308,0.017393
1763.9626,0.017669
1764.8945,0.017547
1765.8263,0.017284
1766.7581,0.017063
1767.6900,0.017112
1768.6218,0.016716
1769.5536,0.016347
1770.4855,0.016056
1771.4173,0.015803
1772.3491,0.015570
1773.2810,0.015737
1774.2128,0.016611
1775.1446,0.016506
1776.0765,0.015572
1777.0083,0.014993
1777.9401,0.015200
1778.8720,0.015121
1779.8038,0.014886
1780.7357,0.014657
1781.6675,0.014451
1782.5993,0.014311
1783.5312,0.014171
1784.4630,0.014427
1785.3948,0.014628
1786.3267,0.014540
1787.2585,0.014329
1788.1903,0.013820
1789.1222,0.013683
1790.0540,0.013708
1790.9858,0.013361
1791.9177,0.012593
1792.8495,0.012531
1793.7813,0.013362
1794.7132,0.013887
1795.6450,0.013457
1796.5768,0.012920
1797.5087,0.012556
1798.4405,0.012256
1799.3723,0.012212
1800.3042,0.012741
1801.2360,0.012446
1802.1678,0.012230
1803.0997,0.012630
1804.0315,0.012877
1804.9633,0.012466
1805.8952,0.011691
1806.8270,0.011870
1807.7589,0.012153
1808.6907,0.012273
1809.6225,0.012240
1810.5544,0.011872
1811.4862,0.011552
1812.4180,0.011676
1813.3499,0.011476
1814.2817,0.011737
1815.2135,0.011963
1816.1454,0.011806
1817.0772,0.011470
1818.0090,0.011121
1818.9409,0.010876
1819.8727,0.010581
1820.8045,0.010403
1821.7364,0.010400
1822.6682,0.010529
1823.6000,0.011172
1824.5319,0.010688
1825.4637,0.009700
1826.3955,0.009701
1827.3274,0.010086
1828.2592,0.010466
1829.1910,0.010454
1830.1229,0.010445
1831.0547,0.011132
1831.9865,0.011131
1832.9184,0.010517
1833.8502,0.009668
1834.7821,0.009978
1835.7139,0.010457
1836.6457,0.010420
1837.5776,0.010574
1838.5094,0.010827
1839.4412,0.010687
1840.3731,0.010411
1841.3049,0.010062
1842.2367,0.009610
1843.1686,0.009599
1844.1004,0.009644
1845.0322,0.009252
1845.9641,0.009690
1846.8959,0.010171
1847.8277,0.010347
1848.7596,0.010084
1849.6914,0.009874
1850.6232,0.010170
1851.5551,0.010308
1852.4869,0.009881
1853.4187,0.009729
1854.3506,0.009508
1855.2824,0.009540
1856.2142,0.009479
1857.1461,0.009034
1858.0779,0.009192
1859.0097,0.009642
1859.9416,0.009349
1860.8734,0.008485
1861.8052,0.009217
1862.7371,0.010026
1863.6689,0.009217
1864.6008,0.009077
1865.5326,0.009132
1866.4644,0.008959
1867.3963,0.008961
1868.3281,0.008157
1869.2599,0.008618
1870.1918,0.009616
1871.1236,0.008471
1872.0554,0.007736
1872.9873,0.008925
1873.9191,0.009613
1874.8509,0.008418
1875.7828,0.008143
1876.7146,0.009144
1877.6464,0.009120
1878.5783,0.008763
1879.5101,0.009116
1880.4419,0.009425
1881.3738,0.008950
1882.3056,0.008586
1883.2374,0.009251
1884.1693,0.010213
1885.1011,0.009264
1886.0329,0.008400
1886.9648,0.008156
1887.8966,0.008454
1888.8284,0.009488
1889.7603,0.009623
1890.6921,0.009990
1891.6240,0.010254
1892.5558,0.009423
1893.4876,0.008702
1894.4195,0.008959
1895.3513,0.008868
1896.2831,0.009683
1897.2150,0.010445
1898.1468,0.010031
1899.0786,0.008911
1900.0105,0.007858
1900.9423,0.008287
1901.8741,0.008821
1902.8060,0.009211
1903.7378,0.010589
1904.6696,0.010592
1905.6015,0.009944
1906.5333,0.009559
1907.4651,0.009447
1908.3970,0.009617
1909.3288,0.009164
1910.2606,0.008693
1911.1925,0.009319
1912.1243,0.010357
1913.0561,0.009744
1913.9880,0.008866
1914.9198,0.009143
1915.8516,0.009682
1916.7835,0.009427
1917.7153,0.007862
1918.6472,0.007012
1919.5790,0.008138
1920.5108,0.009866
1921.4427,0.008677
1922.3745,0.008315
1923.3063,0.008614
1924.2382,0.008853
1925.1700,0.009828
1926.1018,0.008770
1927.0337,0.007717
1927.9655,0.008433
1928.8973,0.009608
1929.8292,0.009375
1930.7610,0.006781
1931.6928,0.006220
1932.6247,0.008016
1933.5565,0.008230
1934.4883,0.007311
1935.4202,0.007960
1936.3520,0.009253
1937.2838,0.009699
1938.2157,0.008552
1939.1475,0.007912
1940.0793,0.008704
1941.0112,0.008016
1941.9430,0.006773
1942.8748,0.008588
1943.8067,0.009594
1944.7385,0.007698
1945.6704,0.005354
1946.6022,0.005007
1947.5340,0.005512
1948.4659,0.006781
1949.3977,0.008828
1950.3295,0.007500
1951.2614,0.004523
1952.1932,0.002929
1953.1250,0.004011
1954.0569,0.007224
1954.9887,0.007304
1955.9205,0.005812
1956.8524,0.004503
1957.7842,0.004668
1958.7160,0.006323
1959.6479,0.007858
1960.5797,0.007280
1961.5115,0.006765
1962.4434,0.006905
1963.3752,0.004055
1964.3070,0.001751
1965.2389,0.002550
1966.1707,0.006815
1967.1025,0.008083
1968.0344,0.005537
1968.9662,0.004015
1969.8980,0.003392
1970.8299,0.003488
1971.7617,0.004323
1972.6936,0.003817
1973.6254,0.003527
1974.5572,0.004596
1975.4891,0.001191
1976.4209,0.001454
1977.3527,0.005592
1978.2846,0.006965
1979.2164,0.005918
1980.1482,0.002639
1981.0801,0.002849
1982.0119,0.003337
1982.9437,0.002185
1983.8756,0.004305
1984.8074,0.006673
1985.7392,0.007162
1986.6711,0.006297
1987.6029,0.003589
1988.5347,0.001050
1989.4666,0.005013
1990.3984,0.009025
1991.3302,0.007332
1992.2621,0.004845
1993.1939,0.004308
1994.1257,0.004505
1995.0576,0.004203
1995.9894,0.004897
1996.9212,0.006671
1997.8531,0.007523
1998.7849,0.007575
1999.7167,0.006827
2000.6486,0.005367
2001.5804,0.004417
2002.5123,0.005359
2003.4441,0.006975
2004.3759,0.006593
2005.3078,0.005722
2006.2396,0.005203
2007.1714,0.004735
2008.1033,0.004825
2009.0351,0.003713
2009.9669,0.004868
2010.8988,0.008527
2011.8306,0.009344
2012.7624,0.008740
2013.6943,0.005990
2014.6261,0.004718
2015.5579,0.004458
2016.4898,0.003266
2017.4216,0.004233
2018.3534,0.004572
2019.2853,0.004990
2020.2171,0.005714
2021.1489,0.003312
2022.0808,0.002350
2023.0126,0.005200
2023.9444,0.005207
2024.8763,0.003228
2025.8081,0.001157
2026.7399,0.001452
2027.6718,0.005008
2028.6036,0.007042
2029.5355,0.007949
2030.4673,0.006261
2031.3991,0.004941
2032.3310,0.003274
2033.2628,0.003429
2034.1946,0.005685
2035.1265,0.006717
2036.0583,0.005162
2036.9901,0.003148
2037.9220,0.006588
2038.8538,0.009509
2039.7856,0.009405
2040.7175,0.009147
2041.6493,0.007364
2042.5811,0.009016
2043.5130,0.010593
2044.4448,0.008631
2045.3766,0.008174
2046.3085,0.007021
2047.2403,0.008272
2048.1721,0.009670
2049.1040,0.010127
2050.0358,0.009983
2050.9676,0.010077
2051.8995,0.009539
2052.8313,0.006836
2053.7631,0.006832
2054.6950,0.009079
2055.6268,0.011283
2056.5587,0.012778
2057.4905,0.012193
2058.4223,0.011065
2059.3542,0.011877
2060.2860,0.011822
2061.2178,0.009861
2062.1497,0.010089
2063.0815,0.012202
2064.0133,0.013360
2064.9452,0.011840
2065.8770,0.009869
2066.8088,0.009474
2067.7407,0.009877
2068.6725,0.011204
2069.6043,0.012372
2070.5362,0.012840
2071.4680,0.013145
2072.3998,0.013208
2073.3317,0.014243
2074.2635,0.013821
2075.1953,0.012046
2076.1272,0.011764
2077.0590,0.014039
2077.9908,0.015031
2078.9227,0.012708
2079.8545,0.011412
2080.7863,0.012882
2081.7182,0.013226
2082.6500,0.012603
2083.5819,0.011883
2084.5137,0.012046
2085.4455,0.012776
2086.3774,0.013473
2087.3092,0.014219
2088.2410,0.014025
2089.1729,0.013644
2090.1047,0.014059
2091.0365,0.013533
2091.9684,0.013769
2092.9002,0.012783
2093.8320,0.012078
2094.7639,0.013184
2095.6957,0.012959
2096.6275,0.012572
2097.5594,0.012748
2098.4912,0.012461
2099.4230,0.011583
2100.3549,0.011651
2101.2867,0.012930
2102.2185,0.014155
2103.1504,0.014939
2104.0822,0.014887
2105.0140,0.014568
2105.9459,0.013949
2106.8777,0.012263
2107.8095,0.012842
2108.7414,0.014548
2109.6732,0.015138
2110.6051,0.015188
2111.5369,0.014864
2112.4687,0.013695
2113.4006,0.013520
2114.3324,0.013388
2115.2642,0.012716
2116.1961,0.013019
2117.1279,0.013831
2118.0597,0.014730
2118.9916,0.015258
2119.9234,0.014848
2120.8552,0.015049
2121.7871,0.015577
2122.7189,0.014290
2123.6507,0.013812
2124.5826,0.014749
2125.5144,0.015187
2126.4462,0.015454
2127.3781,0.015268
2128.3099,0.015078
2129.2417,0.014713
2130.1736,0.012672
2131.1054,0.012405
2132.0372,0.013873
2132.9691,0.013955
2133.9009,0.013541
2134.8327,0.014645
2135.7646,0.015807
2136.6964,0.014512
2137.6282,0.012403
2138.5601,0.011009
2139.4919,0.012879
2140.4238,0.013800
2141.3556,0.011790
2142.2874,0.011583
2143.2193,0.012406
2144.1511,0.011253
2145.0829,0.009641
2146.0148,0.009692
2146.9466,0.011040
2147.8784,0.009435
2148.8103,0.007786
2149.7421,0.009087
2150.6739,0.010333
2151.6058,0.010200
2152.5376,0.010987
2153.4694,0.009775
2154.4013,0.006469
2155.3331,0.005222
2156.2649,0.006159
2157.1968,0.006449
2158.1286,0.007603
2159.0604,0.006842
2159.9923,0.004279
2160.9241,0.003377
2161.8559,0.004394
2162.7878,0.007565
2163.7196,0.005687
2164.6514,0.001360
2165.5833,0.002342
2166.5151,0.007733
2167.4470,0.007684
2168.3788,0.004458
2169.3106,0.003820
2170.2425,0.005460
2171.1743,0.007432
2172.1061,0.006505
2173.0380,0.005546
2173.9698,0.006349
2174.9016,0.005495
2175.8335,0.007224
2176.7653,0.009347
2177.6971,0.007911
2178.6290,0.008275
2179.5608,0.008718
2180.4926,0.009173
2181.4245,0.012812
2182.3563,0.013020
2183.2881,0.010553
2184.2200,0.008614
2185.1518,0.008275
2186.0836,0.008927
2187.0155,0.008439
2187.9473,0.009274
2188.8791,0.007691
2189.8110,0.007059
2190.7428,0.010644
2191.6746,0.010854
2192.6065,0.009543
2193.5383,0.009947
2194.4702,0.010792
2195.4020,0.010776
2196.3338,0.010373
2197.2657,0.010527
2198.1975,0.010706
2199.1293,0.010125
2200.0612,0.008688
2200.9930,0.008464
2201.9248,0.007452
2202.8567,0.006460
2203.7885,0.010069
2204.7203,0.012990
2205.6522,0.010531
2206.5840,0.008450
2207.5158,0.008328
2208.4477,0.008239
2209.3795,0.007500
2210.3113,0.007964
2211.2432,0.008996
2212.1750,0.008280
2213.1068,0.008406
2214.0387,0.008176
2214.9705,0.007039
2215.9023,0.008760
2216.8342,0.009568
2217.7660,0.008913
2218.6978,0.011054
2219.6297,0.011707
2220.5615,0.009550
2221.4934,0.008389
2222.4252,0.009520
2223.3570,0.011909
2224.2889,0.012385
2225.2207,0.009835
2226.1525,0.007380
2227.0844,0.007755
2228.0162,0.008483
2228.9480,0.008617
2229.8799,0.009625
2230.8117,0.009544
2231.7435,0.009754
2232.6754,0.011052
2233.6072,0.011228
2234.5390,0.010447
2235.4709,0.009296
2236.4027,0.009581
2237.3345,0.009994
2238.2664,0.008680
2239.1982,0.007490
2240.1300,0.007970
2241.0619,0.007914
2241.9937,0.007263
2242.9255,0.009484
2243.8574,0.011421
2244.7892,0.009935
2245.7210,0.008683
2246.6529,0.010621
2247.5847,0.012294
2248.5166,0.010385
2249.4484,0.009045
2250.3802,0.010200
2251.3121,0.010440
2252.2439,0.009761
2253.1757,0.009115
2254.1076,0.009190
2255.0394,0.009264
2255.9712,0.009497
2256.9031,0.009637
2257.8349,0.009797
2258.7667,0.010497
2259.6986,0.010541
2260.6304,0.008995
2261.5622,0.007767
2262.4941,0.008040
2263.4259,0.008109
2264.3577,0.007987
2265.2896,0.009614
2266.2214,0.010939
2267.1532,0.010359
2268.0851,0.010120
2269.0169,0.010035
2269.9487,0.009129
2270.8806,0.009046
2271.8124,0.009391
2272.7442,0.009438
2273.6761,0.009436
2274.6079,0.008776
2275.5397,0.008178
2276.4716,0.008548
2277.4034,0.008868
2278.3353,0.009447
2279.2671,0.010245
2280.1989,0.009880
2281.1308,0.008256
2282.0626,0.007246
2282.9944,0.007971
2283.9263,0.008878
2284.8581,0.009208
2285.7899,0.009481
2286.7218,0.010291
2287.6536,0.010578
2288.5854,0.010385
2289.5173,0.010175
2290.4491,0.009480
2291.3809,0.008750
2292.3128,0.009048
2293.2446,0.010170
2294.1764,0.010598
2295.1083,0.010162
2296.0401,0.009857
2296.9719,0.009804
2297.9038,0.010337
2298.8356,0.010832
2299.7674,0.009818
2300.6993,0.009537
2301.6311,0.010244
2302.5629,0.009581
2303.4948,0.008978
2304.4266,0.009111
2305.3585,0.009092
2306.2903,0.008911
2307.2221,0.009283
2308.1540,0.010028
2309.0858,0.009917
2310.0176,0.009402
2310.9495,0.009193
2311.8813,0.009250
2312.8131,0.009132
2313.7450,0.008393
2314.6768,0.008301
2315.6086,0.009008
2316.5405,0.009896
2317.4723,0.010074
2318.4041,0.009720
2319.3360,0.009667
2320.2678,0.009418
2321.1996,0.009233
2322.1315,0.009104
2323.0633,0.008937
2323.9951,0.009009
2324.9270,0.009729
2325.8588,0.010692
2326.7906,0.010615
2327.7225,0.009773
2328.6543,0.009436
2329.5861,0.009130
2330.5180,0.008675
2331.4498,0.008449
2332.3817,0.008426
2333.3135,0.008789
2334.2453,0.008809
2335.1772,0.008313
2336.1090,0.007951
2337.0408,0.008333
2337.9727,0.008784
2338.9045,0.008182
2339.8363,0.007635
2340.7682,0.008062
2341.7000,0.008700
2342.6318,0.008903
2343.5637,0.008916
2344.4955,0.009019
2345.4273,0.008937
2346.3592,0.008447
2347.2910,0.008115
2348.2228,0.008109
2349.1547,0.007908
2350.0865,0.008234
2351.0183,0.008327
2351.9502,0.007882
2352.8820,0.008140
2353.8138,0.008202
2354.7457,0.007918
2355.6775,0.008183
2356.6093,0.007788
2357.5412,0.006651
2358.4730,0.006804
2359.4049,0.007759
2360.3367,0.008060
2361.2685,0.007428
2362.2004,0.007027
2363.1322,0.007142
2364.0640,0.007188
2364.9959,0.007022
2365.9277,0.006671
2366.8595,0.007185
2367.7914,0.006958
2368.7232,0.006245
2369.6550,0.007073
2370.5869,0.007876
2371.5187,0.007722
2372.4505,0.007286
2373.3824,0.006835
2374.3142,0.006834
2375.2460,0.007262
2376.1779,0.007444
2377.1097,0.007744
2378.0415,0.007473
2378.9734,0.007363
2379.9052,0.007635
2380.8370,0.007325
2381.7689,0.007461
2382.7007,0.007789
2383.6325,0.007360
2384.5644,0.007296
2385.4962,0.007564
2386.4281,0.007981
2387.3599,0.008040
2388.2917,0.006987
2389.2236,0.006393
2390.1554,0.006177
2391.0872,0.006244
2392.0191,0.006677
2392.9509,0.006707
2393.8827,0.007466
2394.8146,0.008256
2395.7464,0.007608
2396.6782,0.006405
2397.6101,0.006046
2398.5419,0.006441
2399.4737,0.006699
2400.4056,0.006597
2401.3374,0.006883
2402.2692,0.007152
2403.2011,0.007481
2404.1329,0.007710
2405.0647,0.007414
2405.9966,0.007510
2406.9284,0.007546
2407.8602,0.007089
2408.7921,0.006804
2409.7239,0.006896
2410.6557,0.006850
2411.5876,0.006794
2412.5194,0.006995
2413.4512,0.006800
2414.3831,0.006696
2415.3149,0.006315
2416.2468,0.005721
2417.1786,0.005734
2418.1104,0.005864
2419.0423,0.005736
2419.9741,0.005578
2420.9059,0.005935
2421.8378,0.006486
2422.7696,0.006422
2423.7014,0.006109
2424.6333,0.006234
2425.5651,0.006432
2426.4969,0.005888
2427.4288,0.005592
2428.3606,0.006046
2429.2924,0.006490
2430.2243,0.006194
2431.1561,0.005869
2432.0879,0.006358
2433.0198,0.006786
2433.9516,0.006431
2434.8834,0.005473
2435.8153,0.005238
2436.7471,0.005487
2437.6789,0.005489
2438.6108,0.005939
2439.5426,0.006262
2440.4744,0.005499
2441.4063,0.005345
2442.3381,0.006024
2443.2700,0.006120
2444.2018,0.005518
2445.1336,0.005149
2446.0655,0.005510
2446.9973,0.005910
2447.9291,0.005778
2448.8610,0.005325
2449.7928,0.005308
2450.7246,0.005054
2451.6565,0.004506
2452.5883,0.004833
2453.5201,0.006265
2454.4520,0.006541
2455.3838,0.005630
2456.3156,0.005290
2457.2475,0.004848
2458.1793,0.004455
2459.1111,0.004605
2460.0430,0.004936
2460.9748,0.005796
2461.9066,0.005860
2462.8385,0.004642
2463.7703,0.004668
2464.7021,0.005698
2465.6340,0.006088
2466.5658,0.005691
2467.4976,0.005434
2468.4295,0.005850
2469.3613,0.005612
2470.2932,0.004586
2471.2250,0.004594
2472.1568,0.005653
2473.0887,0.005977
2474.0205,0.005578
2474.9523,0.005101
2475.8842,0.004925
2476.8160,0.005168
2477.7478,0.005033
2478.6797,0.005155
2479.6115,0.005358
2480.5433,0.005625
2481.4752,0.006097
2482.4070,0.005064
2483.3388,0.004174
2484.2707,0.004963
2485.2025,0.005243
2486.1343,0.005142
2487.0662,0.006080
2487.9980,0.005972
2488.9298,0.004496
2489.8617,0.004536
2490.7935,0.005185
2491.7253,0.004856
2492.6572,0.004109
2493.5890,0.004367
2494.5208,0.005040
2495.4527,0.005074
2496.3845,0.005276
2497.3164,0.005251
2498.2482,0.005180
2499.1800,0.005294
2500.1119,0.005519
2501.0437,0.004530
2501.9755,0.004542
2502.9074,0.005884
2503.8392,0.005938
2504.7710,0.005574
2505.7029,0.005447
2506.6347,0.004465
2507.5665,0.003653
2508.4984,0.004647
2509.4302,0.005839
2510.3620,0.005368
2511.2939,0.004734
2512.2257,0.004439
2513.1575,0.005006
2514.0894,0.005774
2515.0212,0.005115
2515.9530,0.004779
2516.8849,0.005103
2517.8167,0.004850
2518.7485,0.005199
2519.6804,0.005529
2520.6122,0.004862
2521.5440,0.004266
2522.4759,0.004152
2523.4077,0.004591
2524.3396,0.004392
2525.2714,0.004797
2526.2032,0.005274
2527.1351,0.005584
2528.0669,0.005457
2528.9987,0.004479
2529.9306,0.004232
2530.8624,0.004885
2531.7942,0.004780
2532.7261,0.004509
2533.6579,0.004506
2534.5897,0.004717
2535.5216,0.005251
2536.4534,0.005192
2537.3852,0.005308
2538.3171,0.005686
2539.2489,0.005374
2540.1807,0.004750
2541.1126,0.003906
2542.0444,0.003805
2542.9762,0.005112
2543.9081,0.006303
2544.8399,0.006524
2545.7717,0.005713
2546.7036,0.005863
2547.6354,0.005700
2548.5672,0.004589
2549.4991,0.004116
2550.4309,0.004505
2551.3627,0.005306
2552.2946,0.005055
2553.2264,0.004895
2554.1583,0.005049
2555.0901,0.004620
2556.0219,0.004077
2556.9538,0.003688
2557.8856,0.003482
2558.8174,0.003912
2559.7493,0.004665
2560.6811,0.005091
2561.6129,0.005007
2562.5448,0.004007
2563.4766,0.003323
2564.4084,0.003812
2565.3403,0.004750
2566.2721,0.005074
2567.2039,0.005497
2568.1358,0.005769
2569.0676,0.005894
2569.9994,0.005437
2570.9313,0.004475
2571.8631,0.004169
2572.7949,0.004367
2573.7268,0.004831
2574.6586,0.004724
2575.5904,0.003568
2576.5223,0.003304
2577.4541,0.004016
2578.3859,0.004581
2579.3178,0.004374
2580.2496,0.004275
2581.1815,0.003894
2582.1133,0.004454
2583.0451,0.005294
2583.9770,0.004811
2584.9088,0.003814
2585.8406,0.004020
2586.7725,0.005174
2587.7043,0.005265
2588.6361,0.004566
2589.5680,0.003884
2590.4998,0.004209
2591.4316,0.005066
2592.3635,0.005324
2593.2953,0.005302
2594.2271,0.005104
2595.1590,0.004555
2596.0908,0.004446
2597.0226,0.005251
2597.9545,0.005616
2598.8863,0.004601
2599.8181,0.004466
2600.7500,0.004795
2601.6818,0.004720
2602.6136,0.004983
2603.5455,0.005269
2604.4773,0.004911
2605.4091,0.004242
2606.3410,0.004170
2607.2728,0.004914
2608.2047,0.005358
2609.1365,0.005889
2610.0683,0.006071
2611.0002,0.005619
2611.9320,0.005232
2612.8638,0.005229
2613.7957,0.005761
2614.7275,0.005559
2615.6593,0.005036
2616.5912,0.004968
2617.5230,0.005063
2618.4548,0.005000
2619.3867,0.004774
2620.3185,0.004471
2621.2503,0.004325
2622.1822,0.005097
2623.1140,0.005991
2624.0458,0.005692
2624.9777,0.005643
2625.9095,0.005708
2626.8413,0.005816
2627.7732,0.005678
2628.7050,0.005301
2629.6368,0.005461
2630.5687,0.005442
2631.5005,0.005244
2632.4323,0.005359
2633.3642,0.005358
2634.2960,0.005315
2635.2279,0.005460
2636.1597,0.005606
2637.0915,0.005473
2638.0234,0.005093
2638.9552,0.005646
2639.8870,0.006415
2640.8189,0.006063
2641.7507,0.005671
2642.6825,0.005716
2643.6144,0.005584
2644.5462,0.005623
2645.4780,0.006410
2646.4099,0.006901
2647.3417,0.006101
2648.2735,0.006042
2649.2054,0.006238
2650.1372,0.006283
2651.0690,0.006433
2652.0009,0.006564
2652.9327,0.006491
2653.8645,0.006213
2654.7964,0.005406
2655.7282,0.005618
2656.6600,0.006380
2657.5919,0.006180
2658.5237,0.006020
2659.4555,0.006238
2660.3874,0.006343
2661.3192,0.006417
2662.2511,0.006602
2663.1829,0.006466
2664.1147,0.006824
2665.0466,0.007004
2665.9784,0.006830
2666.9102,0.006780
2667.8421,0.006805
2668.7739,0.006345
2669.7057,0.005846
2670.6376,0.006352
2671.5694,0.006621
2672.5012,0.006401
2673.4331,0.006435
2674.3649,0.006539
2675.2967,0.006925
2676.2286,0.007187
2677.1604,0.007116
2678.0922,0.006950
2679.0241,0.006710
2679.9559,0.006946
2680.8877,0.007044
2681.8196,0.007264
2682.7514,0.007309
2683.6832,0.007206
2684.6151,0.007455
2685.5469,0.007346
2686.4787,0.007320
2687.4106,0.007712
2688.3424,0.008210
2689.2742,0.008055
2690.2061,0.007655
2691.1379,0.007880
2692.0698,0.007430
2693.0016,0.006926
2693.9334,0.007500
2694.8653,0.007842
2695.7971,0.007981
2696.7289,0.007779
2697.6608,0.007652
2698.5926,0.007502
2699.5244,0.007914
2700.4563,0.008317
2701.3881,0.008219
2702.3199,0.008337
2703.2518,0.008067
2704.1836,0.007321
2705.1154,0.007359
2706.0473,0.008056
2706.9791,0.008320
2707.9109,0.008685
2708.8428,0.008686
2709.7746,0.008426
2710.7064,0.008841
2711.6383,0.008872
2712.5701,0.008656
2713.5019,0.008458
2714.4338,0.008249
2715.3656,0.008428
2716.2974,0.008825
2717.2293,0.009467
2718.1611,0.009226
2719.0930,0.008765
2720.0248,0.009176
2720.9566,0.009449
2721.8885,0.009143
2722.8203,0.009156
2723.7521,0.009433
2724.6840,0.009175
2725.6158,0.008653
2726.5476,0.008823
2727.4795,0.009717
2728.4113,0.010001
2729.3431,0.009858
2730.2750,0.009696
2731.2068,0.009443
2732.1386,0.009425
2733.0705,0.009740
2734.0023,0.010220
2734.9341,0.010339
2735.8660,0.010275
2736.7978,0.010491
2737.7296,0.010945
2738.6615,0.010643
2739.5933,0.010673
2740.5251,0.011185
2741.4570,0.011032
2742.3888,0.010760
2743.3206,0.010651
2744.2525,0.010354
2745.1843,0.010383
2746.1162,0.010484
2747.0480,0.010743
2747.9798,0.010690
2748.9117,0.010554
2749.8435,0.010840
2750.7753,0.011093
2751.7072,0.011013
2752.6390,0.011125
2753.5708,0.011443
2754.5027,0.011265
2755.4345,0.010803
2756.3663,0.010677
2757.2982,0.010696
2758.2300,0.011099
2759.1618,0.011259
2760.0937,0.011182
2761.0255,0.011231
2761.9573,0.011108
2762.8892,0.011266
2763.8210,0.011622
2764.7528,0.011668
2765.6847,0.011785
2766.6165,0.011979
2767.5483,0.012026
2768.4802,0.011427
2769.4120,0.011077
2770.3438,0.011020
2771.2757,0.011207
2772.2075,0.011447
2773.1394,0.011300
2774.0712,0.011559
2775.0030,0.012432
2775.9349,0.012569
2776.8667,0.012530
2777.7985,0.012483
2778.7304,0.012658
2779.6622,0.012526
2780.5940,0.011976
2781.5259,0.012046
2782.4577,0.011902
2783.3895,0.012216
2784.3214,0.012439
2785.2532,0.012577
2786.1850,0.012904
2787.1169,0.012835
2788.0487,0.013157
2788.9805,0.013277
2789.9124,0.012858
2790.8442,0.013036
2791.7760,0.013461
2792.7079,0.013746
2793.6397,0.014087
2794.5715,0.014004
2795.5034,0.013898
2796.4352,0.014328
2797.3670,0.014309
2798.2989,0.014305
2799.2307,0.014539
2800.1626,0.015150
2801.0944,0.015193
2802.0262,0.015060
2802.9581,0.015253
2803.8899,0.015301
2804.8217,0.015316
2805.7536,0.015648
2806.6854,0.016228
2807.6172,0.016340
2808.5491,0.016374
2809.4809,0.016432
2810.4127,0.016278
2811.3446,0.016306
2812.2764,0.017012
2813.2082,0.017128
2814.1401,0.017178
2815.0719,0.017756
2816.0037,0.017549
2816.9356,0.017165
2817.8674,0.017608
2818.7992,0.017789
2819.7311,0.018356
2820.6629,0.018680
2821.5947,0.017988
2822.5266,0.018175
2823.4584,0.018736
2824.3902,0.018604
2825.3221,0.018610
2826.2539,0.019017
2827.1857,0.019421
2828.1176,0.019393
2829.0494,0.019595
2829.9813,0.020144
2830.9131,0.019953
2831.8449,0.020004
2832.7768,0.020649
2833.7086,0.020853
2834.6404,0.020704
2835.5723,0.021111
2836.5041,0.021104
2837.4359,0.021234
2838.3678,0.021408
2839.2996,0.021323
2840.2314,0.021830
2841.1633,0.022550
2842.0951,0.022201
2843.0269,0.022000
2843.9588,0.021588
2844.8906,0.021334
2845.8224,0.021633
2846.7543,0.022220
2847.6861,0.022976
2848.6179,0.022788
2849.5498,0.022633
2850.4816,0.023216
2851.4134,0.023171
2852.3453,0.023323
2853.2771,0.024001
2854.2089,0.024117
2855.1408,0.024025
2856.0726,0.024078
2857.0045,0.024192
2857.9363,0.024986
2858.8681,0.026153
2859.8000,0.026405
2860.7318,0.026363
2861.6636,0.026655
2862.5955,0.027194
2863.5273,0.027387
2864.4591,0.027607
2865.3910,0.028556
2866.3228,0.029793
2867.2546,0.029941
2868.1865,0.029826
2869.1183,0.030607
2870.0501,0.031722
2870.9820,0.031752
2871.9138,0.031602
2872.8456,0.032319
2873.7775,0.033341
2874.7093,0.034188
2875.6411,0.034879
2876.5730,0.035301
2877.5048,0.034833
2878.4366,0.035121
2879.3685,0.036257
2880.3003,0.036838
2881.2321,0.037120
2882.1640,0.036960
2883.0958,0.037148
2884.0277,0.037696
2884.9595,0.038546
2885.8913,0.039444
2886.8232,0.039584
2887.7550,0.039549
2888.6868,0.039948
2889.6187,0.040396
2890.5505,0.041129
2891.4823,0.041632
2892.4142,0.042180
2893.3460,0.042400
2894.2778,0.042296
2895.2097,0.042698
2896.1415,0.043207
2897.0733,0.044097
2898.0052,0.045350
2898.9370,0.045390
2899.8688,0.045213
2900.8007,0.045340
2901.7325,0.045171
2902.6643,0.045010
2903.5962,0.045818
2904.5280,0.046277
2905.4598,0.045793
2906.3917,0.045247
2907.3235,0.045029
2908.2553,0.045302
2909.1872,0.045762
2910.1190,0.045007
2911.0509,0.044296
2911.9827,0.044034
2912.9145,0.043807
2913.8464,0.042911
2914.7782,0.042500
2915.7100,0.042411
2916.6419,0.041838
2917.5737,0.041560
2918.5055,0.041905
2919.4374,0.041917
2920.3692,0.041807
2921.3010,0.042400
2922.2329,0.042687
2923.1647,0.042236
2924.0965,0.041802
2925.0284,0.042272
2925.9602,0.043244
2926.8920,0.044870
2927.8239,0.045315
2928.7557,0.043885
2929.6875,0.043912
2930.6194,0.044700
2931.5512,0.045401
2932.4830,0.047013
2933.4149,0.047369
2934.3467,0.046591
2935.2785,0.047031
2936.2104,0.047367
2937.1422,0.047720
2938.0741,0.048171
2939.0059,0.047719
2939.9377,0.046988
2940.8696,0.046875
2941.8014,0.047103
2942.7332,0.048466
2943.6651,0.049077
2944.5969,0.048826
2945.5287,0.048924
2946.4606,0.048734
2947.3924,0.048523
2948.3242,0.048443
2949.2561,0.048306
2950.1879,0.048631
2951.1197,0.048853
2952.0516,0.049212
2952.9834,0.049792
2953.9152,0.049940
2954.8471,0.049714
2955.7789,0.049965
2956.7107,0.050873
2957.6426,0.051898
2958.5744,0.051742
2959.5062,0.051871
2960.4381,0.052360
2961.3699,0.053264
2962.3017,0.054779
2963.2336,0.056092
2964.1654,0.057077
2965.0972,0.058151
2966.0291,0.059302
2966.9609,0.060788
2967.8928,0.063325
2968.8246,0.066213
2969.7564,0.068728
2970.6883,0.069939
2971.6201,0.071645
2972.5519,0.074190
2973.4838,0.077390
2974.4156,0.079920
2975.3474,0.081292
2976.2793,0.083996
2977.2111,0.086504
2978.1429,0.088190
2979.0748,0.089109
2980.0066,0.089335
2980.9384,0.090667
2981.8703,0.091413
2982.8021,0.090498
2983.7339,0.089311
2984.6658,0.087930
2985.5976,0.086077
2986.5294,0.084089
2987.4613,0.081911
2988.3931,0.079485
2989.3249,0.077297
2990.2568,0.074774
2991.1886,0.072372
2992.1204,0.070747
2993.0523,0.069073
2993.9841,0.067036
2994.9160,0.066058
2995.8478,0.065076
2996.7796,0.063649
2997.7115,0.062376
2998.6433,0.061055
2999.5751,0.059894
3000.5070,0.059884
3001.4388,0.060135
3002.3706,0.060132
3003.3025,0.060102
3004.2343,0.059567
3005.1661,0.058963
3006.0980,0.058679
3007.0298,0.059027
3007.9616,0.059316
3008.8935,0.058927
3009.8253,0.059207
3010.7571,0.060094
3011.6890,0.060415
3012.6208,0.060656
3013.5526,0.060822
3014.4845,0.060200
3015.4163,0.060332
3016.3481,0.060997
3017.2800,0.061085
3018.2118,0.061193
3019.1436,0.061607
3020.0755,0.062519
3021.0073,0.063052
3021.9392,0.063792
3022.8710,0.064403
3023.8028,0.064538
3024.7347,0.064222
3025.6665,0.063953
3026.5983,0.064493
3027.5302,0.065194
3028.4620,0.066022
3029.3938,0.066583
3030.3257,0.067355
3031.2575,0.068411
3032.1893,0.069269
3033.1212,0.069785
3034.0530,0.069901
3034.9848,0.070561
3035.9167,0.071197
3036.8485,0.071349
3037.7803,0.071916
3038.7122,0.072451
3039.6440,0.073332
3040.5758,0.074065
3041.5077,0.074378
3042.4395,0.075247
3043.3713,0.075753
3044.3032,0.076112
3045.2350,0.076774
3046.1668,0.077980
3047.0987,0.078679
3048.0305,0.078371
3048.9624,0.079439
3049.8942,0.080839
3050.8260,0.081725
3051.7579,0.082759
3052.6897,0.083017
3053.6215,0.082627
3054.5534,0.083400
3055.4852,0.084909
3056.4170,0.085441
3057.3489,0.085787
3058.2807,0.087287
3059.2125,0.088321
3060.1444,0.088352
3061.0762,0.089437
3062.0080,0.091140
3062.9399,0.091253
3063.8717,0.090657
3064.8035,0.090841
3065.7354,0.092267
3066.6672,0.094357
3067.5990,0.094820
3068.5309,0.095334
3069.4627,0.096767
3070.3945,0.097176
3071.3264,0.097769
3072.2582,0.099159
3073.1900,0.100456
3074.1219,0.101723
3075.0537,0.102807
3075.9856,0.102635
3076.9174,0.102594
3077.8492,0.103085
3078.7811,0.104295
3079.7129,0.106458
3080.6447,0.107844
3081.5766,0.108568
3082.5084,0.109640
3083.4402,0.110483
3084.3721,0.111383
3085.3039,0.111473
3086.2357,0.111268
3087.1676,0.112880
3088.0994,0.114812
3089.0312,0.115445
3089.9631,0.115567
3090.8949,0.116154
3091.8267,0.118155
3092.7586,0.119744
3093.6904,0.119866
3094.6222,0.120373
3095.5541,0.121682
3096.4859,0.123332
3097.4177,0.125004
3098.3496,0.126076
3099.2814,0.126871
3100.2132,0.127414
3101.1451,0.127802
3102.0769,0.128804
3103.0087,0.130776
3103.9406,0.132471
3104.8724,0.133589
3105.8043,0.134109
3106.7361,0.135457
3107.6679,0.137141
3108.5998,0.137800
3109.5316,0.138409
3110.4634,0.140390
3111.3953,0.141722
3112.3271,0.142480
3113.2589,0.143343
3114.1908,0.144773
3115.1226,0.145729
3116.0544,0.146633
3116.9863,0.147609
3117.9181,0.148268
3118.8499,0.149100
3119.7818,0.150166
3120.7136,0.151662
3121.6454,0.153474
3122.5773,0.154387
3123.5091,0.155415
3124.4409,0.156524
3125.3728,0.157906
3126.3046,0.159534
3127.2364,0.161287
3128.1683,0.162491
3129.1001,0.163274
3130.0319,0.164175
3130.9638,0.165999
3131.8956,0.167883
3132.8275,0.169554
3133.7593,0.170923
3134.6911,0.171425
3135.6230,0.171112
3136.5548,0.172199
3137.4866,0.174764
3138.4185,0.176312
3139.3503,0.176743
3140.2821,0.177884
3141.2140,0.179458
3142.1458,0.181236
3143.0776,0.182276
3144.0095,0.183875
3144.9413,0.184922
3145.8731,0.185428
3146.8050,0.187571
3147.7368,0.190038
3148.6686,0.190249
3149.6005,0.191515
3150.5323,0.193412
3151.4641,0.194046
3152.3960,0.194847
3153.3278,0.196385
3154.2596,0.197943
3155.1915,0.199566
3156.1233,0.200028
3157.0551,0.200439
3157.9870,0.202402
3158.9188,0.204812
3159.8507,0.206259
3160.7825,0.207051
3161.7143,0.207801
3162.6462,0.209670
3163.5780,0.211589
3164.5098,0.213138
3165.4417,0.214755
3166.3735,0.216041
3167.3053,0.216599
3168.2372,0.217760
3169.1690,0.219312
3170.1008,0.221035
3171.0327,0.221937
3171.9645,0.222949
3172.8963,0.225110
3173.8282,0.227188
3174.7600,0.227869
3175.6918,0.229107
3176.6237,0.230095
3177.5555,0.230955
3178.4873,0.231399
3179.4192,0.232274
3180.3510,0.235478
3181.2828,0.238046
3182.2147,0.237798
3183.1465,0.237529
3184.0783,0.238465
3185.0102,0.240768
3185.9420,0.242297
3186.8739,0.242516
3187.8057,0.242945
3188.7375,0.244672
3189.6694,0.245580
3190.6012,0.246469
3191.5330,0.249116
3192.4649,0.251155
3193.3967,0.252344
3194.3285,0.252637
3195.2604,0.253259
3196.1922,0.255813
3197.1240,0.256837
3198.0559,0.258331
3198.9877,0.259991
3199.9195,0.260470
3200.8514,0.261333
3201.7832,0.262177
3202.7150,0.262813
3203.6469,0.264239
3204.5787,0.264404
3205.5105,0.264255
3206.4424,0.266470
3207.3742,0.268886
3208.3060,0.268683
3209.2379,0.268300
3210.1697,0.269631
3211.1015,0.270793
3212.0334,0.271149
3212.9652,0.272900
3213.8971,0.274224
3214.8289,0.274272
3215.7607,0.274430
3216.6926,0.275003
3217.6244,0.276165
3218.5562,0.278187
3219.4881,0.279903
3220.4199,0.280792
3221.3517,0.280140
3222.2836,0.280695
3223.2154,0.283544
3224.1472,0.284680
3225.0791,0.283723
3226.0109,0.283675
3226.9427,0.284658
3227.8746,0.285387
3228.8064,0.285484
3229.7382,0.285377
3230.6701,0.285483
3231.6019,0.286296
3232.5337,0.287232
3233.4656,0.289224
3234.3974,0.291310
3235.3292,0.290989
3236.2611,0.289623
3237.1929,0.289702
3238.1247,0.290173
3239.0566,0.291242
3239.9884,0.292575
3240.9202,0.294468
3241.8521,0.295597
3242.7839,0.294259
3243.7158,0.293648
3244.6476,0.294481
3245.5794,0.294612
3246.5113,0.294640
3247.4431,0.293962
3248.3749,0.293778
3249.3068,0.296192
3250.2386,0.297044
3251.1704,0.295698
3252.1023,0.296362
3253.0341,0.297617
3253.9659,0.298040
3254.8978,0.298738
3255.8296,0.298818
3256.7614,0.297473
3257.6933,0.297716
3258.6251,0.298881
3259.5569,0.298777
3260.4888,0.298415
3261.4206,0.298701
3262.3524,0.298091
3263.2843,0.297577
3264.2161,0.299277
3265.1479,0.300123
3266.0798,0.299685
3267.0116,0.299398
3267.9434,0.299541
3268.8753,0.300531
3269.8071,0.301361
3270.7390,0.300090
3271.6708,0.298194
3272.6026,0.297882
3273.5345,0.297902
3274.4663,0.298930
3275.3981,0.299949
3276.3300,0.299918
3277.2618,0.301509
3278.1936,0.302718
3279.1255,0.299755
3280.0573,0.297332
3280.9891,0.299498
3281.9210,0.301181
3282.8528,0.300173
3283.7846,0.299607
3284.7165,0.301430
3285.6483,0.303105
3286.5801,0.302913
3287.5120,0.302163
3288.4438,0.302223
3289.3756,0.302120
3290.3075,0.301766
3291.2393,0.302600
3292.1711,0.302737
3293.1030,0.302164
3294.0348,0.302032
3294.9666,0.301921
3295.8985,0.302685
3296.8303,0.303593
3297.7622,0.302343
3298.6940,0.300889
3299.6258,0.301546
3300.5577,0.301273
3301.4895,0.300107
3302.4213,0.300398
3303.3532,0.301889
3304.2850,0.301943
3305.2168,0.302080
3306.1487,0.301520
3307.0805,0.300740
3308.0123,0.301750
3308.9442,0.303027
3309.8760,0.303322
3310.8078,0.302841
3311.7397,0.303038
3312.6715,0.303291
3313.6033,0.302217
3314.5352,0.301691
3315.4670,0.302235
3316.3988,0.303800
3317.3307,0.303146
3318.2625,0.301927
3319.1943,0.302954
3320.1262,0.304534
3321.0580,0.305085
3321.9898,0.304702
3322.9217,0.304306
3323.8535,0.304596
3324.7854,0.302403
3325.7172,0.301738
3326.6490,0.302779
3327.5809,0.301707
3328.5127,0.301219
3329.4445,0.301963
3330.3764,0.302561
3331.3082,0.303691
3332.2400,0.304909
3333.1719,0.305592
3334.1037,0.305603
3335.0355,0.304109
3335.9674,0.304492
3336.8992,0.306391
3337.8310,0.304286
3338.7629,0.302424
3339.6947,0.302847
3340.6265,0.303224
3341.5584,0.302622
3342.4902,0.301246
3343.4220,0.301642
3344.3539,0.304410
3345.2857,0.304365
3346.2175,0.302358
3347.1494,0.301217
3348.0812,0.302484
3349.0130,0.304055
3349.9449,0.304001
3350.8767,0.303140
3351.8086,0.302792
3352.7404,0.302705
3353.6722,0.302692
3354.6041,0.303139
3355.5359,0.303759
3356.4677,0.302654
3357.3996,0.302377
3358.3314,0.299643
3359.2632,0.299386
3360.1951,0.302532
3361.1269,0.303386
3362.0587,0.301518
3362.9906,0.299729
3363.9224,0.298450
3364.8542,0.299572
3365.7861,0.301090
3366.7179,0.302018
3367.6497,0.302810
3368.5816,0.302368
3369.5134,0.299976
3370.4452,0.300734
3371.3771,0.298611
3372.3089,0.295820
3373.2407,0.294823
3374.1726,0.295281
3375.1044,0.296380
3376.0362,0.297541
3376.9681,0.295644
3377.8999,0.293781
3378.8317,0.294678
3379.7636,0.295691
3380.6954,0.293822
3381.6273,0.293771
3382.5591,0.295218
3383.4909,0.296883
3384.4228,0.296187
3385.3546,0.293926
3386.2864,0.292227
3387.2183,0.292472
3388.1501,0.292773
3389.0819,0.291659
3390.0138,0.289838
3390.9456,0.289350
3391.8774,0.289879
3392.8093,0.289958
3393.7411,0.287574
3394.6729,0.286832
3395.6048,0.288719
3396.5366,0.287300
3397.4684,0.283596
3398.4003,0.283407
3399.3321,0.283392
3400.2639,0.282866
3401.1958,0.281938
3402.1276,0.281950
3403.0594,0.280305
3403.9913,0.278184
3404.9231,0.277118
3405.8549,0.277114
3406.7868,0.277301
3407.7186,0.276387
3408.6505,0.274143
3409.5823,0.274849
3410.5141,0.275138
3411.4460,0.273986
3412.3778,0.272145
3413.3096,0.273386
3414.2415,0.272585
3415.1733,0.268715
3416.1051,0.267775
3417.0370,0.266868
3417.9688,0.264150
3418.9006,0.262484
3419.8325,0.260800
3420.7643,0.261356
3421.6961,0.261959
3422.6280,0.261568
3423.5598,0.262065
3424.4916,0.261813
3425.4235,0.260182
3426.3553,0.258941
3427.2871,0.257264
3428.2190,0.254940
3429.1508,0.253442
3430.0826,0.254080
3431.0145,0.252961
3431.9463,0.253459
3432.8781,0.252929
3433.8100,0.249836
3434.7418,0.248016
3435.6737,0.248944
3436.6055,0.247157
3437.5373,0.244421
3438.4692,0.243618
3439.4010,0.243596
3440.3328,0.240508
3441.2647,0.241344
3442.1965,0.241116
3443.1283,0.237629
3444.0602,0.235119
3444.9920,0.236202
3445.9238,0.236447
3446.8557,0.235914
3447.7875,0.235679
3448.7193,0.235416
3449.6512,0.233144
3450.5830,0.231055
3451.5148,0.229635
3452.4467,0.228726
3453.3785,0.227255
3454.3103,0.226370
3455.2422,0.225124
3456.1740,0.224771
3457.1058,0.224925
3458.0377,0.225278
3458.9695,0.223734
3459.9013,0.222384
3460.8332,0.221552
3461.7650,0.219754
3462.6969,0.215881
3463.6287,0.214641
3464.5605,0.215255
3465.4924,0.216813
3466.4242,0.214902
3467.3560,0.212035
3468.2879,0.210632
3469.2197,0.208794
3470.1515,0.208328
3471.0834,0.207402
3472.0152,0.205445
3472.9470,0.204539
3473.8789,0.204851
3474.8107,0.204518
3475.7425,0.200570
3476.6744,0.198261
3477.6062,0.198618
3478.5380,0.198649
3479.4699,0.196514
3480.4017,0.195066
3481.3335,0.193156
3482.2654,0.192073
3483.1972,0.192029
3484.1290,0.190612
3485.0609,0.189850
3485.9927,0.190822
3486.9245,0.189175
3487.8564,0.187708
3488.7882,0.187343
3489.7201,0.186508
3490.6519,0.185749
3491.5837,0.185701
3492.5156,0.183021
3493.4474,0.182752
3494.3792,0.181929
3495.3111,0.179958
3496.2429,0.176450
3497.1747,0.176159
3498.1066,0.179227
3499.0384,0.179739
3499.9702,0.176697
3500.9021,0.174310
3501.8339,0.172060
3502.7657,0.170878
3503.6976,0.168562
3504.6294,0.169489
3505.5612,0.168169
3506.4931,0.165559
3507.4249,0.166777
3508.3567,0.166653
3509.2886,0.165959
3510.2204,0.168326
3511.1522,0.166453
3512.0841,0.163076
3513.0159,0.160719
3513.9477,0.159660
3514.8796,0.158724
3515.8114,0.159848
3516.7432,0.160077
3517.6751,0.158499
3518.6069,0.156424
3519.5388,0.155479
3520.4706,0.154575
3521.4024,0.153434
3522.3343,0.151941
3523.2661,0.149838
3524.1979,0.146726
3525.1298,0.148238
3526.0616,0.149303
3526.9934,0.146621
3527.9253,0.144030
3528.8571,0.144903
3529.7889,0.144978
3530.7208,0.142502
3531.6526,0.140629
3532.5844,0.141276
3533.5163,0.141466
3534.4481,0.138575
3535.3799,0.136470
3536.3118,0.137232
3537.2436,0.136453
3538.1754,0.134445
3539.1073,0.133195
3540.0391,0.133177
3540.9709,0.130965
3541.9028,0.130737
3542.8346,0.131311
3543.7664,0.128572
3544.6983,0.125050
3545.6301,0.124798
3546.5620,0.124924
3547.4938,0.122803
3548.4256,0.122398
3549.3575,0.123911
3550.2893,0.121682
3551.2211,0.120421
3552.1530,0.120543
3553.0848,0.120400
3554.0166,0.118499
3554.9485,0.118410
3555.8803,0.117899
3556.8121,0.117770
3557.7440,0.114272
3558.6758,0.112643
3559.6076,0.112943
3560.5395,0.112816
3561.4713,0.110823
3562.4031,0.108531
3563.3350,0.107282
3564.2668,0.107283
3565.1986,0.106030
3566.1305,0.105255
3567.0623,0.102920
3567.9941,0.101686
3568.9260,0.104621
3569.8578,0.106549
3570.7896,0.104031
3571.7215,0.104176
3572.6533,0.101467
3573.5852,0.097160
3574.5170,0.096453
3575.4488,0.097161
3576.3807,0.095233
3577.3125,0.093453
3578.2443,0.093578
3579.1762,0.094076
3580.1080,0.092951
3581.0398,0.092158
3581.9717,0.092966
3582.9035,0.091971
3583.8353,0.087718
3584.7672,0.084365
3585.6990,0.084790
3586.6308,0.085445
3587.5627,0.084743
3588.4945,0.083693
3589.4263,0.083400
3590.3582,0.084238
3591.2900,0.085262
3592.2218,0.084898
3593.1537,0.082264
3594.0855,0.079723
3595.0173,0.078831
3595.9492,0.079390
3596.8810,0.078287
3597.8128,0.078041
3598.7447,0.078454
3599.6765,0.078931
3600.6084,0.076846
3601.5402,0.074580
3602.4720,0.073299
3603.4039,0.073239
3604.3357,0.074011
3605.2675,0.073156
3606.1994,0.070261
3607.1312,0.069495
3608.0630,0.069636
3608.9949,0.069796
3609.9267,0.069157
3610.8585,0.067766
3611.7904,0.067751
3612.7222,0.068670
3613.6540,0.067619
3614.5859,0.065436
3615.5177,0.063812
3616.4495,0.063986
3617.3814,0.063825
3618.3132,0.063935
3619.2450,0.064353
3620.1769,0.063070
3621.1087,0.061846
3622.0405,0.060811
3622.9724,0.059465
3623.9042,0.058450
3624.8360,0.058313
3625.7679,0.057858
3626.6997,0.055984
3627.6316,0.055331
3628.5634,0.055958
3629.4952,0.054308
3630.4271,0.051730
3631.3589,0.050401
3632.2907,0.050427
3633.2226,0.051306
3634.1544,0.052769
3635.0862,0.052178
3636.0181,0.051102
3636.9499,0.051192
3637.8817,0.049590
3638.8136,0.047420
3639.7454,0.046815
3640.6772,0.045836
3641.6091,0.044971
3642.5409,0.045417
3643.4727,0.045951
3644.4046,0.045250
3645.3364,0.043279
3646.2682,0.042333
3647.2001,0.041283
3648.1319,0.040460
3649.0637,0.040773
3649.9956,0.039639
3650.9274,0.039686
3651.8592,0.040161
3652.7911,0.039526
3653.7229,0.038345
3654.6547,0.037730
3655.5866,0.035645
3656.5184,0.034109
3657.4503,0.034008
3658.3821,0.033166
3659.3139,0.033065
3660.2458,0.033627
3661.1776,0.032961
3662.1094,0.031492
3663.0413,0.030556
3663.9731,0.030106
3664.9049,0.028818
3665.8368,0.027007
3666.7686,0.025507
3667.7004,0.024787
3668.6323,0.025106
3669.5641,0.025128
3670.4959,0.025474
3671.4278,0.024915
3672.3596,0.024727
3673.2914,0.023405
3674.2233,0.019209
3675.1551,0.019050
3676.0869,0.019697
3677.0188,0.018153
3677.9506,0.018109
3678.8824,0.018042
3679.8143,0.016629
3680.7461,0.016281
3681.6779,0.015505
3682.6098,0.014717
3683.5416,0.015047
3684.4735,0.015514
3685.4053,0.016105
3686.3371,0.015537
3687.2690,0.013556
3688.2008,0.012688
3689.1326,0.011634
3690.0645,0.010514
3690.9963,0.010471
3691.9281,0.010549
3692.8600,0.009783
3693.7918,0.009422
3694.7236,0.009838
3695.6555,0.010838
3696.5873,0.010941
3697.5191,0.009864
3698.4510,0.010127
3699.3828,0.010049
3700.3146,0.008062
3701.2465,0.006110
3702.1783,0.006248
3703.1101,0.006474
3704.0420,0.006645
3704.9738,0.006813
3705.9056,0.006433
3706.8375,0.006637
3707.7693,0.006529
3708.7011,0.005187
3709.6330,0.005723
3710.5648,0.007607
3711.4967,0.007288
3712.4285,0.006348
3713.3603,0.006577
3714.2922,0.004733
3715.2240,0.003554
3716.1558,0.005399
3717.0877,0.006112
3718.0195,0.005103
3718.9513,0.004314
3719.8832,0.003749
3720.8150,0.003326
3721.7468,0.003026
3722.6787,0.003350
3723.6105,0.003255
3724.5423,0.003564
3725.4742,0.003369
3726.4060,0.003303
3727.3378,0.003376
3728.2697,0.004166
3729.2015,0.004223
3730.1333,0.002991
3731.0652,0.002565
3731.9970,0.002024
3732.9288,0.002738
3733.8607,0.003031
3734.7925,0.001157
3735.7243,-0.000201
3736.6562,0.000496
3737.5880,0.000538
3738.5199,-0.000596
3739.4517,-0.000685
3740.3835,0.002131
3741.3154,0.003389
3742.2472,0.002918
3743.1790,0.002843
3744.1109,0.002543
3745.0427,0.002958
3745.9745,0.003427
3746.9064,0.002045
3747.8382,0.001321
3748.7700,0.001537
3749.7019,0.001785
3750.6337,0.001652
3751.5655,0.002032
3752.4974,0.001136
3753.4292,0.001190
3754.3610,0.001762
3755.2929,0.001655
3756.2247,0.002221
3757.1565,0.002838
3758.0884,0.002554
3759.0202,0.001753
3759.9520,0.000976
3760.8839,0.000878
3761.8157,0.001433
3762.7475,0.002450
3763.6794,0.002433
3764.6112,0.001457
3765.5431,0.001394
3766.4749,0.000915
3767.4067,0.000783
3768.3386,0.001460
3769.2704,0.001489
3770.2022,0.001222
3771.1341,0.000837
3772.0659,0.000869
3772.9977,0.001863
3773.9296,0.002538
3774.8614,0.002223
3775.7932,0.001845
3776.7251,0.001841
3777.6569,0.001960
3778.5887,0.001875
3779.5206,0.002077
3780.4524,0.001976
3781.3842,0.001870
3782.3161,0.001051
3783.2479,0.001309
3784.1797,0.001286
3785.1116,0.000637
3786.0434,0.001155
3786.9752,0.001276
3787.9071,0.001618
3788.8389,0.002612
3789.7707,0.002549
3790.7026,0.002410
3791.6344,0.001373
3792.5662,0.001085
3793.4981,0.001660
3794.4299,0.001987
3795.3618,0.001720
3796.2936,0.000580
3797.2254,0.000535
3798.1573,0.001413
3799.0891,0.001752
3800.0209,0.002049
3800.9528,0.001246
3801.8846,0.000533
3802.8164,0.000668
3803.7483,0.000921
3804.6801,0.001078
3805.6119,0.000518
3806.5438,0.000703
3807.4756,0.002579
3808.4074,0.002932
3809.3393,0.003081
3810.2711,0.002556
3811.2029,0.001717
3812.1348,0.001334
3813.0666,0.000946
3813.9984,0.000325
3814.9303,-0.000025
3815.8621,0.000437
3816.7939,0.000656
3817.7258,0.000584
3818.6576,0.000739
3819.5894,0.001390
3820.5213,0.001553
3821.4531,0.001980
3822.3850,0.002387
3823.3168,0.001170
3824.2486,0.000034
3825.1805,0.000567
3826.1123,0.000945
3827.0441,0.000960
3827.9760,0.000497
3828.9078,-0.000016
3829.8396,0.000273
3830.7715,0.000885
3831.7033,0.000223
3832.6351,-0.000237
3833.5670,0.000248
3834.4988,0.000559
3835.4306,0.000896
3836.3625,0.000268
3837.2943,-0.000641
3838.2261,-0.000814
3839.1580,-0.001729
3840.0898,-0.002196
3841.0216,-0.000881
3841.9535,0.000896
3842.8853,0.001742
3843.8171,0.000202
3844.7490,-0.000283
3845.6808,0.001083
3846.6126,0.001599
3847.5445,0.001818
3848.4763,0.001573
3849.4082,0.001641
3850.3400,0.001363
3851.2718,0.000879
3852.2037,0.000694
3853.1355,-0.000415
3854.0673,-0.000604
3854.9992,0.000947
3855.9310,0.000979
3856.8628,0.001077
3857.7947,0.003304
3858.7265,0.003082
3859.6583,0.001292
3860.5902,0.001718
3861.5220,0.001929
3862.4538,0.001997
3863.3857,0.002602
3864.3175,0.002003
3865.2493,0.000671
3866.1812,-0.000254
3867.1130,-0.001163
3868.0448,-0.000810
3868.9767,-0.000548
3869.9085,-0.000010
3870.8403,0.000185
3871.7722,-0.000802
3872.7040,-0.000206
3873.6358,0.000039
3874.5677,-0.000540
3875.4995,-0.000151
3876.4314,0.000835
3877.3632,0.000764
3878.2950,0.000330
3879.2269,0.000663
3880.1587,0.001227
3881.0905,0.001499
3882.0224,0.002121
3882.9542,0.001256
3883.8860,-0.000129
3884.8179,0.000155
3885.7497,0.000587
3886.6815,-0.000455
3887.6134,-0.000380
3888.5452,0.001413
3889.4770,0.001876
3890.4089,0.000848
3891.3407,0.000690
3892.2725,0.001313
3893.2044,0.001213
3894.1362,-0.000328
3895.0680,0.000062
3895.9999,0.001722
3896.9317,0.001959
3897.8635,0.001956
3898.7954,0.001716
3899.7272,0.000754
3900.6590,0.001137
3901.5909,0.001458
3902.5227,0.001191
3903.4546,0.001255
3904.3864,0.000281
3905.3182,0.000098
3906.2501,-0.000310
3907.1819,-0.001303
3908.1137,-0.000362
3909.0456,0.001946
3909.9774,0.002395
3910.9092,0.001898
3911.8411,0.001544
3912.7729,0.001782
3913.7047,0.001844
3914.6366,0.001571
3915.5684,0.001153
3916.5002,0.000491
3917.4321,0.000688
3918.3639,0.001865
3919.2957,0.001905
3920.2276,0.001347
3921.1594,0.001494
3922.0912,0.001107
3923.0231,0.001379
3923.9549,0.001004
3924.8867,-0.000187
3925.8186,0.000056
3926.7504,0.000036
3927.6822,0.000365
3928.6141,0.000288
3929.5459,0.000480
3930.4777,0.000932
3931.4096,0.000856
3932.3414,0.000865
3933.2733,0.000737
3934.2051,0.000709
3935.1369,0.001055
3936.0688,0.000917
3937.0006,0.001465
3937.9324,0.002176
3938.8643,0.001389
3939.7961,0.000617
3940.7279,0.000496
3941.6598,0.000360
3942.5916,0.000918
3943.5234,0.000821
3944.4553,0.000109
3945.3871,0.000153
3946.3189,0.000458
3947.2508,0.000561
3948.1826,0.001195
3949.1144,0.001500
3950.0463,0.000963
3950.9781,0.001072
3951.9099,0.001913
3952.8418,0.002051
3953.7736,0.001476
3954.7054,0.001187
3955.6373,0.001668
3956.5691,0.001937
3957.5009,0.002459
3958.4328,0.002151
3959.3646,0.000685
3960.2965,0.000397
3961.2283,0.001233
3962.1601,0.001573
3963.0920,0.000759
3964.0238,0.000493
3964.9556,0.000912
3965.8875,0.001845
3966.8193,0.001658
3967.7511,0.001119
3968.6830,0.001942
3969.6148,0.002152
3970.5466,0.000621
3971.4785,-0.000115
3972.4103,0.001361
3973.3421,0.001420
3974.2740,0.000702
3975.2058,0.001910
3976.1376,0.002391
3977.0695,0.001704
3978.0013,0.001622
3978.9331,0.001107
3979.8650,0.000706
3980.7968,0.000818
3981.7286,0.000401
3982.6605,0.001144
3983.5923,0.001970
3984.5241,0.001593
3985.4560,0.001324
3986.3878,0.001567
3987.3197,0.001838
3988.2515,0.002153
3989.1833,0.001497
3990.1152,0.000154
3991.0470,-0.000005
3991.9788,0.000470
3992.9107,0.000566
3993.8425,0.000449
3994.7743,0.000382
3995.7062,0.000609
3996.6380,0.001091
3997.5698,0.001628
3998.5017,0.001812
3999.4335,0.002158
4000.3653,0.001665
