Wavenumber,Intensity
650.4205,0.387406
651.3523,0.390054
652.2841,0.376461
653.2160,0.375482
654.1478,0.378543
655.0796,0.377423
656.0115,0.368944
656.9433,0.364630
657.8751,0.373287
658.8070,0.378642
659.7388,0.371016
660.6706,0.369561
661.6025,0.364179
662.5343,0.365464
663.4661,0.367243
664.3980,0.368023
665.3298,0.363510
666.2616,0.360302
667.1935,0.366739
668.1253,0.388628
669.0571,0.382244
669.9890,0.368441
670.9208,0.362984
671.8526,0.361951
672.7845,0.358699
673.7163,0.354385
674.6481,0.354176
675.5800,0.348288
676.5118,0.340789
677.4437,0.342741
678.3755,0.345243
679.3073,0.347648
680.2392,0.342592
681.1710,0.343568
682.1028,0.347878
683.0347,0.350412
683.9665,0.343711
684.8983,0.339978
685.8302,0.337779
686.7620,0.334856
687.6938,0.337468
688.6257,0.338595
689.5575,0.332866
690.4893,0.325964
691.4212,0.322604
692.3530,0.328673
693.2848,0.334079
694.2167,0.333981
695.1485,0.333155
696.0803,0.334295
697.0122,0.328668
697.9440,0.321924
698.8758,0.321060
699.8077,0.322003
700.7395,0.318616
701.6713,0.315538
702.6032,0.316946
703.5350,0.320541
704.4669,0.317524
705.3987,0.313870
706.3305,0.310908
707.2624,0.310508
708.1942,0.311282
709.1260,0.309212
710.0579,0.305619
710.9897,0.304774
711.9215,0.305379
712.8534,0.306572
713.7852,0.303592
714.7170,0.298240
715.6489,0.294492
716.5807,0.296792
717.5125,0.297971
718.4444,0.295766
719.3762,0.293943
720.3080,0.294059
721.2399,0.293660
722.1717,0.293289
723.1035,0.291422
724.0354,0.290206
724.9672,0.289098
725.8990,0.286560
726.8309,0.284450
727.7627,0.283326
728.6945,0.281390
729.6264,0.279354
730.5582,0.277969
731.4901,0.278623
732.4219,0.278658
733.3537,0.275237
734.2856,0.273638
735.2174,0.273022
736.1492,0.271567
737.0811,0.272376
738.0129,0.271148
738.9447,0.269474
739.8766,0.268027
740.8084,0.265071
741.7402,0.265734
742.6721,0.268073
743.6039,0.263530
744.5357,0.259315
745.4676,0.258829
746.3994,0.259674
747.3312,0.261429
748.2631,0.259772
749.1949,0.253794
750.1267,0.250810
751.0586,0.249181
751.9904,0.248177
752.9222,0.248340
753.8541,0.247526
754.7859,0.246743
755.7177,0.248581
756.6496,0.246441
757.5814,0.243260
758.5132,0.240629
759.4451,0.237988
760.3769,0.236672
761.3088,0.237031
762.2406,0.236279
763.1724,0.235626
764.1043,0.233988
765.0361,0.230904
765.9679,0.228455
766.8998,0.227518
767.8316,0.226698
768.7634,0.224467
769.6953,0.223594
770.6271,0.224167
771.5589,0.223539
772.4908,0.221941
773.4226,0.219860
774.3544,0.219169
775.2863,0.219617
776.2181,0.218433
777.1499,0.217246
778.0818,0.215675
779.0136,0.213286
779.9454,0.212598
780.8773,0.211991
781.8091,0.210186
782.7409,0.207232
783.6728,0.206137
784.6046,0.206758
785.5364,0.207269
786.4683,0.205762
787.4001,0.204406
788.3320,0.203324
789.2638,0.201936
790.1956,0.199755
791.1275,0.198567
792.0593,0.197328
792.9911,0.195420
793.9230,0.194520
794.8548,0.194511
795.7866,0.193660
796.7185,0.192652
797.6503,0.191747
798.5821,0.189542
799.5140,0.187513
800.4458,0.187557
801.3776,0.186018
802.3095,0.183836
803.2413,0.182722
804.1731,0.180787
805.1050,0.180072
806.0368,0.179982
806.9686,0.178307
807.9005,0.177065
808.8323,0.176545
809.7641,0.175432
810.6960,0.173426
811.6278,0.171413
812.5596,0.170362
813.4915,0.169016
814.4233,0.167182
815.3552,0.166498
816.2870,0.165337
817.2188,0.164146
818.1507,0.161891
819.0825,0.160505
820.0143,0.160078
820.9462,0.158607
821.8780,0.157092
822.8098,0.156389
823.7417,0.155727
824.6735,0.154415
825.6053,0.153137
826.5372,0.153207
827.4690,0.152400
828.4008,0.151124
829.3327,0.150033
830.2645,0.148465
831.1963,0.146291
832.1282,0.146091
833.0600,0.146888
833.9918,0.145490
834.9237,0.142824
835.8555,0.141994
836.7873,0.141703
837.7192,0.139896
838.6510,0.138633
839.5828,0.138451
840.5147,0.137857
841.4465,0.136619
842.3784,0.135484
843.3102,0.135152
844.2420,0.133885
845.1739,0.132685
846.1057,0.132457
847.0375,0.132888
847.9694,0.131833
848.9012,0.129384
849.8330,0.127729
850.7649,0.127231
851.6967,0.127107
852.6285,0.126657
853.5604,0.125513
854.4922,0.125131
855.4240,0.125200
856.3559,0.124367
857.2877,0.123222
858.2195,0.122315
859.1514,0.122128
860.0832,0.122206
861.0150,0.121933
861.9469,0.122411
862.8787,0.122246
863.8105,0.121558
864.7424,0.121200
865.6742,0.122154
866.6060,0.123731
867.5379,0.125175
868.4697,0.127062
869.4016,0.128706
870.3334,0.131593
871.2652,0.134686
872.1971,0.137607
873.1289,0.141868
874.0607,0.147094
874.9926,0.152035
875.9244,0.156067
876.8562,0.159116
877.7881,0.160484
878.7199,0.159783
879.6517,0.156225
880.5836,0.150991
881.5154,0.144750
882.4472,0.137699
883.3791,0.130967
884.3109,0.124730
885.2427,0.118352
886.1746,0.112850
887.1064,0.108088
888.0382,0.104741
888.9701,0.101735
889.9019,0.098355
890.8337,0.096037
891.7656,0.094452
892.6974,0.092217
893.6292,0.090251
894.5611,0.089111
895.4929,0.087872
896.4247,0.086788
897.3566,0.085780
898.2884,0.084769
899.2203,0.083896
900.1521,0.082944
901.0839,0.081528
902.0158,0.080402
902.9476,0.080204
903.8794,0.079843
904.8113,0.078944
905.7431,0.078121
906.6749,0.077048
907.6068,0.076803
908.5386,0.076741
909.4704,0.075844
910.4023,0.075430
911.3341,0.075098
912.2659,0.074361
913.1978,0.073881
914.1296,0.073532
915.0614,0.072747
915.9933,0.072263
916.9251,0.071874
917.8569,0.071355
918.7888,0.070678
919.7206,0.070297
920.6524,0.069844
921.5843,0.069006
922.5161,0.068665
923.4479,0.068582
924.3798,0.068034
925.3116,0.067608
926.2435,0.066977
927.1753,0.066525
928.1071,0.066623
929.0390,0.066243
929.9708,0.065600
930.9026,0.065420
931.8345,0.065170
932.7663,0.064482
933.6981,0.063593
934.6300,0.063094
935.5618,0.063304
936.4936,0.063461
937.4255,0.063106
938.3573,0.062981
939.2891,0.062502
940.2210,0.061490
941.1528,0.060894
942.0846,0.061015
943.0165,0.061330
943.9483,0.061074
944.8801,0.060472
945.8120,0.060208
946.7438,0.059790
947.6756,0.059507
948.6075,0.059612
949.5393,0.059379
950.4711,0.059150
951.4030,0.059217
952.3348,0.058514
953.2667,0.057720
954.1985,0.057858
955.1303,0.058068
956.0622,0.057724
956.9940,0.057398
957.9258,0.057493
958.8577,0.057342
959.7895,0.057059
960.7213,0.056822
961.6532,0.056681
962.5850,0.056256
963.5168,0.055968
964.4487,0.055869
965.3805,0.055874
966.3123,0.055871
967.2442,0.055811
968.1760,0.055346
969.1078,0.055017
970.0397,0.055372
970.9715,0.055209
971.9033,0.055071
972.8352,0.055058
973.7670,0.054915
974.6988,0.054905
975.6307,0.054928
976.5625,0.054675
977.4943,0.054385
978.4262,0.054386
979.3580,0.054294
980.2899,0.053972
981.2217,0.053760
982.1535,0.053688
983.0854,0.053619
984.0172,0.053897
984.9490,0.054143
985.8809,0.054035
986.8127,0.053868
987.7445,0.053779
988.6764,0.054004
989.6082,0.054199
990.5400,0.054148
991.4719,0.054221
992.4037,0.054416
993.3355,0.054414
994.2674,0.054536
995.1992,0.054777
996.1310,0.054504
997.0629,0.054383
997.9947,0.054614
998.9265,0.054982
999.8584,0.055286
1000.7902,0.055584
1001.7220,0.055737
1002.6539,0.055898
1003.5857,0.056202
1004.5175,0.056314
1005.4494,0.056408
1006.3812,0.056730
1007.3131,0.057245
1008.2449,0.057796
1009.1767,0.058156
1010.1086,0.058625
1011.0404,0.059039
1011.9722,0.059539
1012.9041,0.060261
1013.8359,0.060838
1014.7677,0.061620
1015.6996,0.062566
1016.6314,0.063413
1017.5632,0.064209
1018.4951,0.065342
1019.4269,0.066605
1020.3587,0.067958
1021.2906,0.069501
1022.2224,0.071384
1023.1542,0.073428
1024.0861,0.075469
1025.0179,0.077723
1025.9497,0.080465
1026.8816,0.083553
1027.8134,0.086679
1028.7452,0.090243
1029.6771,0.094442
1030.6089,0.099050
1031.5407,0.104522
1032.4726,0.111220
1033.4044,0.118695
1034.3362,0.126986
1035.2681,0.136534
1036.1999,0.147620
1037.1318,0.159889
1038.0636,0.173389
1038.9954,0.187796
1039.9273,0.202030
1040.8591,0.215597
1041.7909,0.227502
1042.7228,0.236331
1043.6546,0.241626
1044.5864,0.242658
1045.5183,0.239319
1046.4501,0.231400
1047.3819,0.220206
1048.3138,0.206854
1049.2456,0.191876
1050.1774,0.176490
1051.1093,0.161277
1052.0411,0.146930
1052.9729,0.133724
1053.9048,0.121637
1054.8366,0.110949
1055.7684,0.101676
1056.7003,0.094198
1057.6321,0.087995
1058.5639,0.082847
1059.4958,0.078674
1060.4276,0.075461
1061.3594,0.072792
1062.2913,0.070778
1063.2231,0.069444
1064.1550,0.068602
1065.0868,0.068224
1066.0186,0.067962
1066.9505,0.068009
1067.8823,0.068567
1068.8141,0.069550
1069.7460,0.070432
1070.6778,0.071324
1071.6096,0.072665
1072.5415,0.074584
1073.4733,0.076562
1074.4051,0.078869
1075.3370,0.081142
1076.2688,0.083499
1077.2006,0.086290
1078.1325,0.089221
1079.0643,0.091891
1079.9961,0.094624
1080.9280,0.097616
1081.8598,0.100350
1082.7916,0.102365
1083.7235,0.103659
1084.6553,0.104519
1085.5871,0.104964
1086.5190,0.104756
1087.4508,0.103681
1088.3826,0.101343
1089.3145,0.098134
1090.2463,0.094826
1091.1782,0.091472
1092.1100,0.087665
1093.0418,0.083189
1093.9737,0.078924
1094.9055,0.074834
1095.8373,0.071166
1096.7692,0.067759
1097.7010,0.064531
1098.6328,0.061949
1099.5647,0.059797
1100.4965,0.057687
1101.4283,0.055727
1102.3602,0.054025
1103.2920,0.052616
1104.2238,0.051434
1105.1557,0.050590
1106.0875,0.049864
1107.0193,0.048973
1107.9512,0.048309
1108.8830,0.047822
1109.8148,0.047441
1110.7467,0.047048
1111.6785,0.046682
1112.6103,0.046213
1113.5422,0.045754
1114.4740,0.045594
1115.4058,0.045447
1116.3377,0.045400
1117.2695,0.045215
1118.2014,0.044903
1119.1332,0.044983
1120.0650,0.045149
1120.9969,0.045102
1121.9287,0.044946
1122.8605,0.044746
1123.7924,0.044787
1124.7242,0.044879
1125.6560,0.044859
1126.5879,0.044782
1127.5197,0.044706
1128.4515,0.044673
1129.3834,0.044623
1130.3152,0.044526
1131.2470,0.044201
1132.1789,0.043775
1133.1107,0.043583
1134.0425,0.043538
1134.9744,0.043536
1135.9062,0.043405
1136.8380,0.043282
1137.7699,0.043317
1138.7017,0.043264
1139.6335,0.043194
1140.5654,0.042909
1141.4972,0.042608
1142.4290,0.042605
1143.3609,0.042643
1144.2927,0.042583
1145.2246,0.042638
1146.1564,0.042649
1147.0882,0.042552
1148.0201,0.042410
1148.9519,0.042515
1149.8837,0.042691
1150.8156,0.042677
1151.7474,0.042576
1152.6792,0.042427
1153.6111,0.042349
1154.5429,0.042479
1155.4747,0.042454
1156.4066,0.042543
1157.3384,0.042629
1158.2702,0.042532
1159.2021,0.042305
1160.1339,0.042279
1161.0657,0.042096
1161.9976,0.041937
1162.9294,0.041632
1163.8612,0.041452
1164.7931,0.041257
1165.7249,0.040845
1166.6567,0.040670
1167.5886,0.040656
1168.5204,0.040366
1169.4522,0.040318
1170.3841,0.040529
1171.3159,0.040517
1172.2477,0.040386
1173.1796,0.040355
1174.1114,0.040250
1175.0433,0.040042
1175.9751,0.040015
1176.9069,0.040147
1177.8388,0.039934
1178.7706,0.039851
1179.7024,0.040100
1180.6343,0.039996
1181.5661,0.039953
1182.4979,0.040004
1183.4298,0.039950
1184.3616,0.039922
1185.2934,0.039766
1186.2253,0.039746
1187.1571,0.039781
1188.0889,0.039867
1189.0208,0.039879
1189.9526,0.039933
1190.8844,0.040230
1191.8163,0.040262
1192.7481,0.040013
1193.6799,0.039945
1194.6118,0.040014
1195.5436,0.040129
1196.4754,0.040116
1197.4073,0.039978
1198.3391,0.039784
1199.2709,0.039890
1200.2028,0.040245
1201.1346,0.040325
1202.0665,0.040189
1202.9983,0.040062
1203.9301,0.040009
1204.8620,0.040028
1205.7938,0.039981
1206.7256,0.040103
1207.6575,0.040281
1208.5893,0.040223
1209.5211,0.040279
1210.4530,0.040341
1211.3848,0.040513
1212.3166,0.040653
1213.2485,0.040516
1214.1803,0.040704
1215.1121,0.040934
1216.0440,0.040890
1216.9758,0.040673
1217.9076,0.040534
1218.8395,0.040883
1219.7713,0.041024
1220.7031,0.040796
1221.6350,0.040784
1222.5668,0.040884
1223.4986,0.041014
1224.4305,0.041062
1225.3623,0.040991
1226.2941,0.041071
1227.2260,0.041343
1228.1578,0.041370
1229.0897,0.041442
1230.0215,0.041709
1230.9533,0.041854
1231.8852,0.041875
1232.8170,0.041767
1233.7488,0.041588
1234.6807,0.041781
1235.6125,0.042137
1236.5443,0.042126
1237.4762,0.042196
1238.4080,0.042368
1239.3398,0.042303
1240.2717,0.042563
1241.2035,0.042860
1242.1353,0.042769
1243.0672,0.042734
1243.9990,0.042733
1244.9308,0.042863
1245.8627,0.042838
1246.7945,0.042834
1247.7263,0.043339
1248.6582,0.043681
1249.5900,0.043683
1250.5218,0.043882
1251.4537,0.044076
1252.3855,0.044295
1253.3173,0.044654
1254.2492,0.044787
1255.1810,0.044693
1256.1129,0.044848
1257.0447,0.045288
1257.9765,0.045719
1258.9084,0.046111
1259.8402,0.046681
1260.7720,0.047077
1261.7039,0.047323
1262.6357,0.047629
1263.5675,0.048257
1264.4994,0.048929
1265.4312,0.049369
1266.3630,0.049860
1267.2949,0.050480
1268.2267,0.051009
1269.1585,0.051564
1270.0904,0.052153
1271.0222,0.052736
1271.9540,0.053197
1272.8859,0.053306
1273.8177,0.053261
1274.7495,0.053144
1275.6814,0.052924
1276.6132,0.052854
1277.5450,0.052853
1278.4769,0.052530
1279.4087,0.051885
1280.3405,0.051342
1281.2724,0.050893
1282.2042,0.050519
1283.1361,0.050446
1284.0679,0.050339
1284.9997,0.049998
1285.9316,0.049706
1286.8634,0.049511
1287.7952,0.049245
1288.7271,0.049115
1289.6589,0.049291
1290.5907,0.049408
1291.5226,0.049352
1292.4544,0.049423
1293.3862,0.049600
1294.3181,0.049720
1295.2499,0.049708
1296.1817,0.049877
1297.1136,0.050233
1298.0454,0.050428
1298.9772,0.050682
1299.9091,0.051097
1300.8409,0.051168
1301.7727,0.051127
1302.7046,0.051293
1303.6364,0.051412
1304.5682,0.051819
1305.5001,0.052385
1306.4319,0.052719
1307.3637,0.052908
1308.2956,0.053062
1309.2274,0.053114
1310.1592,0.053337
1311.0911,0.053622
1312.0229,0.053761
1312.9548,0.054031
1313.8866,0.054560
1314.8184,0.054899
1315.7503,0.055015
1316.6821,0.055236
1317.6139,0.055393
1318.5458,0.055281
1319.4776,0.055515
1320.4094,0.056022
1321.3413,0.055945
1322.2731,0.055605
1323.2049,0.055642
1324.1368,0.055879
1325.0686,0.055859
1326.0004,0.055636
1326.9323,0.055407
1327.8641,0.055249
1328.7959,0.055489
1329.7278,0.055768
1330.6596,0.055803
1331.5914,0.055586
1332.5233,0.055113
1333.4551,0.054727
1334.3869,0.054399
1335.3188,0.053952
1336.2506,0.053544
1337.1824,0.053509
1338.1143,0.053436
1339.0461,0.053223
1339.9780,0.053316
1340.9098,0.053562
1341.8416,0.053299
1342.7735,0.052424
1343.7053,0.051591
1344.6371,0.051228
1345.5690,0.051198
1346.5008,0.051016
1347.4326,0.050719
1348.3645,0.050673
1349.2963,0.050735
1350.2281,0.050491
1351.1600,0.050079
1352.0918,0.049587
1353.0236,0.049033
1353.9555,0.048926
1354.8873,0.049097
1355.8191,0.049376
1356.7510,0.049431
1357.6828,0.049171
1358.6146,0.048937
1359.5465,0.048849
1360.4783,0.048757
1361.4101,0.048618
1362.3420,0.049081
1363.2738,0.050137
1364.2056,0.051211
1365.1375,0.051237
1366.0693,0.050645
1367.0012,0.050649
1367.9330,0.051084
1368.8648,0.051804
1369.7967,0.052750
1370.7285,0.053397
1371.6603,0.053854
1372.5922,0.054550
1373.5240,0.055720
1374.4558,0.057441
1375.3877,0.059524
1376.3195,0.060922
1377.2513,0.061308
1378.1832,0.061640
1379.1150,0.062470
1380.0468,0.063293
1380.9787,0.063947
1381.9105,0.064339
1382.8423,0.064393
1383.7742,0.064410
1384.7060,0.064456
1385.6378,0.064573
1386.5697,0.064501
1387.5015,0.064745
1388.4333,0.065550
1389.3652,0.064940
1390.2970,0.063522
1391.2288,0.062674
1392.1607,0.062023
1393.0925,0.061176
1394.0244,0.060531
1394.9562,0.060941
1395.8880,0.062038
1396.8199,0.062060
1397.7517,0.061413
1398.6835,0.061240
1399.6154,0.061951
1400.5472,0.062668
1401.4790,0.062184
1402.4109,0.061733
1403.3427,0.061808
1404.2745,0.061646
1405.2064,0.062153
1406.1382,0.063552
1407.0700,0.063573
1408.0019,0.062949
1408.9337,0.063084
1409.8655,0.063413
1410.7974,0.063421
1411.7292,0.063430
1412.6610,0.063541
1413.5929,0.063519
1414.5247,0.063279
1415.4565,0.062825
1416.3884,0.062562
1417.3202,0.062481
1418.2520,0.062568
1419.1839,0.063225
1420.1157,0.064954
1421.0476,0.065491
1421.9794,0.063638
1422.9112,0.062383
1423.8431,0.062160
1424.7749,0.062384
1425.7067,0.062213
1426.6386,0.061217
1427.5704,0.060420
1428.5022,0.060153
1429.4341,0.059854
1430.3659,0.059828
1431.2977,0.059903
1432.2296,0.058717
1433.1614,0.057401
1434.0932,0.057063
1435.0251,0.056829
1435.9569,0.056260
1436.8887,0.056440
1437.8206,0.057853
1438.7524,0.057433
1439.6842,0.055835
1440.6161,0.055304
1441.5479,0.055488
1442.4797,0.055489
1443.4116,0.055419
1444.3434,0.055649
1445.2752,0.056025
1446.2071,0.056624
1447.1389,0.057669
1448.0707,0.058921
1449.0026,0.060594
1449.9344,0.061396
1450.8663,0.060957
1451.7981,0.060814
1452.7299,0.060908
1453.6618,0.060656
1454.5936,0.059971
1455.5254,0.059119
1456.4573,0.058528
1457.3891,0.059866
1458.3209,0.061416
1459.2528,0.059352
1460.1846,0.056950
1461.1164,0.054599
1462.0483,0.052489
1462.9801,0.051095
1463.9119,0.050320
1464.8438,0.049634
1465.7756,0.049252
1466.7074,0.049060
1467.6393,0.048117
1468.5711,0.046726
1469.5029,0.045504
1470.4348,0.044854
1471.3666,0.044506
1472.2984,0.044550
1473.2303,0.045773
1474.1621,0.046577
1475.0939,0.046186
1476.0258,0.045675
1476.9576,0.045874
1477.8895,0.046607
1478.8213,0.046369
1479.7531,0.045922
1480.6850,0.045794
1481.6168,0.045902
1482.5486,0.046129
1483.4805,0.045917
1484.4123,0.045607
1485.3441,0.045571
1486.2760,0.045222
1487.2078,0.044723
1488.1396,0.045011
1489.0715,0.045330
1490.0033,0.044862
1490.9351,0.044783
1491.8670,0.044746
1492.7988,0.043623
1493.7306,0.042360
1494.6625,0.041508
1495.5943,0.041108
1496.5261,0.041236
1497.4580,0.042162
1498.3898,0.042405
1499.3216,0.041950
1500.2535,0.041825
1501.1853,0.041188
1502.1171,0.040457
1503.0490,0.040203
1503.9808,0.039858
1504.9127,0.039183
1505.8445,0.038448
1506.7763,0.039330
1507.7082,0.042413
1508.6400,0.043571
1509.5718,0.043189
1510.5037,0.042522
1511.4355,0.041905
1512.3673,0.041327
1513.2992,0.041158
1514.2310,0.040804
1515.1628,0.040053
1516.0947,0.039813
1517.0265,0.040108
1517.9583,0.041215
1518.8902,0.041741
1519.8220,0.040648
1520.7538,0.040154
1521.6857,0.041247
1522.6175,0.042732
1523.5493,0.042409
1524.4812,0.041338
1525.4130,0.040886
1526.3448,0.041503
1527.2767,0.042424
1528.2085,0.042256
1529.1403,0.041784
1530.0722,0.041350
1531.0040,0.040919
1531.9359,0.040709
1532.8677,0.040898
1533.7995,0.041663
1534.7314,0.043007
1535.6632,0.043304
1536.5950,0.041929
1537.5269,0.040353
1538.4587,0.039560
1539.3905,0.039961
1540.3224,0.041933
1541.2542,0.044468
1542.1860,0.044926
1543.1179,0.044730
1544.0497,0.044327
1544.9815,0.043698
1545.9134,0.043979
1546.8452,0.044659
1547.7770,0.044162
1548.7089,0.043640
1549.6407,0.043713
1550.5725,0.044485
1551.5044,0.045651
1552.4362,0.045066
1553.3680,0.044137
1554.2999,0.044130
1555.2317,0.044780
1556.1635,0.044958
1557.0954,0.043929
1558.0272,0.043367
1558.9591,0.045917
1559.8909,0.051597
1560.8227,0.052268
1561.7546,0.050133
1562.6864,0.048626
1563.6182,0.047584
1564.5501,0.046936
1565.4819,0.047481
1566.4137,0.048884
1567.3456,0.049130
1568.2774,0.049023
1569.2092,0.049572
1570.1411,0.050510
1571.0729,0.052032
1572.0047,0.052085
1572.9366,0.051032
1573.8684,0.050434
1574.8002,0.050812
1575.7321,0.051894
1576.6639,0.054085
1577.5957,0.057233
1578.5276,0.057454
1579.4594,0.056330
1580.3912,0.055865
1581.3231,0.056436
1582.2549,0.057117
1583.1867,0.057318
1584.1186,0.057969
1585.0504,0.058988
1585.9822,0.059605
1586.9141,0.060294
1587.8459,0.061059
1588.7778,0.061649
1589.7096,0.062313
1590.6414,0.063033
1591.5733,0.064259
1592.5051,0.065626
1593.4369,0.066691
1594.3688,0.067591
1595.3006,0.068510
1596.2324,0.070026
1597.1643,0.071295
1598.0961,0.072144
1599.0279,0.073236
1599.9598,0.074265
1600.8916,0.075230
1601.8234,0.076873
1602.7553,0.078822
1603.6871,0.079965
1604.6189,0.081337
1605.5508,0.082967
1606.4826,0.084010
1607.4144,0.085779
1608.3463,0.088444
1609.2781,0.090485
1610.2099,0.092104
1611.1418,0.094055
1612.0736,0.095034
1613.0054,0.095511
1613.9373,0.097116
1614.8691,0.098748
1615.8010,0.100454
1616.7328,0.104086
1617.6646,0.110810
1618.5965,0.114633
1619.5283,0.112896
1620.4601,0.112938
1621.3920,0.114767
1622.3238,0.116562
1623.2556,0.118949
1624.1875,0.123437
1625.1193,0.127769
1626.0511,0.128134
1626.9830,0.128308
1627.9148,0.129890
1628.8466,0.132546
1629.7785,0.134972
1630.7103,0.134379
1631.6421,0.133736
1632.5740,0.133730
1633.5058,0.134070
1634.4376,0.134609
1635.3695,0.137628
1636.3013,0.145948
1637.2331,0.151820
1638.1650,0.148063
1639.0968,0.146067
1640.0286,0.144286
1640.9605,0.142556
1641.8923,0.141462
1642.8242,0.139825
1643.7560,0.138995
1644.6878,0.138887
1645.6197,0.137715
1646.5515,0.137813
1647.4833,0.140070
1648.4152,0.140190
1649.3470,0.138823
1650.2788,0.136510
1651.2107,0.132383
1652.1425,0.129582
1653.0743,0.131026
1654.0062,0.139913
1654.9380,0.143251
1655.8698,0.136610
1656.8017,0.131156
1657.7335,0.128047
1658.6653,0.125624
1659.5972,0.123518
1660.5290,0.121796
1661.4608,0.120173
1662.3927,0.118921
1663.3245,0.118312
1664.2563,0.117149
1665.1882,0.114853
1666.1200,0.112116
1667.0518,0.109609
1667.9837,0.108099
1668.9155,0.107003
1669.8474,0.106049
1670.7792,0.105710
1671.7110,0.103467
1672.6429,0.100730
1673.5747,0.098547
1674.5065,0.096573
1675.4384,0.095634
1676.3702,0.095298
1677.3020,0.093356
1678.2339,0.090309
1679.1657,0.087708
1680.0975,0.085557
1681.0294,0.083838
1681.9612,0.082664
1682.8930,0.080918
1683.8249,0.079142
1684.7567,0.078794
1685.6885,0.079319
1686.6204,0.077040
1687.5522,0.074264
1688.4840,0.072669
1689.4159,0.071407
1690.3477,0.069468
1691.2795,0.067507
1692.2114,0.065753
1693.1432,0.064114
1694.0750,0.062464
1695.0069,0.060421
1695.9387,0.058920
1696.8706,0.059041
1697.8024,0.059021
1698.7342,0.056798
1699.6661,0.054437
1700.5979,0.053478
1701.5297,0.054231
1702.4616,0.052952
1703.3934,0.050317
1704.3252,0.048657
1705.2571,0.048036
1706.1889,0.047296
1707.1207,0.046010
1708.0526,0.045304
1708.9844,0.044198
1709.9162,0.042501
1710.8481,0.041367
1711.7799,0.040778
1712.7117,0.039629
1713.6436,0.038537
1714.5754,0.038103
1715.5072,0.037632
1716.4391,0.037444
1717.3709,0.036511
1718.3027,0.035345
1719.2346,0.035629
1720.1664,0.035248
1721.0982,0.034019
1722.0301,0.032752
1722.9619,0.031993
1723.8937,0.031565
1724.8256,0.031165
1725.7574,0.030521
1726.6893,0.029944
1727.6211,0.029446
1728.5529,0.028827
1729.4848,0.028235
1730.4166,0.028110
1731.3484,0.027968
1732.2803,0.027367
1733.2121,0.026168
1734.1439,0.025055
1735.0758,0.026183
1736.0076,0.026948
1736.9394,0.025984
1737.8713,0.024834
1738.8031,0.023780
1739.7349,0.022917
1740.6668,0.022863
1741.5986,0.023383
1742.5304,0.023261
1743.4623,0.022585
1744.3941,0.022193
1745.3259,0.021780
1746.2578,0.021476
1747.1896,0.021587
1748.1214,0.021464
1749.0533,0.020851
1749.9851,0.020750
1750.9169,0.021060
1751.8488,0.020890
1752.7806,0.020210
1753.7125,0.019845
1754.6443,0.019450
1755.5761,0.019129
1756.5080,0.018836
1757.4398,0.018680
1758.3716,0.019213
1759.3035,0.019132
1760.2353,0.018498
1761.1671,0.017981
1762.0990,0.017614
1763.0308,0.017765
1763.9626,0.018065
1764.8945,0.017584
1765.8263,0.016790
1766.7581,0.016326
1767.6900,0.016116
1768.6218,0.016063
1769.5536,0.016406
1770.4855,0.016112
1771.4173,0.015329
1772.3491,0.015321
1773.2810,0.016114
1774.2128,0.015971
1775.1446,0.015498
1776.0765,0.015017
1777.0083,0.014869
1777.9401,0.014546
1778.8720,0.014467
1779.8038,0.014697
1780.7357,0.014946
1781.6675,0.014881
1782.5993,0.014251
1783.5312,0.014193
1784.4630,0.014141
1785.3948,0.014386
1786.3267,0.014717
1787.2585,0.013942
1788.1903,0.013404
1789.1222,0.013724
1790.0540,0.013603
1790.9858,0.013022
1791.9177,0.012680
1792.8495,0.012640
1793.7813,0.012590
1794.7132,0.013430
1795.6450,0.013376
1796.5768,0.012496
1797.5087,0.012313
1798.4405,0.012657
1799.3723,0.012633
1800.3042,0.012694
1801.2360,0.012680
1802.1678,0.012371
1803.0997,0.012123
1804.0315,0.012050
1804.9633,0.011986
1805.8952,0.011782
1806.8270,0.012091
1807.7589,0.012231
1808.6907,0.011981
1809.6225,0.011604
1810.5544,0.011740
1811.4862,0.011640
1812.4180,0.011196
1813.3499,0.011145
1814.2817,0.010889
1815.2135,0.010991
1816.1454,0.011429
1817.0772,0.010997
1818.0090,0.010699
1818.9409,0.010851
1819.8727,0.010851
1820.8045,0.011120
1821.7364,0.011138
1822.6682,0.010764
1823.6000,0.010465
1824.5319,0.010433
1825.4637,0.010742
1826.3955,0.011475
1827.3274,0.010770
1828.2592,0.009716
1829.1910,0.010407
1830.1229,0.010259
1831.0547,0.009815
1831.9865,0.010373
1832.9184,0.010411
1833.8502,0.010267
1834.7821,0.010518
1835.7139,0.010586
1836.6457,0.010165
1837.5776,0.009949
1838.5094,0.009766
1839.4412,0.009632
1840.3731,0.009487
1841.3049,0.010013
1842.2367,0.010170
1843.1686,0.009540
1844.1004,0.009462
1845.0322,0.009635
1845.9641,0.009439
1846.8959,0.009362
1847.8277,0.009217
1848.7596,0.009061
1849.6914,0.009378
1850.6232,0.009838
1851.5551,0.009423
1852.4869,0.009474
1853.4187,0.009384
1854.3506,0.008821
1855.2824,0.009112
1856.2142,0.009495
1857.1461,0.009433
1858.0779,0.009239
1859.0097,0.008771
1859.9416,0.009162
1860.8734,0.009429
1861.8052,0.009465
1862.7371,0.010025
1863.6689,0.010012
1864.6008,0.009289
1865.5326,0.009144
1866.4644,0.008909
1867.3963,0.008558
1868.3281,0.008805
1869.2599,0.008529
1870.1918,0.008059
1871.1236,0.008732
1872.0554,0.009504
1872.9873,0.008958
1873.9191,0.008756
1874.8509,0.009084
1875.7828,0.009193
1876.7146,0.008911
1877.6464,0.008254
1878.5783,0.008646
1879.5101,0.009424
1880.4419,0.009407
1881.3738,0.008742
1882.3056,0.009031
1883.2374,0.009409
1884.1693,0.009087
1885.1011,0.009261
1886.0329,0.008653
1886.9648,0.007910
1887.8966,0.007518
1888.8284,0.007749
1889.7603,0.008896
1890.6921,0.009259
1891.6240,0.008997
1892.5558,0.008545
1893.4876,0.008868
1894.4195,0.008668
1895.3513,0.009255
1896.2831,0.009813
1897.2150,0.009017
1898.1468,0.008543
1899.0786,0.008329
1900.0105,0.007819
1900.9423,0.008244
1901.8741,0.008406
1902.8060,0.007898
1903.7378,0.008311
1904.6696,0.009041
1905.6015,0.009256
1906.5333,0.009447
1907.4651,0.009095
1908.3970,0.008654
1909.3288,0.009253
1910.2606,0.009597
1911.1925,0.009404
1912.1243,0.008452
1913.0561,0.009207
1913.9880,0.010168
1914.9198,0.008840
1915.8516,0.007932
1916.7835,0.008488
1917.7153,0.008713
1918.6472,0.008628
1919.5790,0.007703
1920.5108,0.007328
1921.4427,0.007329
1922.3745,0.008707
1923.3063,0.009346
1924.2382,0.009092
1925.1700,0.008252
1926.1018,0.007906
1927.0337,0.007982
1927.9655,0.007807
1928.8973,0.007961
1929.8292,0.007669
1930.7610,0.007836
1931.6928,0.008269
1932.6247,0.007416
1933.5565,0.007522
1934.4883,0.008772
1935.4202,0.009581
1936.3520,0.008357
1937.2838,0.007581
1938.2157,0.005877
1939.1475,0.004250
1940.0793,0.005272
1941.0112,0.006698
1941.9430,0.008747
1942.8748,0.008452
1943.8067,0.006327
1944.7385,0.004199
1945.6704,0.005376
1946.6022,0.006018
1947.5340,0.005296
1948.4659,0.003999
1949.3977,0.004301
1950.3295,0.004585
1951.2614,0.007251
1952.1932,0.007629
1953.1250,0.004825
1954.0569,0.005343
1954.9887,0.007361
1955.9205,0.007548
1956.8524,0.007475
1957.7842,0.008536
1958.7160,0.008905
1959.6479,0.007957
1960.5797,0.008925
1961.5115,0.009003
1962.4434,0.006614
1963.3752,0.006210
1964.3070,0.005464
1965.2389,0.003072
1966.1707,0.005197
1967.1025,0.006891
1968.0344,0.004933
1968.9662,0.004242
1969.8980,0.001352
1970.8299,0.001174
1971.7617,0.003477
1972.6936,0.002716
1973.6254,0.000848
1974.5572,0.003261
1975.4891,0.007399
1976.4209,0.004648
1977.3527,0.004150
1978.2846,0.004547
1979.2164,0.001283
1980.1482,0.004646
1981.0801,0.005566
1982.0119,0.004935
1982.9437,0.005603
1983.8756,0.005225
1984.8074,0.005023
1985.7392,0.003440
1986.6711,0.004164
1987.6029,0.004927
1988.5347,0.003552
1989.4666,0.001397
1990.3984,0.001236
1991.3302,0.004667
1992.2621,0.007787
1993.1939,0.006483
1994.1257,0.003845
1995.0576,0.004108
1995.9894,0.007619
1996.9212,0.008401
1997.8531,0.006005
1998.7849,0.006242
1999.7167,0.007047
2000.6486,0.005169
2001.5804,0.003987
2002.5123,0.006167
2003.4441,0.007669
2004.3759,0.007644
2005.3078,0.006048
2006.2396,0.004529
2007.1714,0.004389
2008.1033,0.000406
2009.0351,0.001661
2009.9669,0.004969
2010.8988,0.004301
2011.8306,0.004015
2012.7624,0.005093
2013.6943,0.005340
2014.6261,0.004265
2015.5579,0.004019
2016.4898,0.002416
2017.4216,0.002556
2018.3534,0.003073
2019.2853,0.006510
2020.2171,0.010566
2021.1489,0.010965
2022.0808,0.009889
2023.0126,0.005719
2023.9444,0.006432
2024.8763,0.010020
2025.8081,0.004793
2026.7399,0.002265
2027.6718,0.004511
2028.6036,0.001464
2029.5355,0.000428
2030.4673,0.002953
2031.3991,0.004855
2032.3310,0.002812
2033.2628,0.001763
2034.1946,0.005210
2035.1265,0.005806
2036.0583,0.005490
2036.9901,0.007093
2037.9220,0.007021
2038.8538,0.007508
2039.7856,0.006008
2040.7175,0.004008
2041.6493,0.005840
2042.5811,0.008551
2043.5130,0.008495
2044.4448,0.006710
2045.3766,0.005028
2046.3085,0.006552
2047.2403,0.008684
2048.1721,0.008264
2049.1040,0.009126
2050.0358,0.010532
2050.9676,0.009704
2051.8995,0.012005
2052.8313,0.011061
2053.7631,0.008134
2054.6950,0.007291
2055.6268,0.009376
2056.5587,0.011490
2057.4905,0.011835
2058.4223,0.011036
2059.3542,0.010355
2060.2860,0.009518
2061.2178,0.009221
2062.1497,0.010203
2063.0815,0.012817
2064.0133,0.012714
2064.9452,0.010347
2065.8770,0.010154
2066.8088,0.011088
2067.7407,0.011886
2068.6725,0.010737
2069.6043,0.010601
2070.5362,0.013296
2071.4680,0.013906
2072.3998,0.013436
2073.3317,0.014591
2074.2635,0.015089
2075.1953,0.013451
2076.1272,0.012279
2077.0590,0.011562
2077.9908,0.011224
2078.9227,0.013147
2079.8545,0.014308
2080.7863,0.014412
2081.7182,0.013220
2082.6500,0.011866
2083.5819,0.013207
2084.5137,0.015017
2085.4455,0.014682
2086.3774,0.013217
2087.3092,0.012336
2088.2410,0.012823
2089.1729,0.013744
2090.1047,0.013321
2091.0365,0.013450
2091.9684,0.013184
2092.9002,0.012621
2093.8320,0.012774
2094.7639,0.014169
2095.6957,0.015052
2096.6275,0.014480
2097.5594,0.013274
2098.4912,0.012874
2099.4230,0.012497
2100.3549,0.012235
2101.2867,0.013053
2102.2185,0.013538
2103.1504,0.012505
2104.0822,0.012439
2105.0140,0.013565
2105.9459,0.014147
2106.8777,0.012235
2107.8095,0.011346
2108.7414,0.012882
2109.6732,0.014549
2110.6051,0.013534
2111.5369,0.011904
2112.4687,0.011804
2113.4006,0.012481
2114.3324,0.013365
2115.2642,0.013454
2116.1961,0.012647
2117.1279,0.012973
2118.0597,0.012763
2118.9916,0.014047
2119.9234,0.015294
2120.8552,0.014581
2121.7871,0.014898
2122.7189,0.014648
2123.6507,0.013748
2124.5826,0.012953
2125.5144,0.012942
2126.4462,0.013263
2127.3781,0.014625
2128.3099,0.014789
2129.2417,0.014581
2130.1736,0.015147
2131.1054,0.013563
2132.0372,0.012774
2132.9691,0.013247
2133.9009,0.015469
2134.8327,0.015628
2135.7646,0.010126
2136.6964,0.007903
2137.6282,0.010557
2138.5601,0.011500
2139.4919,0.010994
2140.4238,0.011285
2141.3556,0.011139
2142.2874,0.011196
2143.2193,0.009786
2144.1511,0.008287
2145.0829,0.010045
2146.0148,0.010796
2146.9466,0.008499
2147.8784,0.007734
2148.8103,0.008379
2149.7421,0.008946
2150.6739,0.007850
2151.6058,0.007880
2152.5376,0.009069
2153.4694,0.007370
2154.4013,0.005030
2155.3331,0.007676
2156.2649,0.009161
2157.1968,0.006494
2158.1286,0.007554
2159.0604,0.007083
2159.9923,0.004439
2160.9241,0.002676
2161.8559,0.002519
2162.7878,0.004341
2163.7196,0.007941
2164.6514,0.009286
2165.5833,0.005825
2166.5151,0.003384
2167.4470,0.005356
2168.3788,0.006964
2169.3106,0.006782
2170.2425,0.008446
2171.1743,0.009579
2172.1061,0.009945
2173.0380,0.010242
2173.9698,0.009866
2174.9016,0.006515
2175.8335,0.002134
2176.7653,0.002004
2177.6971,0.004569
2178.6290,0.007692
2179.5608,0.009057
2180.4926,0.008736
2181.4245,0.008865
2182.3563,0.006762
2183.2881,0.003287
2184.2200,0.004375
2185.1518,0.007573
2186.0836,0.008849
2187.0155,0.009929
2187.9473,0.008905
2188.8791,0.007274
2189.8110,0.007797
2190.7428,0.006659
2191.6746,0.005214
2192.6065,0.006070
2193.5383,0.007474
2194.4702,0.007730
2195.4020,0.007613
2196.3338,0.007880
2197.2657,0.006797
2198.1975,0.007905
2199.1293,0.009264
2200.0612,0.006859
2200.9930,0.006707
2201.9248,0.009288
2202.8567,0.009304
2203.7885,0.009580
2204.7203,0.009802
2205.6522,0.010158
2206.5840,0.010353
2207.5158,0.009670
2208.4477,0.009620
2209.3795,0.010130
2210.3113,0.010970
2211.2432,0.010989
2212.1750,0.010011
2213.1068,0.008931
2214.0387,0.007649
2214.9705,0.007219
2215.9023,0.008761
2216.8342,0.008677
2217.7660,0.007038
2218.6978,0.007583
2219.6297,0.008493
2220.5615,0.008446
2221.4934,0.010166
2222.4252,0.011114
2223.3570,0.010597
2224.2889,0.009344
2225.2207,0.009364
2226.1525,0.008250
2227.0844,0.007619
2228.0162,0.008927
2228.9480,0.009389
2229.8799,0.009249
2230.8117,0.010072
2231.7435,0.011141
2232.6754,0.010623
2233.6072,0.010232
2234.5390,0.010562
2235.4709,0.010637
2236.4027,0.008849
2237.3345,0.006548
2238.2664,0.007030
2239.1982,0.009389
2240.1300,0.010132
2241.0619,0.010525
2241.9937,0.010994
2242.9255,0.010128
2243.8574,0.008263
2244.7892,0.008471
2245.7210,0.010355
2246.6529,0.009773
2247.5847,0.007841
2248.5166,0.008108
2249.4484,0.009739
2250.3802,0.009824
2251.3121,0.008496
2252.2439,0.007819
2253.1757,0.008241
2254.1076,0.008369
2255.0394,0.008107
2255.9712,0.009842
2256.9031,0.010922
2257.8349,0.009524
2258.7667,0.009252
2259.6986,0.009878
2260.6304,0.009524
2261.5622,0.009542
2262.4941,0.010142
2263.4259,0.010078
2264.3577,0.008758
2265.2896,0.008381
2266.2214,0.008367
2267.1532,0.008562
2268.0851,0.009468
2269.0169,0.009251
2269.9487,0.009536
2270.8806,0.009823
2271.8124,0.009394
2272.7442,0.009438
2273.6761,0.008533
2274.6079,0.007420
2275.5397,0.008299
2276.4716,0.009776
2277.4034,0.009051
2278.3353,0.008042
2279.2671,0.008540
2280.1989,0.008810
2281.1308,0.008426
2282.0626,0.008262
2282.9944,0.009524
2283.9263,0.010023
2284.8581,0.009359
2285.7899,0.009454
2286.7218,0.009770
2287.6536,0.009170
2288.5854,0.009001
2289.5173,0.009609
2290.4491,0.009418
2291.3809,0.009383
2292.3128,0.010206
2293.2446,0.010266
2294.1764,0.009542
2295.1083,0.008752
2296.0401,0.008431
2296.9719,0.008752
2297.9038,0.009117
2298.8356,0.009809
2299.7674,0.009931
2300.6993,0.008734
2301.6311,0.008131
2302.5629,0.008716
2303.4948,0.009490
2304.4266,0.009629
2305.3585,0.009413
2306.2903,0.009872
2307.2221,0.010271
2308.1540,0.009928
2309.0858,0.009314
2310.0176,0.008925
2310.9495,0.009026
2311.8813,0.008669
2312.8131,0.008081
2313.7450,0.008769
2314.6768,0.009716
2315.6086,0.009376
2316.5405,0.008298
2317.4723,0.008228
2318.4041,0.009314
2319.3360,0.010289
2320.2678,0.009503
2321.1996,0.008511
2322.1315,0.008970
2323.0633,0.008876
2323.9951,0.008831
2324.9270,0.009765
2325.8588,0.009839
2326.7906,0.009022
2327.7225,0.008455
2328.6543,0.008336
2329.5861,0.008077
2330.5180,0.007917
2331.4498,0.009059
2332.3817,0.009921
2333.3135,0.009280
2334.2453,0.008262
2335.1772,0.007683
2336.1090,0.007907
2337.0408,0.008413
2337.9727,0.008997
2338.9045,0.009364
2339.8363,0.008791
2340.7682,0.008348
2341.7000,0.008485
2342.6318,0.009322
2343.5637,0.010174
2344.4955,0.010087
2345.4273,0.009484
2346.3592,0.008670
2347.2910,0.008624
2348.2228,0.009292
2349.1547,0.009362
2350.0865,0.008561
2351.0183,0.007987
2351.9502,0.008260
2352.8820,0.008525
2353.8138,0.008551
2354.7457,0.008365
2355.6775,0.008367
2356.6093,0.008561
2357.5412,0.007957
2358.4730,0.006974
2359.4049,0.006132
2360.3367,0.005541
2361.2685,0.006354
2362.2004,0.008277
2363.1322,0.008543
2364.0640,0.007398
2364.9959,0.007093
2365.9277,0.007335
2366.8595,0.007322
2367.7914,0.007510
2368.7232,0.007801
2369.6550,0.007907
2370.5869,0.007681
2371.5187,0.007367
2372.4505,0.007158
2373.3824,0.007295
2374.3142,0.007491
2375.2460,0.008075
2376.1779,0.008516
2377.1097,0.008252
2378.0415,0.008045
2378.9734,0.007305
2379.9052,0.006805
2380.8370,0.007105
2381.7689,0.007195
2382.7007,0.007649
2383.6325,0.008213
2384.5644,0.007888
2385.4962,0.007566
2386.4281,0.007580
2387.3599,0.007364
2388.2917,0.006904
2389.2236,0.006758
2390.1554,0.007299
2391.0872,0.007464
2392.0191,0.006879
2392.9509,0.006514
2393.8827,0.006816
2394.8146,0.007399
2395.7464,0.007416
2396.6782,0.006991
2397.6101,0.006827
2398.5419,0.006905
2399.4737,0.006857
2400.4056,0.006705
2401.3374,0.006809
2402.2692,0.006969
2403.2011,0.007053
2404.1329,0.007315
2405.0647,0.007700
2405.9966,0.007793
2406.9284,0.007522
2407.8602,0.007305
2408.7921,0.007205
2409.7239,0.007222
2410.6557,0.006910
2411.5876,0.006700
2412.5194,0.006840
2413.4512,0.006606
2414.3831,0.006539
2415.3149,0.006405
2416.2468,0.006090
2417.1786,0.006512
2418.1104,0.006638
2419.0423,0.005905
2419.9741,0.005962
2420.9059,0.006466
2421.8378,0.005867
2422.7696,0.005431
2423.7014,0.006021
2424.6333,0.006395
2425.5651,0.006504
2426.4969,0.006973
2427.4288,0.007020
2428.3606,0.006704
2429.2924,0.006309
2430.2243,0.005897
2431.1561,0.005473
2432.0879,0.005570
2433.0198,0.006059
2433.9516,0.005817
2434.8834,0.004669
2435.8153,0.004167
2436.7471,0.004967
2437.6789,0.005876
2438.6108,0.005579
2439.5426,0.005189
2440.4744,0.005394
2441.4063,0.005520
2442.3381,0.005557
2443.2700,0.005401
2444.2018,0.005492
2445.1336,0.006365
2446.0655,0.006510
2446.9973,0.005910
2447.9291,0.005573
2448.8610,0.005705
2449.7928,0.006054
2450.7246,0.005950
2451.6565,0.005498
2452.5883,0.005733
2453.5201,0.005971
2454.4520,0.005377
2455.3838,0.005641
2456.3156,0.005944
2457.2475,0.005215
2458.1793,0.004787
2459.1111,0.005341
2460.0430,0.005908
2460.9748,0.005629
2461.9066,0.005566
2462.8385,0.005955
2463.7703,0.005663
2464.7021,0.005066
2465.6340,0.005038
2466.5658,0.005829
2467.4976,0.006094
2468.4295,0.005202
2469.3613,0.004900
2470.2932,0.005228
2471.2250,0.005172
2472.1568,0.005497
2473.0887,0.005978
2474.0205,0.005174
2474.9523,0.004418
2475.8842,0.004823
2476.8160,0.005505
2477.7478,0.005382
2478.6797,0.004829
2479.6115,0.005429
2480.5433,0.005635
2481.4752,0.005162
2482.4070,0.005177
2483.3388,0.005559
2484.2707,0.005807
2485.2025,0.005419
2486.1343,0.004909
2487.0662,0.004474
2487.9980,0.004811
2488.9298,0.005595
2489.8617,0.006038
2490.7935,0.006159
2491.7253,0.006246
2492.6572,0.005906
2493.5890,0.005414
2494.5208,0.005500
2495.4527,0.006006
2496.3845,0.005959
2497.3164,0.005642
2498.2482,0.005500
2499.1800,0.005185
2500.1119,0.004969
2501.0437,0.005028
2501.9755,0.005278
2502.9074,0.005513
2503.8392,0.005537
2504.7710,0.005526
2505.7029,0.005876
2506.6347,0.006148
2507.5665,0.005772
2508.4984,0.005979
2509.4302,0.006127
2510.3620,0.005062
2511.2939,0.004490
2512.2257,0.004919
2513.1575,0.005165
2514.0894,0.005080
2515.0212,0.004926
2515.9530,0.004498
2516.8849,0.004734
2517.8167,0.005578
2518.7485,0.005204
2519.6804,0.004903
2520.6122,0.005898
2521.5440,0.005813
2522.4759,0.005515
2523.4077,0.005846
2524.3396,0.005845
2525.2714,0.005363
2526.2032,0.004808
2527.1351,0.004982
2528.0669,0.004850
2528.9987,0.005136
2529.9306,0.005797
2530.8624,0.005659
2531.7942,0.005180
2532.7261,0.004720
2533.6579,0.005259
2534.5897,0.005502
2535.5216,0.004218
2536.4534,0.004117
2537.3852,0.005426
2538.3171,0.005793
2539.2489,0.005063
2540.1807,0.005152
2541.1126,0.005753
2542.0444,0.006293
2542.9762,0.006943
2543.9081,0.006157
2544.8399,0.004928
2545.7717,0.004631
2546.7036,0.004688
2547.6354,0.004641
2548.5672,0.004791
2549.4991,0.005208
2550.4309,0.005526
2551.3627,0.004892
2552.2946,0.004292
2553.2264,0.003992
2554.1583,0.004362
2555.0901,0.004861
2556.0219,0.005120
2556.9538,0.005266
2557.8856,0.005365
2558.8174,0.004177
2559.7493,0.003212
2560.6811,0.004551
2561.6129,0.005303
2562.5448,0.005201
2563.4766,0.005242
2564.4084,0.004862
2565.3403,0.004963
2566.2721,0.005604
2567.2039,0.005230
2568.1358,0.004101
2569.0676,0.004250
2569.9994,0.004680
2570.9313,0.004862
2571.8631,0.005392
2572.7949,0.005726
2573.7268,0.004680
2574.6586,0.003874
2575.5904,0.004993
2576.5223,0.005700
2577.4541,0.004928
2578.3859,0.004302
2579.3178,0.003921
2580.2496,0.004249
2581.1815,0.004920
2582.1133,0.004565
2583.0451,0.004666
2583.9770,0.005529
2584.9088,0.005697
2585.8406,0.005068
2586.7725,0.004155
2587.7043,0.004014
2588.6361,0.004314
2589.5680,0.004501
2590.4998,0.004287
2591.4316,0.004322
2592.3635,0.005137
2593.2953,0.005218
2594.2271,0.005012
2595.1590,0.005171
2596.0908,0.004857
2597.0226,0.004590
2597.9545,0.005285
2598.8863,0.005449
2599.8181,0.004924
2600.7500,0.004888
2601.6818,0.004886
2602.6136,0.004951
2603.5455,0.005259
2604.4773,0.005048
2605.4091,0.005083
2606.3410,0.005035
2607.2728,0.005289
2608.2047,0.005461
2609.1365,0.004629
2610.0683,0.003959
2611.0002,0.004032
2611.9320,0.004338
2612.8638,0.005118
2613.7957,0.005343
2614.7275,0.004850
2615.6593,0.004949
2616.5912,0.004778
2617.5230,0.004188
2618.4548,0.004638
2619.3867,0.005645
2620.3185,0.006026
2621.2503,0.005623
2622.1822,0.005440
2623.1140,0.005756
2624.0458,0.006039
2624.9777,0.006253
2625.9095,0.005922
2626.8413,0.005877
2627.7732,0.005955
2628.7050,0.005815
2629.6368,0.005780
2630.5687,0.005306
2631.5005,0.005602
2632.4323,0.005941
2633.3642,0.005780
2634.2960,0.005733
2635.2279,0.005795
2636.1597,0.005712
2637.0915,0.006187
2638.0234,0.006317
2638.9552,0.005987
2639.8870,0.005580
2640.8189,0.005566
2641.7507,0.005861
2642.6825,0.006037
2643.6144,0.006035
2644.5462,0.006206
2645.4780,0.006498
2646.4099,0.006409
2647.3417,0.005928
2648.2735,0.005640
2649.2054,0.005579
2650.1372,0.006150
2651.0690,0.006751
2652.0009,0.006960
2652.9327,0.006978
2653.8645,0.006695
2654.7964,0.006540
2655.7282,0.006334
2656.6600,0.006283
2657.5919,0.006798
2658.5237,0.006793
2659.4555,0.006208
2660.3874,0.006100
2661.3192,0.006567
2662.2511,0.006728
2663.1829,0.006723
2664.1147,0.006698
2665.0466,0.006922
2665.9784,0.006886
2666.9102,0.006832
2667.8421,0.006958
2668.7739,0.006865
2669.7057,0.006847
2670.6376,0.006845
2671.5694,0.006762
2672.5012,0.006812
2673.4331,0.006876
2674.3649,0.007027
2675.2967,0.007082
2676.2286,0.007215
2677.1604,0.007297
2678.0922,0.007457
2679.0241,0.007553
2679.9559,0.007341
2680.8877,0.007063
2681.8196,0.007014
2682.7514,0.007348
2683.6832,0.007713
2684.6151,0.007894
2685.5469,0.007989
2686.4787,0.007904
2687.4106,0.007996
2688.3424,0.007878
2689.2742,0.007546
2690.2061,0.007265
2691.1379,0.007381
2692.0698,0.007945
2693.0016,0.008257
2693.9334,0.008188
2694.8653,0.008326
2695.7971,0.008240
2696.7289,0.008036
2697.6608,0.007902
2698.5926,0.008103
2699.5244,0.007982
2700.4563,0.007962
2701.3881,0.008242
2702.3199,0.008784
2703.2518,0.009065
2704.1836,0.009092
2705.1154,0.008837
2706.0473,0.008803
2706.9791,0.008965
2707.9109,0.008695
2708.8428,0.008598
2709.7746,0.009237
2710.7064,0.009114
2711.6383,0.008697
2712.5701,0.008955
2713.5019,0.009215
2714.4338,0.009066
2715.3656,0.008702
2716.2974,0.008964
2717.2293,0.009319
2718.1611,0.009190
2719.0930,0.009168
2720.0248,0.009587
2720.9566,0.009678
2721.8885,0.009593
2722.8203,0.009554
2723.7521,0.009398
2724.6840,0.009374
2725.6158,0.009442
2726.5476,0.009981
2727.4795,0.010512
2728.4113,0.010759
2729.3431,0.010645
2730.2750,0.010650
2731.2068,0.010399
2732.1386,0.010038
2733.0705,0.010429
2734.0023,0.010833
2734.9341,0.010311
2735.8660,0.010300
2736.7978,0.011053
2737.7296,0.010970
2738.6615,0.010794
2739.5933,0.010944
2740.5251,0.010700
2741.4570,0.010690
2742.3888,0.010419
2743.3206,0.010554
2744.2525,0.011232
2745.1843,0.011247
2746.1162,0.011059
2747.0480,0.011080
2747.9798,0.011426
2748.9117,0.011451
2749.8435,0.011567
2750.7753,0.011847
2751.7072,0.011572
2752.6390,0.011068
2753.5708,0.010985
2754.5027,0.011317
2755.4345,0.011893
2756.3663,0.012102
2757.2982,0.011919
2758.2300,0.011993
2759.1618,0.011735
2760.0937,0.011517
2761.0255,0.011503
2761.9573,0.011261
2762.8892,0.011709
2763.8210,0.012119
2764.7528,0.012038
2765.6847,0.011679
2766.6165,0.011702
2767.5483,0.011596
2768.4802,0.011553
2769.4120,0.011796
2770.3438,0.011532
2771.2757,0.011608
2772.2075,0.012495
2773.1394,0.012683
2774.0712,0.012466
2775.0030,0.012557
2775.9349,0.012487
2776.8667,0.012657
2777.7985,0.013019
2778.7304,0.013162
2779.6622,0.013180
2780.5940,0.012804
2781.5259,0.012771
2782.4577,0.013493
2783.3895,0.013250
2784.3214,0.012878
2785.2532,0.012949
2786.1850,0.012908
2787.1169,0.013184
2788.0487,0.013486
2788.9805,0.013560
2789.9124,0.013658
2790.8442,0.014097
2791.7760,0.014501
2792.7079,0.014357
2793.6397,0.014292
2794.5715,0.014317
2795.5034,0.014787
2796.4352,0.014874
2797.3670,0.014551
2798.2989,0.014670
2799.2307,0.014541
2800.1626,0.014595
2801.0944,0.015146
2802.0262,0.015296
2802.9581,0.015694
2803.8899,0.015906
2804.8217,0.016135
2805.7536,0.016678
2806.6854,0.017008
2807.6172,0.016958
2808.5491,0.017050
2809.4809,0.017139
2810.4127,0.016980
2811.3446,0.017235
2812.2764,0.017150
2813.2082,0.017383
2814.1401,0.018167
2815.0719,0.018497
2816.0037,0.018439
2816.9356,0.018329
2817.8674,0.018163
2818.7992,0.018260
2819.7311,0.018507
2820.6629,0.018770
2821.5947,0.018815
2822.5266,0.019112
2823.4584,0.019228
2824.3902,0.019621
2825.3221,0.019738
2826.2539,0.019392
2827.1857,0.019557
2828.1176,0.020110
2829.0494,0.020343
2829.9813,0.020477
2830.9131,0.020458
2831.8449,0.020701
2832.7768,0.020998
2833.7086,0.021150
2834.6404,0.021159
2835.5723,0.021668
2836.5041,0.022068
2837.4359,0.021956
2838.3678,0.022194
2839.2996,0.022551
2840.2314,0.023008
2841.1633,0.023184
2842.0951,0.023727
2843.0269,0.023901
2843.9588,0.023780
2844.8906,0.024240
2845.8224,0.024324
2846.7543,0.023518
2847.6861,0.023702
2848.6179,0.024587
2849.5498,0.024906
2850.4816,0.024983
2851.4134,0.025139
2852.3453,0.025192
2853.2771,0.025469
2854.2089,0.026377
2855.1408,0.026913
2856.0726,0.026982
2857.0045,0.026482
2857.9363,0.026352
2858.8681,0.027153
2859.8000,0.027435
2860.7318,0.027872
2861.6636,0.028870
2862.5955,0.029347
2863.5273,0.029615
2864.4591,0.029861
2865.3910,0.030044
2866.3228,0.030753
2867.2546,0.031388
2868.1865,0.032391
2869.1183,0.032894
2870.0501,0.032544
2870.9820,0.032702
2871.9138,0.033611
2872.8456,0.034521
2873.7775,0.035304
2874.7093,0.035679
2875.6411,0.035824
2876.5730,0.036827
2877.5048,0.037378
2878.4366,0.038346
2879.3685,0.039504
2880.3003,0.038775
2881.2321,0.038655
2882.1640,0.039935
2883.0958,0.040550
2884.0277,0.040268
2884.9595,0.040394
2885.8913,0.041100
2886.8232,0.041609
2887.7550,0.041925
2888.6868,0.042547
2889.6187,0.043007
2890.5505,0.042798
2891.4823,0.043450
2892.4142,0.044680
2893.3460,0.045020
2894.2778,0.045039
2895.2097,0.045676
2896.1415,0.046217
2897.0733,0.046676
2898.0052,0.046802
2898.9370,0.047142
2899.8688,0.048104
2900.8007,0.048247
2901.7325,0.047860
2902.6643,0.048002
2903.5962,0.047771
2904.5280,0.047893
2905.4598,0.048419
2906.3917,0.048495
2907.3235,0.047738
2908.2553,0.047376
2909.1872,0.047809
2910.1190,0.047779
2911.0509,0.046896
2911.9827,0.046847
2912.9145,0.046739
2913.8464,0.045583
2914.7782,0.045098
2915.7100,0.044984
2916.6419,0.044184
2917.5737,0.044463
2918.5055,0.045657
2919.4374,0.045591
2920.3692,0.045002
2921.3010,0.044804
2922.2329,0.044536
2923.1647,0.044318
2924.0965,0.045159
2925.0284,0.046617
2925.9602,0.047039
2926.8920,0.046671
2927.8239,0.046666
2928.7557,0.047201
2929.6875,0.047795
2930.6194,0.048227
2931.5512,0.048093
2932.4830,0.048016
2933.4149,0.047941
2934.3467,0.047885
2935.2785,0.048623
2936.2104,0.049287
2937.1422,0.048953
2938.0741,0.048149
2939.0059,0.048494
2939.9377,0.048673
2940.8696,0.048882
2941.8014,0.048838
2942.7332,0.048704
2943.6651,0.049814
2944.5969,0.050011
2945.5287,0.049814
2946.4606,0.050337
2947.3924,0.050182
2948.3242,0.049573
2949.2561,0.049892
2950.1879,0.050626
2951.1197,0.050834
2952.0516,0.050742
2952.9834,0.051448
2953.9152,0.051767
2954.8471,0.051411
2955.7789,0.050907
2956.7107,0.050986
2957.6426,0.051750
2958.5744,0.052455
2959.5062,0.053057
2960.4381,0.053983
2961.3699,0.055632
2962.3017,0.056763
2963.2336,0.057476
2964.1654,0.058400
2965.0972,0.059698
2966.0291,0.060485
2966.9609,0.061892
2967.8928,0.064023
2968.8246,0.066879
2969.7564,0.069221
2970.6883,0.071437
2971.6201,0.074626
2972.5519,0.077366
2973.4838,0.079501
2974.4156,0.082138
2975.3474,0.084168
2976.2793,0.086333
2977.2111,0.088748
2978.1429,0.089976
2979.0748,0.091176
2980.0066,0.092823
2980.9384,0.093142
2981.8703,0.092941
2982.8021,0.092442
2983.7339,0.090617
2984.6658,0.088690
2985.5976,0.087011
2986.5294,0.085304
2987.4613,0.083633
2988.3931,0.080950
2989.3249,0.078065
2990.2568,0.075538
2991.1886,0.073312
2992.1204,0.071222
2993.0523,0.069112
2993.9841,0.067737
2994.9160,0.066453
2995.8478,0.064347
2996.7796,0.063033
2997.7115,0.062334
2998.6433,0.061682
2999.5751,0.060602
3000.5070,0.059223
3001.4388,0.058400
3002.3706,0.058431
3003.3025,0.058035
3004.2343,0.057436
3005.1661,0.057806
3006.0980,0.057433
3007.0298,0.057509
3007.9616,0.058229
3008.8935,0.058253
3009.8253,0.057487
3010.7571,0.057123
3011.6890,0.057650
3012.6208,0.058490
3013.5526,0.059308
3014.4845,0.058993
3015.4163,0.059402
3016.3481,0.059524
3017.2800,0.059573
3018.2118,0.059816
3019.1436,0.060622
3020.0755,0.060870
3021.0073,0.061089
3021.9392,0.061398
3022.8710,0.062186
3023.8028,0.063156
3024.7347,0.062885
3025.6665,0.062428
3026.5983,0.062536
3027.5302,0.063046
3028.4620,0.063696
3029.3938,0.065088
3030.3257,0.066293
3031.2575,0.067122
3032.1893,0.067433
3033.1212,0.067467
3034.0530,0.067292
3034.9848,0.067904
3035.9167,0.069283
3036.8485,0.069858
3037.7803,0.070232
3038.7122,0.070654
3039.6440,0.070545
3040.5758,0.070943
3041.5077,0.071888
3042.4395,0.072874
3043.3713,0.073584
3044.3032,0.074174
3045.2350,0.074829
3046.1668,0.074903
3047.0987,0.075477
3048.0305,0.076949
3048.9624,0.078094
3049.8942,0.078342
3050.8260,0.078863
3051.7579,0.079127
3052.6897,0.079848
3053.6215,0.081063
3054.5534,0.081260
3055.4852,0.081456
3056.4170,0.082778
3057.3489,0.083974
3058.2807,0.084201
3059.2125,0.084451
3060.1444,0.084760
3061.0762,0.085440
3062.0080,0.087041
3062.9399,0.088466
3063.8717,0.089521
3064.8035,0.090111
3065.7354,0.090910
3066.6672,0.091411
3067.5990,0.091134
3068.5309,0.091549
3069.4627,0.093362
3070.3945,0.093979
3071.3264,0.094754
3072.2582,0.096107
3073.1900,0.097447
3074.1219,0.098264
3075.0537,0.098570
3075.9856,0.098756
3076.9174,0.099850
3077.8492,0.101002
3078.7811,0.101714
3079.7129,0.102753
3080.6447,0.103181
3081.5766,0.104105
3082.5084,0.105621
3083.4402,0.106881
3084.3721,0.107717
3085.3039,0.108459
3086.2357,0.109432
3087.1676,0.109460
3088.0994,0.110029
3089.0312,0.111261
3089.9631,0.112308
3090.8949,0.113434
3091.8267,0.114900
3092.7586,0.115333
3093.6904,0.116150
3094.6222,0.116627
3095.5541,0.117395
3096.4859,0.118853
3097.4177,0.120368
3098.3496,0.121860
3099.2814,0.123037
3100.2132,0.124189
3101.1451,0.125266
3102.0769,0.125946
3103.0087,0.126672
3103.9406,0.127634
3104.8724,0.129101
3105.8043,0.129301
3106.7361,0.130033
3107.6679,0.132193
3108.5998,0.133671
3109.5316,0.134380
3110.4634,0.135223
3111.3953,0.135686
3112.3271,0.136630
3113.2589,0.137783
3114.1908,0.138288
3115.1226,0.139631
3116.0544,0.142139
3116.9863,0.143506
3117.9181,0.144012
3118.8499,0.144722
3119.7818,0.144969
3120.7136,0.145424
3121.6454,0.147776
3122.5773,0.149141
3123.5091,0.149062
3124.4409,0.151218
3125.3728,0.154047
3126.3046,0.154597
3127.2364,0.155718
3128.1683,0.157110
3129.1001,0.158406
3130.0319,0.159814
3130.9638,0.160978
3131.8956,0.161830
3132.8275,0.163118
3133.7593,0.163717
3134.6911,0.163949
3135.6230,0.166027
3136.5548,0.167820
3137.4866,0.169059
3138.4185,0.170888
3139.3503,0.171698
3140.2821,0.173229
3141.2140,0.174901
3142.1458,0.175086
3143.0776,0.175384
3144.0095,0.178367
3144.9413,0.181215
3145.8731,0.182138
3146.8050,0.182213
3147.7368,0.183160
3148.6686,0.185351
3149.6005,0.187561
3150.5323,0.188331
3151.4641,0.188826
3152.3960,0.190047
3153.3278,0.191860
3154.2596,0.193422
3155.1915,0.194264
3156.1233,0.194015
3157.0551,0.194900
3157.9870,0.196323
3158.9188,0.197907
3159.8507,0.199043
3160.7825,0.200069
3161.7143,0.201876
3162.6462,0.204072
3163.5780,0.205543
3164.5098,0.206072
3165.4417,0.206341
3166.3735,0.208197
3167.3053,0.210288
3168.2372,0.211851
3169.1690,0.212579
3170.1008,0.213748
3171.0327,0.214862
3171.9645,0.216290
3172.8963,0.218264
3173.8282,0.219780
3174.7600,0.220947
3175.6918,0.221497
3176.6237,0.222237
3177.5555,0.223702
3178.4873,0.224642
3179.4192,0.226133
3180.3510,0.228711
3181.2828,0.230240
3182.2147,0.229938
3183.1465,0.230821
3184.0783,0.231337
3185.0102,0.232366
3185.9420,0.234801
3186.8739,0.236838
3187.8057,0.237162
3188.7375,0.238788
3189.6694,0.241028
3190.6012,0.241516
3191.5330,0.241306
3192.4649,0.242747
3193.3967,0.243921
3194.3285,0.246248
3195.2604,0.248359
3196.1922,0.248588
3197.1240,0.248176
3198.0559,0.249989
3198.9877,0.252871
3199.9195,0.253887
3200.8514,0.254020
3201.7832,0.254009
3202.7150,0.254460
3203.6469,0.255074
3204.5787,0.255786
3205.5105,0.258529
3206.4424,0.259784
3207.3742,0.259120
3208.3060,0.258480
3209.2379,0.259555
3210.1697,0.261217
3211.1015,0.262584
3212.0334,0.264597
3212.9652,0.266898
3213.8971,0.267327
3214.8289,0.266460
3215.7607,0.267785
3216.6926,0.270306
3217.6244,0.270594
3218.5562,0.270836
3219.4881,0.271761
3220.4199,0.273736
3221.3517,0.274220
3222.2836,0.272917
3223.2154,0.274329
3224.1472,0.276158
3225.0791,0.275989
3226.0109,0.277464
3226.9427,0.278205
3227.8746,0.277068
3228.8064,0.277488
3229.7382,0.279264
3230.6701,0.279520
3231.6019,0.279606
3232.5337,0.279972
3233.4656,0.280816
3234.3974,0.282139
3235.3292,0.282473
3236.2611,0.281560
3237.1929,0.281517
3238.1247,0.282504
3239.0566,0.284164
3239.9884,0.285909
3240.9202,0.285498
3241.8521,0.285366
3242.7839,0.287760
3243.7158,0.288475
3244.6476,0.288578
3245.5794,0.289299
3246.5113,0.289425
3247.4431,0.288533
3248.3749,0.287436
3249.3068,0.287478
3250.2386,0.289004
3251.1704,0.289278
3252.1023,0.288248
3253.0341,0.287251
3253.9659,0.287015
3254.8978,0.288247
3255.8296,0.290441
3256.7614,0.291954
3257.6933,0.292071
3258.6251,0.291361
3259.5569,0.291334
3260.4888,0.291356
3261.4206,0.290432
3262.3524,0.288823
3263.2843,0.287533
3264.2161,0.288133
3265.1479,0.291370
3266.0798,0.293730
3267.0116,0.293417
3267.9434,0.293475
3268.8753,0.294484
3269.8071,0.294582
3270.7390,0.295795
3271.6708,0.295673
3272.6026,0.293523
3273.5345,0.292499
3274.4663,0.292312
3275.3981,0.291754
3276.3300,0.291781
3277.2618,0.293241
3278.1936,0.293570
3279.1255,0.294184
3280.0573,0.294305
3280.9891,0.291997
3281.9210,0.291759
3282.8528,0.293337
3283.7846,0.293990
3284.7165,0.294565
3285.6483,0.295474
3286.5801,0.294024
3287.5120,0.293602
3288.4438,0.295797
3289.3756,0.295486
3290.3075,0.293604
3291.2393,0.293722
3292.1711,0.293934
3293.1030,0.294282
3294.0348,0.296426
3294.9666,0.296603
3295.8985,0.294180
3296.8303,0.293679
3297.7622,0.294617
3298.6940,0.293847
3299.6258,0.293637
3300.5577,0.295647
3301.4895,0.296616
3302.4213,0.294482
3303.3532,0.292316
3304.2850,0.293459
3305.2168,0.295691
3306.1487,0.296359
3307.0805,0.296005
3308.0123,0.295135
3308.9442,0.296074
3309.8760,0.297084
3310.8078,0.296674
3311.7397,0.297608
3312.6715,0.298971
3313.6033,0.298149
3314.5352,0.295454
3315.4670,0.294415
3316.3988,0.295749
3317.3307,0.296084
3318.2625,0.295100
3319.1943,0.295973
3320.1262,0.297120
3321.0580,0.294234
3321.9898,0.293251
3322.9217,0.295320
3323.8535,0.296189
3324.7854,0.296102
3325.7172,0.295342
3326.6490,0.296365
3327.5809,0.298282
3328.5127,0.297102
3329.4445,0.297003
3330.3764,0.297956
3331.3082,0.297881
3332.2400,0.297814
3333.1719,0.297558
3334.1037,0.297159
3335.0355,0.297218
3335.9674,0.296553
3336.8992,0.296755
3337.8310,0.297213
3338.7629,0.297587
3339.6947,0.298656
3340.6265,0.298611
3341.5584,0.297279
3342.4902,0.295791
3343.4220,0.294924
3344.3539,0.296763
3345.2857,0.298902
3346.2175,0.297175
3347.1494,0.294333
3348.0812,0.294874
3349.0130,0.297014
3349.9449,0.298656
3350.8767,0.297927
3351.8086,0.296527
3352.7404,0.296019
3353.6722,0.296274
3354.6041,0.296574
3355.5359,0.295849
3356.4677,0.293604
3357.3996,0.293669
3358.3314,0.295401
3359.2632,0.295624
3360.1951,0.295154
3361.1269,0.295509
3362.0587,0.294215
3362.9906,0.293379
3363.9224,0.293954
3364.8542,0.293800
3365.7861,0.292885
3366.7179,0.293682
3367.6497,0.293325
3368.5816,0.292885
3369.5134,0.293559
3370.4452,0.292452
3371.3771,0.290943
3372.3089,0.290352
3373.2407,0.289545
3374.1726,0.291136
3375.1044,0.292812
3376.0362,0.292255
3376.9681,0.291200
3377.8999,0.290969
3378.8317,0.289673
3379.7636,0.288118
3380.6954,0.288722
3381.6273,0.290152
3382.5591,0.289453
3383.4909,0.288365
3384.4228,0.287702
3385.3546,0.286369
3386.2864,0.284688
3387.2183,0.285343
3388.1501,0.285254
3389.0819,0.285123
3390.0138,0.287062
3390.9456,0.288496
3391.8774,0.286491
3392.8093,0.284229
3393.7411,0.281395
3394.6729,0.278768
3395.6048,0.279021
3396.5366,0.279880
3397.4684,0.277098
3398.4003,0.276164
3399.3321,0.277128
3400.2639,0.277464
3401.1958,0.276911
3402.1276,0.275255
3403.0594,0.273443
3403.9913,0.272326
3404.9231,0.271632
3405.8549,0.271827
3406.7868,0.271151
3407.7186,0.271511
3408.6505,0.271513
3409.5823,0.270392
3410.5141,0.267951
3411.4460,0.266889
3412.3778,0.264521
3413.3096,0.260796
3414.2415,0.261445
3415.1733,0.264896
3416.1051,0.263835
3417.0370,0.262515
3417.9688,0.261756
3418.9006,0.260492
3419.8325,0.259309
3420.7643,0.257962
3421.6961,0.258832
3422.6280,0.260194
3423.5598,0.257982
3424.4916,0.256582
3425.4235,0.255109
3426.3553,0.253885
3427.2871,0.253029
3428.2190,0.253509
3429.1508,0.253181
3430.0826,0.250783
3431.0145,0.249823
3431.9463,0.249319
3432.8781,0.244961
3433.8100,0.243141
3434.7418,0.244262
3435.6737,0.244754
3436.6055,0.243493
3437.5373,0.241929
3438.4692,0.239641
3439.4010,0.236216
3440.3328,0.232500
3441.2647,0.231661
3442.1965,0.232723
3443.1283,0.232723
3444.0602,0.231945
3444.9920,0.231984
3445.9238,0.230509
3446.8557,0.230152
3447.7875,0.228253
3448.7193,0.224690
3449.6512,0.223389
3450.5830,0.225280
3451.5148,0.224177
3452.4467,0.223337
3453.3785,0.222092
3454.3103,0.221660
3455.2422,0.221995
3456.1740,0.221606
3457.1058,0.220659
3458.0377,0.220543
3458.9695,0.219638
3459.9013,0.218578
3460.8332,0.216862
3461.7650,0.214495
3462.6969,0.213386
3463.6287,0.212577
3464.5605,0.210068
3465.4924,0.208764
3466.4242,0.209351
3467.3560,0.207636
3468.2879,0.205055
3469.2197,0.205339
3470.1515,0.205308
3471.0834,0.205323
3472.0152,0.203184
3472.9470,0.202216
3473.8789,0.200928
3474.8107,0.197522
3475.7425,0.194357
3476.6744,0.195246
3477.6062,0.195569
3478.5380,0.194623
3479.4699,0.192787
3480.4017,0.192730
3481.3335,0.193849
3482.2654,0.192042
3483.1972,0.187181
3484.1290,0.183953
3485.0609,0.185073
3485.9927,0.188648
3486.9245,0.187055
3487.8564,0.184665
3488.7882,0.183904
3489.7201,0.182252
3490.6519,0.179317
3491.5837,0.177880
3492.5156,0.177303
3493.4474,0.177423
3494.3792,0.177378
3495.3111,0.178626
3496.2429,0.177858
3497.1747,0.174234
3498.1066,0.169654
3499.0384,0.169033
3499.9702,0.169643
3500.9021,0.169445
3501.8339,0.170094
3502.7657,0.170515
3503.6976,0.168244
3504.6294,0.164951
3505.5612,0.163225
3506.4931,0.164120
3507.4249,0.164383
3508.3567,0.162263
3509.2886,0.159321
3510.2204,0.162212
3511.1522,0.163783
3512.0841,0.159827
3513.0159,0.158176
3513.9477,0.159656
3514.8796,0.156516
3515.8114,0.153021
3516.7432,0.152052
3517.6751,0.150662
3518.6069,0.149514
3519.5388,0.151251
3520.4706,0.149644
3521.4024,0.148352
3522.3343,0.146658
3523.2661,0.145245
3524.1979,0.147590
3525.1298,0.147878
3526.0616,0.145250
3526.9934,0.144973
3527.9253,0.142649
3528.8571,0.140690
3529.7889,0.143480
3530.7208,0.142623
3531.6526,0.135763
3532.5844,0.133294
3533.5163,0.135475
3534.4481,0.136462
3535.3799,0.135647
3536.3118,0.133943
3537.2436,0.130245
3538.1754,0.131032
3539.1073,0.131599
3540.0391,0.130364
3540.9709,0.128562
3541.9028,0.125273
3542.8346,0.123813
3543.7664,0.125630
3544.6983,0.124709
3545.6301,0.123659
3546.5620,0.120892
3547.4938,0.119536
3548.4256,0.121417
3549.3575,0.121138
3550.2893,0.119414
3551.2211,0.118421
3552.1530,0.115746
3553.0848,0.112539
3554.0166,0.111978
3554.9485,0.112377
3555.8803,0.112503
3556.8121,0.112666
3557.7440,0.112661
3558.6758,0.110260
3559.6076,0.106928
3560.5395,0.107020
3561.4713,0.106347
3562.4031,0.105681
3563.3350,0.105069
3564.2668,0.104696
3565.1986,0.105100
3566.1305,0.105584
3567.0623,0.103609
3567.9941,0.102029
3568.9260,0.103606
3569.8578,0.102859
3570.7896,0.100346
3571.7215,0.101541
3572.6533,0.099081
3573.5852,0.096210
3574.5170,0.095548
3575.4488,0.093764
3576.3807,0.093924
3577.3125,0.094679
3578.2443,0.094046
3579.1762,0.091547
3580.1080,0.087680
3581.0398,0.087020
3581.9717,0.087981
3582.9035,0.088760
3583.8353,0.086473
3584.7672,0.084067
3585.6990,0.084828
3586.6308,0.084476
3587.5627,0.082229
3588.4945,0.081358
3589.4263,0.082981
3590.3582,0.083775
3591.2900,0.080944
3592.2218,0.078533
3593.1537,0.078091
3594.0855,0.079688
3595.0173,0.078379
3595.9492,0.077640
3596.8810,0.078463
3597.8128,0.076636
3598.7447,0.075007
3599.6765,0.074059
3600.6084,0.074678
3601.5402,0.073880
3602.4720,0.072783
3603.4039,0.071934
3604.3357,0.069024
3605.2675,0.066767
3606.1994,0.067226
3607.1312,0.068649
3608.0630,0.068484
3608.9949,0.067606
3609.9267,0.065788
3610.8585,0.066154
3611.7904,0.067192
3612.7222,0.066140
3613.6540,0.064018
3614.5859,0.062782
3615.5177,0.060724
3616.4495,0.059470
3617.3814,0.059793
3618.3132,0.059345
3619.2450,0.058966
3620.1769,0.058033
3621.1087,0.057750
3622.0405,0.056700
3622.9724,0.056684
3623.9042,0.057708
3624.8360,0.056081
3625.7679,0.054584
3626.6997,0.054884
3627.6316,0.054426
3628.5634,0.054143
3629.4952,0.054479
3630.4271,0.054211
3631.3589,0.051594
3632.2907,0.049821
3633.2226,0.048849
3634.1544,0.050175
3635.0862,0.051168
3636.0181,0.049567
3636.9499,0.047786
3637.8817,0.046437
3638.8136,0.045977
3639.7454,0.045217
3640.6772,0.044624
3641.6091,0.044315
3642.5409,0.045110
3643.4727,0.044415
3644.4046,0.043411
3645.3364,0.042196
3646.2682,0.040459
3647.2001,0.039300
3648.1319,0.037524
3649.0637,0.037705
3649.9956,0.039077
3650.9274,0.035240
3651.8592,0.035035
3652.7911,0.037058
3653.7229,0.035838
3654.6547,0.034882
3655.5866,0.035337
3656.5184,0.034391
3657.4503,0.033893
3658.3821,0.033719
3659.3139,0.033122
3660.2458,0.032337
3661.1776,0.030560
3662.1094,0.029326
3663.0413,0.028862
3663.9731,0.028324
3664.9049,0.027160
3665.8368,0.025696
3666.7686,0.025558
3667.7004,0.026135
3668.6323,0.026336
3669.5641,0.024713
3670.4959,0.022825
3671.4278,0.021125
3672.3596,0.021391
3673.2914,0.021751
3674.2233,0.021310
3675.1551,0.020727
3676.0869,0.019687
3677.0188,0.017329
3677.9506,0.017641
3678.8824,0.017728
3679.8143,0.016532
3680.7461,0.016863
3681.6779,0.017252
3682.6098,0.017065
3683.5416,0.016785
3684.4735,0.015777
3685.4053,0.014988
3686.3371,0.014310
3687.2690,0.014086
3688.2008,0.013081
3689.1326,0.010901
3690.0645,0.010949
3690.9963,0.011469
3691.9281,0.011549
3692.8600,0.011073
3693.7918,0.010222
3694.7236,0.009757
3695.6555,0.009843
3696.5873,0.009412
3697.5191,0.009052
3698.4510,0.009051
3699.3828,0.008243
3700.3146,0.007151
3701.2465,0.007614
3702.1783,0.007488
3703.1101,0.007310
3704.0420,0.005938
3704.9738,0.005507
3705.9056,0.007153
3706.8375,0.007743
3707.7693,0.007717
3708.7011,0.006467
3709.6330,0.006227
3710.5648,0.006468
3711.4967,0.006070
3712.4285,0.005535
3713.3603,0.004100
3714.2922,0.004343
3715.2240,0.005321
3716.1558,0.005708
3717.0877,0.004391
3718.0195,0.002722
3718.9513,0.002604
3719.8832,0.003378
3720.8150,0.003674
3721.7468,0.003949
3722.6787,0.003850
3723.6105,0.004291
3724.5423,0.004675
3725.4742,0.004115
3726.4060,0.002777
3727.3378,0.003331
3728.2697,0.004347
3729.2015,0.002725
3730.1333,0.001486
3731.0652,0.003570
3731.9970,0.004344
3732.9288,0.003119
3733.8607,0.002261
3734.7925,0.001675
3735.7243,0.001579
3736.6562,0.001474
3737.5880,0.000908
3738.5199,0.000763
3739.4517,0.001202
3740.3835,0.001412
3741.3154,0.000760
3742.2472,0.000872
3743.1790,0.002369
3744.1109,0.003988
3745.0427,0.003130
3745.9745,0.000028
3746.9064,-0.000445
3747.8382,0.002248
3748.7700,0.001938
3749.7019,0.000543
3750.6337,0.002202
3751.5655,0.004262
3752.4974,0.001646
3753.4292,-0.000776
3754.3610,0.001319
3755.2929,0.001581
3756.2247,0.002143
3757.1565,0.002943
3758.0884,0.002392
3759.0202,0.001831
3759.9520,0.001817
3760.8839,0.001869
3761.8157,0.002670
3762.7475,0.002767
3763.6794,0.002093
3764.6112,0.002104
3765.5431,0.002063
3766.4749,0.001777
3767.4067,0.001488
3768.3386,0.001540
3769.2704,0.002904
3770.2022,0.002745
3771.1341,0.001303
3772.0659,0.001164
3772.9977,0.002196
3773.9296,0.002294
3774.8614,0.002260
3775.7932,0.001697
3776.7251,0.001679
3777.6569,0.002094
3778.5887,0.001772
3779.5206,0.001285
3780.4524,0.001631
3781.3842,0.002228
3782.3161,0.002743
3783.2479,0.003866
3784.1797,0.003071
3785.1116,0.002148
3786.0434,0.001544
3786.9752,0.002028
3787.9071,0.002016
3788.8389,0.002067
3789.7707,0.003099
3790.7026,0.002694
3791.6344,0.000842
3792.5662,0.000133
3793.4981,0.000822
3794.4299,0.001451
3795.3618,0.003036
3796.2936,0.002824
3797.2254,0.001223
3798.1573,0.001398
3799.0891,0.001212
3800.0209,0.000054
3800.9528,0.000016
3801.8846,0.000564
3802.8164,0.001144
3803.7483,0.002256
3804.6801,0.001867
3805.6119,-0.000375
3806.5438,-0.000882
3807.4756,0.000071
3808.4074,0.000594
3809.3393,0.001725
3810.2711,0.001560
3811.2029,0.002298
3812.1348,0.002530
3813.0666,0.001525
3813.9984,0.000535
3814.9303,-0.000059
3815.8621,0.000159
3816.7939,0.000330
3817.7258,0.000765
3818.6576,0.001693
3819.5894,0.002226
3820.5213,0.001584
3821.4531,0.000435
3822.3850,-0.000079
3823.3168,0.000437
3824.2486,0.000517
3825.1805,-0.000441
3826.1123,-0.000703
3827.0441,0.000169
3827.9760,0.001035
3828.9078,0.000529
3829.8396,0.000911
3830.7715,0.002175
3831.7033,0.001500
3832.6351,0.001262
3833.5670,0.001696
3834.4988,0.000819
3835.4306,0.000248
3836.3625,0.000715
3837.2943,0.000711
3838.2261,-0.000119
3839.1580,-0.000733
3840.0898,-0.000842
3841.0216,0.000082
3841.9535,0.000475
3842.8853,0.000721
3843.8171,0.001289
3844.7490,0.000738
3845.6808,-0.000621
3846.6126,-0.001292
3847.5445,0.000154
3848.4763,0.002269
3849.4082,0.002249
3850.3400,0.001006
3851.2718,0.001034
3852.2037,0.001669
3853.1355,0.001342
3854.0673,0.001472
3854.9992,0.000396
3855.9310,-0.000802
3856.8628,0.000226
3857.7947,0.000581
3858.7265,0.000312
3859.6583,-0.000144
3860.5902,-0.000453
3861.5220,0.000307
3862.4538,0.001276
3863.3857,0.001709
3864.3175,0.001022
3865.2493,0.000288
3866.1812,-0.000235
3867.1130,-0.000204
3868.0448,0.000154
3868.9767,-0.000619
3869.9085,-0.000841
3870.8403,0.000913
3871.7722,0.000987
3872.7040,-0.000452
3873.6358,0.001013
3874.5677,0.002702
3875.4995,0.001938
3876.4314,0.000824
3877.3632,0.000781
3878.2950,0.001511
3879.2269,0.000839
3880.1587,0.000381
3881.0905,0.001219
3882.0224,0.001083
3882.9542,0.000647
3883.8860,0.000328
3884.8179,0.000583
3885.7497,0.000343
3886.6815,0.000273
3887.6134,-0.000155
3888.5452,0.000450
3889.4770,0.001140
3890.4089,0.000756
3891.3407,0.001030
3892.2725,0.000825
3893.2044,0.000967
3894.1362,0.001204
3895.0680,0.000507
3895.9999,0.000029
3896.9317,-0.000217
3897.8635,0.000572
3898.7954,0.001642
3899.7272,0.001080
3900.6590,-0.000113
3901.5909,0.000615
3902.5227,0.002743
3903.4546,0.001522
3904.3864,0.000153
3905.3182,0.000010
3906.2501,0.001149
3907.1819,0.001440
3908.1137,0.001151
3909.0456,0.000742
3909.9774,0.000559
3910.9092,0.000262
3911.8411,0.000512
3912.7729,0.001684
3913.7047,0.001405
3914.6366,0.000718
3915.5684,0.001141
3916.5002,0.001049
3917.4321,0.001045
3918.3639,0.000405
3919.2957,0.000251
3920.2276,0.001731
3921.1594,0.002175
3922.0912,0.001092
3923.0231,0.000289
3923.9549,0.000854
3924.8867,0.001091
3925.8186,0.001643
3926.7504,0.002145
3927.6822,0.001749
3928.6141,0.001019
3929.5459,0.000955
3930.4777,0.001596
3931.4096,0.001135
3932.3414,0.000808
3933.2733,0.001847
3934.2051,0.001737
3935.1369,0.001056
3936.0688,0.000470
3937.0006,0.000263
3937.9324,0.001249
3938.8643,0.000765
3939.7961,0.000679
3940.7279,0.002123
3941.6598,0.001569
3942.5916,0.000950
3943.5234,0.001174
3944.4553,0.001064
3945.3871,0.001452
3946.3189,0.002173
3947.2508,0.001176
3948.1826,0.000384
3949.1144,0.001647
3950.0463,0.002141
3950.9781,0.001192
3951.9099,0.000440
3952.8418,0.001283
3953.7736,0.001795
3954.7054,0.001975
3955.6373,0.002390
3956.5691,0.001561
3957.5009,0.001094
3958.4328,0.002023
3959.3646,0.002302
3960.2965,0.001261
3961.2283,0.001396
3962.1601,0.002398
3963.0920,0.002599
3964.0238,0.002238
3964.9556,0.001758
3965.8875,0.001464
3966.8193,0.000841
3967.7511,0.000289
3968.6830,0.000606
3969.6148,0.001441
3970.5466,0.001995
3971.4785,0.001324
3972.4103,0.000529
3973.3421,0.000798
3974.2740,0.000595
3975.2058,0.000320
3976.1376,0.001439
3977.0695,0.002676
3978.0013,0.002361
3978.9331,0.001063
3979.8650,0.000738
3980.7968,0.001554
3981.7286,0.001181
3982.6605,0.000614
3983.5923,0.000860
3984.5241,0.001237
3985.4560,0.001625
3986.3878,0.001695
3987.3197,0.001040
3988.2515,0.000473
3989.1833,0.000735
3990.1152,0.001399
3991.0470,0.001457
3991.9788,0.001161
3992.9107,0.001199
3993.8425,0.002146
3994.7743,0.002435
3995.7062,0.002174
3996.6380,0.002428
3997.5698,0.002018
3998.5017,0.001265
3999.4335,0.001323
4000.3653,0.002364
