Wavenumber,Intensity
650.4205,0.393991
651.3523,0.383100
652.2841,0.362091
653.2160,0.363599
654.1478,0.378936
655.0796,0.382985
656.0115,0.366655
656.9433,0.362818
657.8751,0.377945
658.8070,0.377408
659.7388,0.368727
660.6706,0.372782
661.6025,0.368290
662.5343,0.370817
663.4661,0.375086
664.3980,0.367255
665.3298,0.355872
666.2616,0.344358
667.1935,0.335752
668.1253,0.344633
669.0571,0.375736
669.9890,0.373933
670.9208,0.361526
671.8526,0.357923
672.7845,0.350147
673.7163,0.345071
674.6481,0.343905
675.5800,0.346488
676.5118,0.352317
677.4437,0.356447
678.3755,0.348810
679.3073,0.343781
680.2392,0.342936
681.1710,0.341723
682.1028,0.341788
683.0347,0.339579
683.9665,0.337247
684.8983,0.335281
685.8302,0.331129
686.7620,0.330848
687.6938,0.327068
688.6257,0.327594
689.5575,0.329501
690.4893,0.328693
691.4212,0.324479
692.3530,0.322715
693.2848,0.322361
694.2167,0.325945
695.1485,0.328845
696.0803,0.327501
697.0122,0.322926
697.9440,0.321490
698.8758,0.319937
699.8077,0.315768
700.7395,0.313894
701.6713,0.315508
702.6032,0.315758
703.5350,0.314885
704.4669,0.309712
705.3987,0.304519
706.3305,0.303272
707.2624,0.305747
708.1942,0.305417
709.1260,0.302629
710.0579,0.303382
710.9897,0.304712
711.9215,0.302005
712.8534,0.301122
713.7852,0.297861
714.7170,0.295303
715.6489,0.298218
716.5807,0.295534
717.5125,0.292663
718.4444,0.295689
719.3762,0.294369
720.3080,0.291066
721.2399,0.288544
722.1717,0.287971
723.1035,0.289293
724.0354,0.287746
724.9672,0.283266
725.8990,0.282634
726.8309,0.282723
727.7627,0.281511
728.6945,0.279019
729.6264,0.278593
730.5582,0.277290
731.4901,0.275039
732.4219,0.272670
733.3537,0.270322
734.2856,0.272576
735.2174,0.273969
736.1492,0.268925
737.0811,0.268150
738.0129,0.269237
738.9447,0.268751
739.8766,0.265454
740.8084,0.261734
741.7402,0.258320
742.6721,0.258913
743.6039,0.260932
744.5357,0.260075
745.4676,0.257806
746.3994,0.255780
747.3312,0.252792
748.2631,0.252912
749.1949,0.251824
750.1267,0.249592
751.0586,0.247806
751.9904,0.244868
752.9222,0.243186
753.8541,0.244483
754.7859,0.244312
755.7177,0.242715
756.6496,0.239743
757.5814,0.237166
758.5132,0.236955
759.4451,0.237718
760.3769,0.236326
761.3088,0.235029
762.2406,0.232637
763.1724,0.231186
764.1043,0.230364
765.0361,0.229613
765.9679,0.228409
766.8998,0.227212
767.8316,0.224964
768.7634,0.225183
769.6953,0.224980
770.6271,0.223296
771.5589,0.221273
772.4908,0.218471
773.4226,0.217090
774.3544,0.217548
775.2863,0.216224
776.2181,0.215241
777.1499,0.214166
778.0818,0.213060
779.0136,0.212418
779.9454,0.211451
780.8773,0.209724
781.8091,0.209048
782.7409,0.207936
783.6728,0.205582
784.6046,0.203124
785.5364,0.202775
786.4683,0.203152
787.4001,0.201926
788.3320,0.198644
789.2638,0.196652
790.1956,0.195336
791.1275,0.194974
792.0593,0.194481
792.9911,0.193851
793.9230,0.191970
794.8548,0.189769
795.7866,0.188022
796.7185,0.187834
797.6503,0.187405
798.5821,0.185746
799.5140,0.184425
800.4458,0.184630
801.3776,0.183761
802.3095,0.182343
803.2413,0.180967
804.1731,0.179907
805.1050,0.180003
806.0368,0.179934
806.9686,0.179037
807.9005,0.176923
808.8323,0.174254
809.7641,0.172397
810.6960,0.170708
811.6278,0.169349
812.5596,0.168654
813.4915,0.168044
814.4233,0.166605
815.3552,0.164956
816.2870,0.162535
817.2188,0.160947
818.1507,0.158855
819.0825,0.157905
820.0143,0.157939
820.9462,0.157503
821.8780,0.156471
822.8098,0.154961
823.7417,0.153723
824.6735,0.152645
825.6053,0.151170
826.5372,0.150033
827.4690,0.149009
828.4008,0.148321
829.3327,0.147416
830.2645,0.146491
831.1963,0.144949
832.1282,0.143537
833.0600,0.142861
833.9918,0.142225
834.9237,0.141168
835.8555,0.139921
836.7873,0.139011
837.7192,0.137572
838.6510,0.136725
839.5828,0.136746
840.5147,0.136249
841.4465,0.135108
842.3784,0.133379
843.3102,0.131860
844.2420,0.131544
845.1739,0.131593
846.1057,0.130537
847.0375,0.129322
847.9694,0.128912
848.9012,0.127782
849.8330,0.126517
850.7649,0.126148
851.6967,0.125855
852.6285,0.124490
853.5604,0.122841
854.4922,0.123551
855.4240,0.123841
856.3559,0.123053
857.2877,0.122302
858.2195,0.121767
859.1514,0.121465
860.0832,0.120811
861.0150,0.120695
861.9469,0.120877
862.8787,0.120709
863.8105,0.121017
864.7424,0.121814
865.6742,0.122303
866.6060,0.122604
867.5379,0.123852
868.4697,0.125324
869.4016,0.127936
870.3334,0.131573
871.2652,0.135125
872.1971,0.138823
873.1289,0.143138
874.0607,0.149027
874.9926,0.155033
875.9244,0.160101
876.8562,0.163092
877.7881,0.164717
878.7199,0.164450
879.6517,0.160975
880.5836,0.155100
881.5154,0.148145
882.4472,0.141392
883.3791,0.134239
884.3109,0.126725
885.2427,0.119533
886.1746,0.113678
887.1064,0.108472
888.0382,0.104370
888.9701,0.101183
889.9019,0.097925
890.8337,0.095052
891.7656,0.093195
892.6974,0.091452
893.6292,0.089697
894.5611,0.088239
895.4929,0.086799
896.4247,0.085430
897.3566,0.084877
898.2884,0.083850
899.2203,0.082433
900.1521,0.081566
901.0839,0.080900
902.0158,0.080342
902.9476,0.079470
903.8794,0.078437
904.8113,0.077795
905.7431,0.076947
906.6749,0.076289
907.6068,0.075634
908.5386,0.075267
909.4704,0.074870
910.4023,0.074275
911.3341,0.073719
912.2659,0.072975
913.1978,0.072177
914.1296,0.071863
915.0614,0.071714
915.9933,0.070736
916.9251,0.070233
917.8569,0.070001
918.7888,0.069238
919.7206,0.068562
920.6524,0.068319
921.5843,0.068308
922.5161,0.068080
923.4479,0.067326
924.3798,0.066929
925.3116,0.066724
926.2435,0.066071
927.1753,0.065603
928.1071,0.065109
929.0390,0.064909
929.9708,0.064666
930.9026,0.064221
931.8345,0.063926
932.7663,0.063797
933.6981,0.063088
934.6300,0.062634
935.5618,0.062672
936.4936,0.062238
937.4255,0.061896
938.3573,0.061805
939.2891,0.061239
940.2210,0.061063
941.1528,0.060933
942.0846,0.060758
943.0165,0.060292
943.9483,0.059984
944.8801,0.059789
945.8120,0.059457
946.7438,0.059058
947.6756,0.058991
948.6075,0.058874
949.5393,0.058399
950.4711,0.057915
951.4030,0.057747
952.3348,0.057768
953.2667,0.057620
954.1985,0.057702
955.1303,0.057555
956.0622,0.057073
956.9940,0.056736
957.9258,0.056782
958.8577,0.057001
959.7895,0.056700
960.7213,0.055986
961.6532,0.055606
962.5850,0.055800
963.5168,0.055805
964.4487,0.055534
965.3805,0.055644
966.3123,0.055560
967.2442,0.055091
968.1760,0.055220
969.1078,0.055222
970.0397,0.054793
970.9715,0.054485
971.9033,0.054507
972.8352,0.054400
973.7670,0.054339
974.6988,0.054567
975.6307,0.054633
976.5625,0.054591
977.4943,0.054466
978.4262,0.054285
979.3580,0.054067
980.2899,0.053783
981.2217,0.053600
982.1535,0.053367
983.0854,0.053467
984.0172,0.053743
984.9490,0.053669
985.8809,0.053572
986.8127,0.053827
987.7445,0.053657
988.6764,0.053930
989.6082,0.054452
990.5400,0.054312
991.4719,0.054105
992.4037,0.054114
993.3355,0.054174
994.2674,0.054237
995.1992,0.054505
996.1310,0.054884
997.0629,0.054954
997.9947,0.054812
998.9265,0.054934
999.8584,0.055430
1000.7902,0.055917
1001.7220,0.056243
1002.6539,0.056183
1003.5857,0.056236
1004.5175,0.056237
1005.4494,0.056456
1006.3812,0.057124
1007.3131,0.057939
1008.2449,0.058512
1009.1767,0.058557
1010.1086,0.058840
1011.0404,0.059580
1011.9722,0.060371
1012.9041,0.060922
1013.8359,0.061663
1014.7677,0.062642
1015.6996,0.063366
1016.6314,0.064119
1017.5632,0.065236
1018.4951,0.066648
1019.4269,0.068146
1020.3587,0.069640
1021.2906,0.071316
1022.2224,0.073155
1023.1542,0.075345
1024.0861,0.077675
1025.0179,0.080212
1025.9497,0.083143
1026.8816,0.086324
1027.8134,0.089948
1028.7452,0.094023
1029.6771,0.098496
1030.6089,0.103551
1031.5407,0.109531
1032.4726,0.116597
1033.4044,0.124502
1034.3362,0.133693
1035.2681,0.144418
1036.1999,0.156415
1037.1318,0.169864
1038.0636,0.184263
1038.9954,0.199267
1039.9273,0.214776
1040.8591,0.229538
1041.7909,0.241944
1042.7228,0.251189
1043.6546,0.256832
1044.5864,0.257566
1045.5183,0.253435
1046.4501,0.245133
1047.3819,0.233491
1048.3138,0.219542
1049.2456,0.204038
1050.1774,0.187593
1051.1093,0.171309
1052.0411,0.155939
1052.9729,0.141626
1053.9048,0.128587
1054.8366,0.117236
1055.7684,0.107613
1056.7003,0.099200
1057.6321,0.092117
1058.5639,0.086376
1059.4958,0.081780
1060.4276,0.078264
1061.3594,0.075436
1062.2913,0.073120
1063.2231,0.071720
1064.1550,0.070933
1065.0868,0.070484
1066.0186,0.070268
1066.9505,0.070253
1067.8823,0.070532
1068.8141,0.071302
1069.7460,0.072638
1070.6778,0.073917
1071.6096,0.075302
1072.5415,0.077203
1073.4733,0.079432
1074.4051,0.081665
1075.3370,0.083972
1076.2688,0.086897
1077.2006,0.090075
1078.1325,0.093208
1079.0643,0.096339
1079.9961,0.099253
1080.9280,0.102120
1081.8598,0.104888
1082.7916,0.107199
1083.7235,0.108770
1084.6553,0.109798
1085.5871,0.110224
1086.5190,0.109664
1087.4508,0.108421
1088.3826,0.106549
1089.3145,0.103732
1090.2463,0.099935
1091.1782,0.095735
1092.1100,0.091471
1093.0418,0.086881
1093.9737,0.082256
1094.9055,0.078019
1095.8373,0.074084
1096.7692,0.070227
1097.7010,0.066804
1098.6328,0.063780
1099.5647,0.061239
1100.4965,0.058993
1101.4283,0.057049
1102.3602,0.055329
1103.2920,0.053620
1104.2238,0.052310
1105.1557,0.051181
1106.0875,0.050159
1107.0193,0.049205
1107.9512,0.048322
1108.8830,0.047705
1109.8148,0.047189
1110.7467,0.046814
1111.6785,0.046601
1112.6103,0.046316
1113.5422,0.045996
1114.4740,0.045777
1115.4058,0.045523
1116.3377,0.045299
1117.2695,0.045226
1118.2014,0.045182
1119.1332,0.045199
1120.0650,0.045090
1120.9969,0.045080
1121.9287,0.045098
1122.8605,0.044945
1123.7924,0.044885
1124.7242,0.044897
1125.6560,0.044798
1126.5879,0.044898
1127.5197,0.044875
1128.4515,0.044422
1129.3834,0.044282
1130.3152,0.044391
1131.2470,0.044457
1132.1789,0.044350
1133.1107,0.044171
1134.0425,0.043921
1134.9744,0.043790
1135.9062,0.043717
1136.8380,0.043511
1137.7699,0.043217
1138.7017,0.043018
1139.6335,0.042889
1140.5654,0.042866
1141.4972,0.042816
1142.4290,0.042749
1143.3609,0.042589
1144.2927,0.042272
1145.2246,0.042256
1146.1564,0.042287
1147.0882,0.042196
1148.0201,0.042237
1148.9519,0.042295
1149.8837,0.042413
1150.8156,0.042321
1151.7474,0.042217
1152.6792,0.042553
1153.6111,0.042775
1154.5429,0.042404
1155.4747,0.042026
1156.4066,0.041953
1157.3384,0.041885
1158.2702,0.041863
1159.2021,0.041726
1160.1339,0.041483
1161.0657,0.041249
1161.9976,0.041019
1162.9294,0.040756
1163.8612,0.040572
1164.7931,0.040560
1165.7249,0.040430
1166.6567,0.040230
1167.5886,0.040146
1168.5204,0.040207
1169.4522,0.040177
1170.3841,0.040116
1171.3159,0.039887
1172.2477,0.039616
1173.1796,0.039697
1174.1114,0.039661
1175.0433,0.039506
1175.9751,0.039374
1176.9069,0.039314
1177.8388,0.039354
1178.7706,0.039364
1179.7024,0.039481
1180.6343,0.039539
1181.5661,0.039312
1182.4979,0.039155
1183.4298,0.039173
1184.3616,0.039162
1185.2934,0.039281
1186.2253,0.039359
1187.1571,0.039356
1188.0889,0.039391
1189.0208,0.039352
1189.9526,0.039301
1190.8844,0.039409
1191.8163,0.039318
1192.7481,0.039122
1193.6799,0.039289
1194.6118,0.039583
1195.5436,0.039622
1196.4754,0.039579
1197.4073,0.039652
1198.3391,0.039667
1199.2709,0.039701
1200.2028,0.039611
1201.1346,0.039367
1202.0665,0.039441
1202.9983,0.039669
1203.9301,0.039599
1204.8620,0.039483
1205.7938,0.039622
1206.7256,0.039560
1207.6575,0.039449
1208.5893,0.039668
1209.5211,0.039740
1210.4530,0.039765
1211.3848,0.039882
1212.3166,0.040043
1213.2485,0.040074
1214.1803,0.040072
1215.1121,0.040332
1216.0440,0.040487
1216.9758,0.040315
1217.9076,0.040249
1218.8395,0.040197
1219.7713,0.040323
1220.7031,0.040712
1221.6350,0.040736
1222.5668,0.040540
1223.4986,0.040476
1224.4305,0.040480
1225.3623,0.040742
1226.2941,0.040985
1227.2260,0.040919
1228.1578,0.040725
1229.0897,0.040646
1230.0215,0.040893
1230.9533,0.041155
1231.8852,0.041377
1232.8170,0.041437
1233.7488,0.041458
1234.6807,0.041475
1235.6125,0.041445
1236.5443,0.041498
1237.4762,0.041619
1238.4080,0.041744
1239.3398,0.041706
1240.2717,0.041922
1241.2035,0.042171
1242.1353,0.042292
1243.0672,0.042482
1243.9990,0.042580
1244.9308,0.042787
1245.8627,0.043121
1246.7945,0.043160
1247.7263,0.042909
1248.6582,0.043052
1249.5900,0.043324
1250.5218,0.043656
1251.4537,0.044011
1252.3855,0.044186
1253.3173,0.044326
1254.2492,0.044410
1255.1810,0.044558
1256.1129,0.044895
1257.0447,0.045336
1257.9765,0.045868
1258.9084,0.046360
1259.8402,0.046645
1260.7720,0.046938
1261.7039,0.047388
1262.6357,0.047981
1263.5675,0.048367
1264.4994,0.048834
1265.4312,0.049450
1266.3630,0.050085
1267.2949,0.050775
1268.2267,0.051263
1269.1585,0.051732
1270.0904,0.052364
1271.0222,0.052938
1271.9540,0.053542
1272.8859,0.054231
1273.8177,0.054355
1274.7495,0.053910
1275.6814,0.053798
1276.6132,0.053675
1277.5450,0.053123
1278.4769,0.052786
1279.4087,0.052559
1280.3405,0.052017
1281.2724,0.051447
1282.2042,0.051106
1283.1361,0.050656
1284.0679,0.050378
1284.9997,0.050132
1285.9316,0.049611
1286.8634,0.049489
1287.7952,0.049684
1288.7271,0.049758
1289.6589,0.049786
1290.5907,0.049768
1291.5226,0.049597
1292.4544,0.049604
1293.3862,0.049782
1294.3181,0.049936
1295.2499,0.050171
1296.1817,0.050365
1297.1136,0.050571
1298.0454,0.050673
1298.9772,0.050789
1299.9091,0.051286
1300.8409,0.051594
1301.7727,0.051665
1302.7046,0.051806
1303.6364,0.051911
1304.5682,0.052228
1305.5001,0.052674
1306.4319,0.052810
1307.3637,0.052986
1308.2956,0.053463
1309.2274,0.053945
1310.1592,0.054022
1311.0911,0.053979
1312.0229,0.054107
1312.9548,0.054788
1313.8866,0.055332
1314.8184,0.055288
1315.7503,0.055605
1316.6821,0.055655
1317.6139,0.055484
1318.5458,0.055685
1319.4776,0.056044
1320.4094,0.056328
1321.3413,0.056306
1322.2731,0.056293
1323.2049,0.056388
1324.1368,0.056528
1325.0686,0.056674
1326.0004,0.056732
1326.9323,0.056678
1327.8641,0.056338
1328.7959,0.056120
1329.7278,0.056209
1330.6596,0.056165
1331.5914,0.055876
1332.5233,0.055666
1333.4551,0.055569
1334.3869,0.055147
1335.3188,0.054554
1336.2506,0.054162
1337.1824,0.053920
1338.1143,0.053538
1339.0461,0.053592
1339.9780,0.054079
1340.9098,0.054122
1341.8416,0.053755
1342.7735,0.053156
1343.7053,0.052633
1344.6371,0.052218
1345.5690,0.051721
1346.5008,0.051147
1347.4326,0.050635
1348.3645,0.050536
1349.2963,0.050438
1350.2281,0.050244
1351.1600,0.050178
1352.0918,0.050030
1353.0236,0.049878
1353.9555,0.049660
1354.8873,0.049563
1355.8191,0.049729
1356.7510,0.049681
1357.6828,0.049240
1358.6146,0.049024
1359.5465,0.048868
1360.4783,0.048564
1361.4101,0.048810
1362.3420,0.049632
1363.2738,0.050600
1364.2056,0.051488
1365.1375,0.051433
1366.0693,0.051122
1367.0012,0.051306
1367.9330,0.051752
1368.8648,0.052341
1369.7967,0.053112
1370.7285,0.053918
1371.6603,0.054552
1372.5922,0.055433
1373.5240,0.057051
1374.4558,0.059425
1375.3877,0.061813
1376.3195,0.063038
1377.2513,0.063155
1378.1832,0.063222
1379.1150,0.063987
1380.0468,0.064906
1380.9787,0.065538
1381.9105,0.066110
1382.8423,0.066350
1383.7742,0.066243
1384.7060,0.066252
1385.6378,0.065943
1386.5697,0.065322
1387.5015,0.065549
1388.4333,0.066962
1389.3652,0.067054
1390.2970,0.065167
1391.2288,0.063568
1392.1607,0.062869
1393.0925,0.062256
1394.0244,0.061615
1394.9562,0.061982
1395.8880,0.063078
1396.8199,0.063146
1397.7517,0.062643
1398.6835,0.062491
1399.6154,0.063536
1400.5472,0.064649
1401.4790,0.063949
1402.4109,0.062907
1403.3427,0.062634
1404.2745,0.062720
1405.2064,0.063090
1406.1382,0.064405
1407.0700,0.065032
1408.0019,0.064287
1408.9337,0.063995
1409.8655,0.064420
1410.7974,0.064882
1411.7292,0.065199
1412.6610,0.065261
1413.5929,0.064894
1414.5247,0.064283
1415.4565,0.063873
1416.3884,0.063792
1417.3202,0.063897
1418.2520,0.064111
1419.1839,0.064381
1420.1157,0.065554
1421.0476,0.066338
1421.9794,0.064838
1422.9112,0.063633
1423.8431,0.063339
1424.7749,0.063583
1425.7067,0.063591
1426.6386,0.062354
1427.5704,0.061131
1428.5022,0.060554
1429.4341,0.060170
1430.3659,0.060125
1431.2977,0.060202
1432.2296,0.059514
1433.1614,0.058528
1434.0932,0.057846
1435.0251,0.057256
1435.9569,0.056471
1436.8887,0.056751
1437.8206,0.059123
1438.7524,0.059036
1439.6842,0.057308
1440.6161,0.056678
1441.5479,0.056408
1442.4797,0.056182
1443.4116,0.056321
1444.3434,0.056522
1445.2752,0.056846
1446.2071,0.057603
1447.1389,0.058411
1448.0707,0.059524
1449.0026,0.061562
1449.9344,0.062331
1450.8663,0.061556
1451.7981,0.061420
1452.7299,0.061854
1453.6618,0.061677
1454.5936,0.060814
1455.5254,0.060162
1456.4573,0.060292
1457.3891,0.061118
1458.3209,0.061821
1459.2528,0.060325
1460.1846,0.057835
1461.1164,0.055496
1462.0483,0.053237
1462.9801,0.051355
1463.9119,0.050027
1464.8438,0.049451
1465.7756,0.049681
1466.7074,0.049278
1467.6393,0.047827
1468.5711,0.046467
1469.5029,0.045667
1470.4348,0.044945
1471.3666,0.044134
1472.2984,0.044221
1473.2303,0.045475
1474.1621,0.046311
1475.0939,0.046116
1476.0258,0.045478
1476.9576,0.045496
1477.8895,0.046298
1478.8213,0.046228
1479.7531,0.045696
1480.6850,0.045554
1481.6168,0.045706
1482.5486,0.045961
1483.4805,0.045656
1484.4123,0.044984
1485.3441,0.044856
1486.2760,0.044662
1487.2078,0.044224
1488.1396,0.044372
1489.0715,0.044723
1490.0033,0.044388
1490.9351,0.044316
1491.8670,0.044270
1492.7988,0.042797
1493.7306,0.041485
1494.6625,0.040700
1495.5943,0.040166
1496.5261,0.040357
1497.4580,0.041412
1498.3898,0.041471
1499.3216,0.041047
1500.2535,0.041330
1501.1853,0.041042
1502.1171,0.040083
1503.0490,0.039438
1503.9808,0.038872
1504.9127,0.038107
1505.8445,0.038032
1506.7763,0.039713
1507.7082,0.041924
1508.6400,0.042512
1509.5718,0.042089
1510.5037,0.041377
1511.4355,0.040637
1512.3673,0.040023
1513.2992,0.039784
1514.2310,0.039341
1515.1628,0.038738
1516.0947,0.038711
1517.0265,0.038805
1517.9583,0.039323
1518.8902,0.039954
1519.8220,0.039076
1520.7538,0.038473
1521.6857,0.039939
1522.6175,0.042042
1523.5493,0.041342
1524.4812,0.040232
1525.4130,0.040088
1526.3448,0.040661
1527.2767,0.041301
1528.2085,0.040939
1529.1403,0.040674
1530.0722,0.040660
1531.0040,0.040065
1531.9359,0.039436
1532.8677,0.039902
1533.7995,0.040813
1534.7314,0.041719
1535.6632,0.041659
1536.5950,0.040407
1537.5269,0.039297
1538.4587,0.038456
1539.3905,0.038319
1540.3224,0.039539
1541.2542,0.042095
1542.1860,0.042801
1543.1179,0.043022
1544.0497,0.043322
1544.9815,0.043181
1545.9134,0.043459
1546.8452,0.043741
1547.7770,0.043165
1548.7089,0.042513
1549.6407,0.042428
1550.5725,0.042948
1551.5044,0.043605
1552.4362,0.043185
1553.3680,0.042141
1554.2999,0.041433
1555.2317,0.041854
1556.1635,0.042542
1557.0954,0.041599
1558.0272,0.041676
1558.9591,0.045482
1559.8909,0.051067
1560.8227,0.051572
1561.7546,0.049620
1562.6864,0.047204
1563.6182,0.046063
1564.5501,0.045799
1565.4819,0.045975
1566.4137,0.046558
1567.3456,0.046681
1568.2774,0.046689
1569.2092,0.047272
1570.1411,0.048919
1571.0729,0.050794
1572.0047,0.050194
1572.9366,0.048794
1573.8684,0.048622
1574.8002,0.049419
1575.7321,0.050244
1576.6639,0.051833
1577.5957,0.055166
1578.5276,0.055347
1579.4594,0.053686
1580.3912,0.053436
1581.3231,0.054178
1582.2549,0.054877
1583.1867,0.055235
1584.1186,0.055495
1585.0504,0.055871
1585.9822,0.056883
1586.9141,0.057899
1587.8459,0.058584
1588.7778,0.059480
1589.7096,0.060287
1590.6414,0.060916
1591.5733,0.061927
1592.5051,0.062741
1593.4369,0.063409
1594.3688,0.064481
1595.3006,0.065923
1596.2324,0.067576
1597.1643,0.068607
1598.0961,0.069153
1599.0279,0.069914
1599.9598,0.071356
1600.8916,0.073213
1601.8234,0.074425
1602.7553,0.075578
1603.6871,0.076992
1604.6189,0.078324
1605.5508,0.079720
1606.4826,0.080950
1607.4144,0.082701
1608.3463,0.085132
1609.2781,0.087095
1610.2099,0.088579
1611.1418,0.090289
1612.0736,0.091483
1613.0054,0.091942
1613.9373,0.093225
1614.8691,0.094986
1615.8010,0.096874
1616.7328,0.100319
1617.6646,0.106776
1618.5965,0.111252
1619.5283,0.109940
1620.4601,0.109477
1621.3920,0.110486
1622.3238,0.112169
1623.2556,0.114854
1624.1875,0.119252
1625.1193,0.123459
1626.0511,0.123520
1626.9830,0.123468
1627.9148,0.125700
1628.8466,0.128924
1629.7785,0.131258
1630.7103,0.130407
1631.6421,0.129955
1632.5740,0.130476
1633.5058,0.130462
1634.4376,0.130698
1635.3695,0.132757
1636.3013,0.139678
1637.2331,0.145924
1638.1650,0.143725
1639.0968,0.141953
1640.0286,0.140303
1640.9605,0.138622
1641.8923,0.137939
1642.8242,0.137358
1643.7560,0.136196
1644.6878,0.134527
1645.6197,0.133250
1646.5515,0.135140
1647.4833,0.138788
1648.4152,0.138842
1649.3470,0.136281
1650.2788,0.132945
1651.2107,0.129638
1652.1425,0.128251
1653.0743,0.129365
1654.0062,0.136372
1654.9380,0.139902
1655.8698,0.133456
1656.8017,0.128096
1657.7335,0.124813
1658.6653,0.122798
1659.5972,0.121518
1660.5290,0.119978
1661.4608,0.117841
1662.3927,0.115989
1663.3245,0.115335
1664.2563,0.114441
1665.1882,0.112118
1666.1200,0.109399
1667.0518,0.107262
1667.9837,0.105173
1668.9155,0.103188
1669.8474,0.102929
1670.7792,0.103715
1671.7110,0.101826
1672.6429,0.098658
1673.5747,0.096067
1674.5065,0.094208
1675.4384,0.092883
1676.3702,0.092955
1677.3020,0.091852
1678.2339,0.088739
1679.1657,0.085624
1680.0975,0.083219
1681.0294,0.081680
1681.9612,0.080211
1682.8930,0.078505
1683.8249,0.077183
1684.7567,0.076592
1685.6885,0.076811
1686.6204,0.075746
1687.5522,0.073291
1688.4840,0.070928
1689.4159,0.069621
1690.3477,0.068262
1691.2795,0.066063
1692.2114,0.064213
1693.1432,0.062741
1694.0750,0.061018
1695.0069,0.059773
1695.9387,0.058120
1696.8706,0.056890
1697.8024,0.056616
1698.7342,0.055052
1699.6661,0.052545
1700.5979,0.051394
1701.5297,0.052276
1702.4616,0.051591
1703.3934,0.049435
1704.3252,0.048030
1705.2571,0.047499
1706.1889,0.046299
1707.1207,0.044738
1708.0526,0.044098
1708.9844,0.043272
1709.9162,0.042063
1710.8481,0.040914
1711.7799,0.039812
1712.7117,0.038710
1713.6436,0.038025
1714.5754,0.037370
1715.5072,0.036225
1716.4391,0.035760
1717.3709,0.035394
1718.3027,0.035229
1719.2346,0.035661
1720.1664,0.035283
1721.0982,0.033631
1722.0301,0.032371
1722.9619,0.032000
1723.8937,0.031577
1724.8256,0.030756
1725.7574,0.030279
1726.6893,0.029865
1727.6211,0.028975
1728.5529,0.027792
1729.4848,0.027189
1730.4166,0.026817
1731.3484,0.026774
1732.2803,0.026690
1733.2121,0.025939
1734.1439,0.025952
1735.0758,0.026511
1736.0076,0.026099
1736.9394,0.025016
1737.8713,0.023924
1738.8031,0.022980
1739.7349,0.022966
1740.6668,0.022750
1741.5986,0.022734
1742.5304,0.022791
1743.4623,0.022042
1744.3941,0.021123
1745.3259,0.021341
1746.2578,0.021771
1747.1896,0.020914
1748.1214,0.019886
1749.0533,0.019812
1749.9851,0.019624
1750.9169,0.019586
1751.8488,0.019577
1752.7806,0.019505
1753.7125,0.019423
1754.6443,0.019199
1755.5761,0.018753
1756.5080,0.018009
1757.4398,0.017987
1758.3716,0.018469
1759.3035,0.018157
1760.2353,0.017441
1761.1671,0.017276
1762.0990,0.017151
1763.0308,0.016978
1763.9626,0.017156
1764.8945,0.017221
1765.8263,0.016916
1766.7581,0.016419
1767.6900,0.015779
1768.6218,0.015430
1769.5536,0.015129
1770.4855,0.015201
1771.4173,0.014887
1772.3491,0.015020
1773.2810,0.015879
1774.2128,0.016558
1775.1446,0.016182
1776.0765,0.014819
1777.0083,0.014394
1777.9401,0.014904
1778.8720,0.014246
1779.8038,0.013153
1780.7357,0.012944
1781.6675,0.013427
1782.5993,0.013765
1783.5312,0.013634
1784.4630,0.013559
1785.3948,0.013740
1786.3267,0.013458
1787.2585,0.013248
1788.1903,0.012779
1789.1222,0.012030
1790.0540,0.011862
1790.9858,0.012544
1791.9177,0.013051
1792.8495,0.012654
1793.7813,0.012579
1794.7132,0.013116
1795.6450,0.013038
1796.5768,0.012495
1797.5087,0.012245
1798.4405,0.012218
1799.3723,0.012012
1800.3042,0.011933
1801.2360,0.012018
1802.1678,0.011741
1803.0997,0.011467
1804.0315,0.011883
1804.9633,0.011535
1805.8952,0.011466
1806.8270,0.011306
1807.7589,0.010992
1808.6907,0.010995
1809.6225,0.011175
1810.5544,0.011180
1811.4862,0.011110
1812.4180,0.011188
1813.3499,0.011145
1814.2817,0.011443
1815.2135,0.011309
1816.1454,0.011151
1817.0772,0.010413
1818.0090,0.010145
1818.9409,0.010708
1819.8727,0.010762
1820.8045,0.010907
1821.7364,0.010974
1822.6682,0.010583
1823.6000,0.010133
1824.5319,0.010433
1825.4637,0.009984
1826.3955,0.009436
1827.3274,0.009927
1828.2592,0.009548
1829.1910,0.009507
1830.1229,0.009346
1831.0547,0.009347
1831.9865,0.009819
1832.9184,0.009637
1833.8502,0.009542
1834.7821,0.009909
1835.7139,0.010390
1836.6457,0.010205
1837.5776,0.009915
1838.5094,0.009789
1839.4412,0.010100
1840.3731,0.010068
1841.3049,0.009588
1842.2367,0.009266
1843.1686,0.008982
1844.1004,0.009314
1845.0322,0.009399
1845.9641,0.009070
1846.8959,0.008693
1847.8277,0.008850
1848.7596,0.008875
1849.6914,0.009273
1850.6232,0.009111
1851.5551,0.009116
1852.4869,0.008827
1853.4187,0.008600
1854.3506,0.009077
1855.2824,0.008684
1856.2142,0.008262
1857.1461,0.009010
1858.0779,0.009977
1859.0097,0.009809
1859.9416,0.009222
1860.8734,0.008784
1861.8052,0.008992
1862.7371,0.009420
1863.6689,0.008788
1864.6008,0.008157
1865.5326,0.008797
1866.4644,0.009570
1867.3963,0.009093
1868.3281,0.008166
1869.2599,0.007550
1870.1918,0.007642
1871.1236,0.007976
1872.0554,0.008567
1872.9873,0.008204
1873.9191,0.008052
1874.8509,0.008839
1875.7828,0.008965
1876.7146,0.008759
1877.6464,0.008637
1878.5783,0.008515
1879.5101,0.008094
1880.4419,0.007932
1881.3738,0.007986
1882.3056,0.007927
1883.2374,0.007536
1884.1693,0.007167
1885.1011,0.007951
1886.0329,0.008212
1886.9648,0.008780
1887.8966,0.009726
1888.8284,0.009273
1889.7603,0.008144
1890.6921,0.007522
1891.6240,0.006956
1892.5558,0.007966
1893.4876,0.008629
1894.4195,0.008280
1895.3513,0.008209
1896.2831,0.008470
1897.2150,0.008943
1898.1468,0.008516
1899.0786,0.008126
1900.0105,0.008601
1900.9423,0.009296
1901.8741,0.009500
1902.8060,0.008917
1903.7378,0.008743
1904.6696,0.008860
1905.6015,0.009528
1906.5333,0.008560
1907.4651,0.007627
1908.3970,0.008486
1909.3288,0.008890
1910.2606,0.008824
1911.1925,0.008904
1912.1243,0.009093
1913.0561,0.008852
1913.9880,0.007998
1914.9198,0.007566
1915.8516,0.007466
1916.7835,0.008132
1917.7153,0.009323
1918.6472,0.009819
1919.5790,0.008890
1920.5108,0.008203
1921.4427,0.008822
1922.3745,0.009180
1923.3063,0.009299
1924.2382,0.009617
1925.1700,0.008824
1926.1018,0.007834
1927.0337,0.006372
1927.9655,0.006318
1928.8973,0.007747
1929.8292,0.008498
1930.7610,0.007700
1931.6928,0.007343
1932.6247,0.006253
1933.5565,0.006878
1934.4883,0.008205
1935.4202,0.007661
1936.3520,0.006106
1937.2838,0.006940
1938.2157,0.007183
1939.1475,0.005108
1940.0793,0.005839
1941.0112,0.006706
1941.9430,0.005941
1942.8748,0.006399
1943.8067,0.006827
1944.7385,0.007407
1945.6704,0.008767
1946.6022,0.006307
1947.5340,0.005196
1948.4659,0.005174
1949.3977,0.004348
1950.3295,0.006794
1951.2614,0.008671
1952.1932,0.006426
1953.1250,0.006064
1954.0569,0.006947
1954.9887,0.006366
1955.9205,0.005834
1956.8524,0.005639
1957.7842,0.005275
1958.7160,0.005050
1959.6479,0.003792
1960.5797,0.003794
1961.5115,0.005281
1962.4434,0.005738
1963.3752,0.002424
1964.3070,0.003613
1965.2389,0.006862
1966.1707,0.005127
1967.1025,0.002160
1968.0344,0.000752
1968.9662,0.002257
1969.8980,0.003668
1970.8299,0.005932
1971.7617,0.007947
1972.6936,0.005863
1973.6254,0.003497
1974.5572,0.000334
1975.4891,0.000442
1976.4209,0.002453
1977.3527,0.002571
1978.2846,0.002943
1979.2164,0.001304
1980.1482,0.000337
1981.0801,0.002232
1982.0119,0.002933
1982.9437,0.004220
1983.8756,0.004211
1984.8074,0.005035
1985.7392,0.005759
1986.6711,0.004160
1987.6029,0.004351
1988.5347,0.006526
1989.4666,0.007286
1990.3984,0.007436
1991.3302,0.006360
1992.2621,0.001870
1993.1939,-0.000829
1994.1257,0.001211
1995.0576,0.005061
1995.9894,0.007028
1996.9212,0.006027
1997.8531,0.004455
1998.7849,0.000602
1999.7167,0.001607
2000.6486,0.006018
2001.5804,0.006596
2002.5123,0.005093
2003.4441,0.005723
2004.3759,0.006121
2005.3078,0.008037
2006.2396,0.010185
2007.1714,0.010659
2008.1033,0.006451
2009.0351,0.006402
2009.9669,0.007428
2010.8988,0.007046
2011.8306,0.002942
2012.7624,0.000995
2013.6943,0.000100
2014.6261,0.000876
2015.5579,0.002113
2016.4898,0.002008
2017.4216,0.002767
2018.3534,0.002342
2019.2853,0.004326
2020.2171,0.003974
2021.1489,0.000541
2022.0808,0.001575
2023.0126,0.004597
2023.9444,0.006378
2024.8763,0.006035
2025.8081,0.006330
2026.7399,0.007687
2027.6718,0.006136
2028.6036,0.003495
2029.5355,0.002297
2030.4673,0.002179
2031.3991,0.005414
2032.3310,0.003849
2033.2628,0.001352
2034.1946,0.002485
2035.1265,0.002815
2036.0583,0.005010
2036.9901,0.007515
2037.9220,0.005557
2038.8538,0.004709
2039.7856,0.006408
2040.7175,0.008028
2041.6493,0.005608
2042.5811,0.002586
2043.5130,0.004868
2044.4448,0.006282
2045.3766,0.004881
2046.3085,0.005076
2047.2403,0.006480
2048.1721,0.008143
2049.1040,0.008508
2050.0358,0.006696
2050.9676,0.006660
2051.8995,0.008332
2052.8313,0.007592
2053.7631,0.006885
2054.6950,0.008954
2055.6268,0.009456
2056.5587,0.008996
2057.4905,0.009674
2058.4223,0.009809
2059.3542,0.008479
2060.2860,0.008880
2061.2178,0.009841
2062.1497,0.009828
2063.0815,0.009240
2064.0133,0.010546
2064.9452,0.012478
2065.8770,0.012012
2066.8088,0.010502
2067.7407,0.011150
2068.6725,0.011177
2069.6043,0.011725
2070.5362,0.011734
2071.4680,0.011204
2072.3998,0.012592
2073.3317,0.012763
2074.2635,0.012199
2075.1953,0.012566
2076.1272,0.012243
2077.0590,0.011896
2077.9908,0.012069
2078.9227,0.011957
2079.8545,0.013179
2080.7863,0.013001
2081.7182,0.011206
2082.6500,0.011000
2083.5819,0.011577
2084.5137,0.012216
2085.4455,0.012283
2086.3774,0.012077
2087.3092,0.012869
2088.2410,0.013101
2089.1729,0.011506
2090.1047,0.012212
2091.0365,0.013493
2091.9684,0.013797
2092.9002,0.013218
2093.8320,0.012533
2094.7639,0.013677
2095.6957,0.013742
2096.6275,0.013131
2097.5594,0.013947
2098.4912,0.013848
2099.4230,0.012472
2100.3549,0.012197
2101.2867,0.012517
2102.2185,0.011972
2103.1504,0.011194
2104.0822,0.010361
2105.0140,0.011988
2105.9459,0.012672
2106.8777,0.012378
2107.8095,0.013670
2108.7414,0.014195
2109.6732,0.012518
2110.6051,0.011744
2111.5369,0.012096
2112.4687,0.012447
2113.4006,0.012687
2114.3324,0.014224
2115.2642,0.014252
2116.1961,0.012921
2117.1279,0.012414
2118.0597,0.013057
2118.9916,0.013659
2119.9234,0.013990
2120.8552,0.014300
2121.7871,0.014849
2122.7189,0.013584
2123.6507,0.012507
2124.5826,0.012626
2125.5144,0.012762
2126.4462,0.013176
2127.3781,0.015249
2128.3099,0.015718
2129.2417,0.013606
2130.1736,0.013112
2131.1054,0.012269
2132.0372,0.010997
2132.9691,0.012619
2133.9009,0.012948
2134.8327,0.011661
2135.7646,0.011064
2136.6964,0.010338
2137.6282,0.011392
2138.5601,0.011688
2139.4919,0.010770
2140.4238,0.009402
2141.3556,0.009622
2142.2874,0.009966
2143.2193,0.011386
2144.1511,0.012424
2145.0829,0.010442
2146.0148,0.009027
2146.9466,0.008947
2147.8784,0.009233
2148.8103,0.009485
2149.7421,0.010296
2150.6739,0.009254
2151.6058,0.008483
2152.5376,0.009543
2153.4694,0.010223
2154.4013,0.009116
2155.3331,0.005605
2156.2649,0.004634
2157.1968,0.004549
2158.1286,0.002531
2159.0604,0.004605
2159.9923,0.007239
2160.9241,0.008642
2161.8559,0.007232
2162.7878,0.004966
2163.7196,0.005817
2164.6514,0.007188
2165.5833,0.008977
2166.5151,0.008833
2167.4470,0.003073
2168.3788,0.003366
2169.3106,0.006359
2170.2425,0.005491
2171.1743,0.006325
2172.1061,0.007521
2173.0380,0.007805
2173.9698,0.008049
2174.9016,0.006964
2175.8335,0.006794
2176.7653,0.005965
2177.6971,0.005819
2178.6290,0.006541
2179.5608,0.006733
2180.4926,0.006250
2181.4245,0.004027
2182.3563,0.004813
2183.2881,0.006051
2184.2200,0.006158
2185.1518,0.005234
2186.0836,0.004945
2187.0155,0.005950
2187.9473,0.007935
2188.8791,0.008238
2189.8110,0.005705
2190.7428,0.003270
2191.6746,0.003275
2192.6065,0.005557
2193.5383,0.006951
2194.4702,0.006541
2195.4020,0.007639
2196.3338,0.009868
2197.2657,0.010850
2198.1975,0.010674
2199.1293,0.011220
2200.0612,0.011124
2200.9930,0.009751
2201.9248,0.009345
2202.8567,0.009390
2203.7885,0.008588
2204.7203,0.008178
2205.6522,0.007567
2206.5840,0.006861
2207.5158,0.007152
2208.4477,0.008063
2209.3795,0.007827
2210.3113,0.007441
2211.2432,0.008864
2212.1750,0.008947
2213.1068,0.007852
2214.0387,0.007851
2214.9705,0.008159
2215.9023,0.007283
2216.8342,0.005976
2217.7660,0.006945
2218.6978,0.008370
2219.6297,0.009250
2220.5615,0.009306
2221.4934,0.008832
2222.4252,0.008791
2223.3570,0.007803
2224.2889,0.006535
2225.2207,0.007615
2226.1525,0.008847
2227.0844,0.007358
2228.0162,0.007272
2228.9480,0.010256
2229.8799,0.009228
2230.8117,0.006463
2231.7435,0.008204
2232.6754,0.009612
2233.6072,0.006464
2234.5390,0.004538
2235.4709,0.005776
2236.4027,0.006837
2237.3345,0.008569
2238.2664,0.009993
2239.1982,0.009536
2240.1300,0.010003
2241.0619,0.009958
2241.9937,0.009027
2242.9255,0.009462
2243.8574,0.009475
2244.7892,0.009374
2245.7210,0.010991
2246.6529,0.011922
2247.5847,0.009390
2248.5166,0.007272
2249.4484,0.008308
2250.3802,0.009512
2251.3121,0.009542
2252.2439,0.010422
2253.1757,0.010420
2254.1076,0.008902
2255.0394,0.008970
2255.9712,0.009147
2256.9031,0.008630
2257.8349,0.008721
2258.7667,0.009073
2259.6986,0.009254
2260.6304,0.009919
2261.5622,0.011276
2262.4941,0.011622
2263.4259,0.010493
2264.3577,0.008602
2265.2896,0.007594
2266.2214,0.007826
2267.1532,0.008673
2268.0851,0.008888
2269.0169,0.008865
2269.9487,0.009429
2270.8806,0.010048
2271.8124,0.009128
2272.7442,0.006972
2273.6761,0.006939
2274.6079,0.008683
2275.5397,0.009697
2276.4716,0.010376
2277.4034,0.009560
2278.3353,0.008278
2279.2671,0.007858
2280.1989,0.007570
2281.1308,0.008405
2282.0626,0.008424
2282.9944,0.007464
2283.9263,0.007717
2284.8581,0.008852
2285.7899,0.009313
2286.7218,0.009209
2287.6536,0.009107
2288.5854,0.008702
2289.5173,0.008346
2290.4491,0.008473
2291.3809,0.008879
2292.3128,0.009177
2293.2446,0.009141
2294.1764,0.008932
2295.1083,0.008703
2296.0401,0.008689
2296.9719,0.008828
2297.9038,0.008289
2298.8356,0.008724
2299.7674,0.009509
2300.6993,0.009074
2301.6311,0.008921
2302.5629,0.008577
2303.4948,0.008500
2304.4266,0.008990
2305.3585,0.008323
2306.2903,0.007822
2307.2221,0.008498
2308.1540,0.008918
2309.0858,0.009130
2310.0176,0.009602
2310.9495,0.009200
2311.8813,0.008700
2312.8131,0.009171
2313.7450,0.009144
2314.6768,0.008757
2315.6086,0.008337
2316.5405,0.008290
2317.4723,0.008518
2318.4041,0.008434
2319.3360,0.008263
2320.2678,0.008355
2321.1996,0.009096
2322.1315,0.009008
2323.0633,0.008379
2323.9951,0.008502
2324.9270,0.008463
2325.8588,0.008411
2326.7906,0.008413
2327.7225,0.008666
2328.6543,0.009377
2329.5861,0.009317
2330.5180,0.008254
2331.4498,0.007247
2332.3817,0.007510
2333.3135,0.007924
2334.2453,0.007975
2335.1772,0.008129
2336.1090,0.008032
2337.0408,0.007717
2337.9727,0.007781
2338.9045,0.008204
2339.8363,0.008234
2340.7682,0.008235
2341.7000,0.008001
2342.6318,0.007484
2343.5637,0.007806
2344.4955,0.008057
2345.4273,0.008044
2346.3592,0.007813
2347.2910,0.007067
2348.2228,0.007335
2349.1547,0.008413
2350.0865,0.008736
2351.0183,0.008068
2351.9502,0.007560
2352.8820,0.007790
2353.8138,0.007851
2354.7457,0.008123
2355.6775,0.008160
2356.6093,0.007986
2357.5412,0.008156
2358.4730,0.008074
2359.4049,0.007444
2360.3367,0.006354
2361.2685,0.006564
2362.2004,0.007657
2363.1322,0.007851
2364.0640,0.008059
2364.9959,0.007937
2365.9277,0.006911
2366.8595,0.006112
2367.7914,0.006024
2368.7232,0.007129
2369.6550,0.007623
2370.5869,0.006961
2371.5187,0.007119
2372.4505,0.007676
2373.3824,0.006874
2374.3142,0.005772
2375.2460,0.006326
2376.1779,0.007273
2377.1097,0.007836
2378.0415,0.007984
2378.9734,0.007673
2379.9052,0.007518
2380.8370,0.007114
2381.7689,0.006980
2382.7007,0.006998
2383.6325,0.006948
2384.5644,0.007693
2385.4962,0.007842
2386.4281,0.007042
2387.3599,0.006635
2388.2917,0.006820
2389.2236,0.007257
2390.1554,0.006997
2391.0872,0.006436
2392.0191,0.006602
2392.9509,0.006717
2393.8827,0.006497
2394.8146,0.006470
2395.7464,0.006724
2396.6782,0.006903
2397.6101,0.006890
2398.5419,0.007037
2399.4737,0.006874
2400.4056,0.007021
2401.3374,0.007136
2402.2692,0.006934
2403.2011,0.007067
2404.1329,0.006341
2405.0647,0.005895
2405.9966,0.006516
2406.9284,0.006501
2407.8602,0.005635
2408.7921,0.005268
2409.7239,0.005733
2410.6557,0.006362
2411.5876,0.007000
2412.5194,0.006865
2413.4512,0.006399
2414.3831,0.006225
2415.3149,0.006096
2416.2468,0.006342
2417.1786,0.006479
2418.1104,0.006146
2419.0423,0.006518
2419.9741,0.007351
2420.9059,0.007107
2421.8378,0.006749
2422.7696,0.006793
2423.7014,0.006230
2424.6333,0.005815
2425.5651,0.006132
2426.4969,0.006031
2427.4288,0.005623
2428.3606,0.005881
2429.2924,0.006317
2430.2243,0.005941
2431.1561,0.005396
2432.0879,0.005319
2433.0198,0.005281
2433.9516,0.005645
2434.8834,0.005771
2435.8153,0.005441
2436.7471,0.005719
2437.6789,0.005880
2438.6108,0.005512
2439.5426,0.005398
2440.4744,0.005450
2441.4063,0.004944
2442.3381,0.004844
2443.2700,0.005516
2444.2018,0.005897
2445.1336,0.005499
2446.0655,0.004598
2446.9973,0.003808
2447.9291,0.004002
2448.8610,0.004803
2449.7928,0.004890
2450.7246,0.004756
2451.6565,0.004791
2452.5883,0.004854
2453.5201,0.005648
2454.4520,0.005658
2455.3838,0.005038
2456.3156,0.005098
2457.2475,0.005515
2458.1793,0.006132
2459.1111,0.005805
2460.0430,0.004965
2460.9748,0.004975
2461.9066,0.005410
2462.8385,0.005305
2463.7703,0.005063
2464.7021,0.005431
2465.6340,0.006175
2466.5658,0.006378
2467.4976,0.005245
2468.4295,0.004390
2469.3613,0.004497
2470.2932,0.004740
2471.2250,0.005140
2472.1568,0.005315
2473.0887,0.004936
2474.0205,0.004858
2474.9523,0.004905
2475.8842,0.005277
2476.8160,0.005636
2477.7478,0.005596
2478.6797,0.005709
2479.6115,0.005416
2480.5433,0.004971
2481.4752,0.004967
2482.4070,0.004873
2483.3388,0.004787
2484.2707,0.005114
2485.2025,0.005895
2486.1343,0.005951
2487.0662,0.005094
2487.9980,0.004728
2488.9298,0.005046
2489.8617,0.005429
2490.7935,0.005081
2491.7253,0.005111
2492.6572,0.006013
2493.5890,0.006692
2494.5208,0.006706
2495.4527,0.006336
2496.3845,0.005754
2497.3164,0.004632
2498.2482,0.004309
2499.1800,0.004439
2500.1119,0.004767
2501.0437,0.005604
2501.9755,0.006386
2502.9074,0.006217
2503.8392,0.005129
2504.7710,0.005173
2505.7029,0.005939
2506.6347,0.005483
2507.5665,0.004561
2508.4984,0.005023
2509.4302,0.005336
2510.3620,0.005336
2511.2939,0.005316
2512.2257,0.004812
2513.1575,0.004236
2514.0894,0.004364
2515.0212,0.005442
2515.9530,0.005898
2516.8849,0.005490
2517.8167,0.004726
2518.7485,0.004676
2519.6804,0.005634
2520.6122,0.006413
2521.5440,0.006162
2522.4759,0.005363
2523.4077,0.004641
2524.3396,0.004821
2525.2714,0.005521
2526.2032,0.005817
2527.1351,0.005647
2528.0669,0.005135
2528.9987,0.004989
2529.9306,0.005424
2530.8624,0.005233
2531.7942,0.005138
2532.7261,0.005690
2533.6579,0.005798
2534.5897,0.005404
2535.5216,0.004932
2536.4534,0.004512
2537.3852,0.005056
2538.3171,0.005328
2539.2489,0.004465
2540.1807,0.004476
2541.1126,0.004957
2542.0444,0.004364
2542.9762,0.004532
2543.9081,0.005861
2544.8399,0.005660
2545.7717,0.004607
2546.7036,0.004608
2547.6354,0.004659
2548.5672,0.004948
2549.4991,0.004918
2550.4309,0.004432
2551.3627,0.004831
2552.2946,0.005403
2553.2264,0.005112
2554.1583,0.004785
2555.0901,0.004974
2556.0219,0.004817
2556.9538,0.004238
2557.8856,0.005060
2558.8174,0.006342
2559.7493,0.006483
2560.6811,0.006307
2561.6129,0.005173
2562.5448,0.004127
2563.4766,0.004294
2564.4084,0.004396
2565.3403,0.004108
2566.2721,0.003986
2567.2039,0.004095
2568.1358,0.004467
2569.0676,0.004675
2569.9994,0.004664
2570.9313,0.004962
2571.8631,0.005423
2572.7949,0.005079
2573.7268,0.004696
2574.6586,0.004258
2575.5904,0.004152
2576.5223,0.004813
2577.4541,0.005309
2578.3859,0.005079
2579.3178,0.004973
2580.2496,0.005005
2581.1815,0.004810
2582.1133,0.004899
2583.0451,0.004694
2583.9770,0.004324
2584.9088,0.004947
2585.8406,0.004911
2586.7725,0.004856
2587.7043,0.004703
2588.6361,0.003879
2589.5680,0.003972
2590.4998,0.004608
2591.4316,0.004852
2592.3635,0.004750
2593.2953,0.004678
2594.2271,0.005139
2595.1590,0.005744
2596.0908,0.005842
2597.0226,0.005959
2597.9545,0.005633
2598.8863,0.005083
2599.8181,0.004951
2600.7500,0.004327
2601.6818,0.004577
2602.6136,0.005144
2603.5455,0.004824
2604.4773,0.004521
2605.4091,0.004544
2606.3410,0.004824
2607.2728,0.004848
2608.2047,0.005152
2609.1365,0.005069
2610.0683,0.004918
2611.0002,0.004660
2611.9320,0.004405
2612.8638,0.004298
2613.7957,0.004472
2614.7275,0.005444
2615.6593,0.005792
2616.5912,0.005424
2617.5230,0.005854
2618.4548,0.006167
2619.3867,0.006327
2620.3185,0.005777
2621.2503,0.004977
2622.1822,0.005022
2623.1140,0.005704
2624.0458,0.005056
2624.9777,0.004279
2625.9095,0.004754
2626.8413,0.005374
2627.7732,0.005834
2628.7050,0.006049
2629.6368,0.006669
2630.5687,0.006712
2631.5005,0.006208
2632.4323,0.006109
2633.3642,0.006262
2634.2960,0.006159
2635.2279,0.005916
2636.1597,0.005203
2637.0915,0.005060
2638.0234,0.005641
2638.9552,0.005713
2639.8870,0.005611
2640.8189,0.006158
2641.7507,0.006395
2642.6825,0.006319
2643.6144,0.006017
2644.5462,0.005821
2645.4780,0.006039
2646.4099,0.006228
2647.3417,0.006484
2648.2735,0.006721
2649.2054,0.006067
2650.1372,0.006323
2651.0690,0.007048
2652.0009,0.006387
2652.9327,0.005791
2653.8645,0.005954
2654.7964,0.006355
2655.7282,0.006612
2656.6600,0.006033
2657.5919,0.005689
2658.5237,0.005921
2659.4555,0.006075
2660.3874,0.006636
2661.3192,0.007337
2662.2511,0.007339
2663.1829,0.006777
2664.1147,0.006508
2665.0466,0.007006
2665.9784,0.007373
2666.9102,0.007184
2667.8421,0.006983
2668.7739,0.006862
2669.7057,0.007312
2670.6376,0.007153
2671.5694,0.006679
2672.5012,0.007016
2673.4331,0.006671
2674.3649,0.006437
2675.2967,0.006759
2676.2286,0.007172
2677.1604,0.007195
2678.0922,0.007263
2679.0241,0.007282
2679.9559,0.007443
2680.8877,0.007461
2681.8196,0.007253
2682.7514,0.007616
2683.6832,0.008231
2684.6151,0.008212
2685.5469,0.007532
2686.4787,0.007563
2687.4106,0.008020
2688.3424,0.008033
2689.2742,0.007577
2690.2061,0.007716
2691.1379,0.008043
2692.0698,0.008054
2693.0016,0.008181
2693.9334,0.008440
2694.8653,0.008619
2695.7971,0.008217
2696.7289,0.007943
2697.6608,0.008226
2698.5926,0.008335
2699.5244,0.008045
2700.4563,0.008424
2701.3881,0.009229
2702.3199,0.008901
2703.2518,0.008270
2704.1836,0.008593
2705.1154,0.008580
2706.0473,0.008534
2706.9791,0.008594
2707.9109,0.008927
2708.8428,0.009083
2709.7746,0.008931
2710.7064,0.009104
2711.6383,0.009060
2712.5701,0.009025
2713.5019,0.009177
2714.4338,0.008859
2715.3656,0.009072
2716.2974,0.009918
2717.2293,0.009972
2718.1611,0.009282
2719.0930,0.009079
2720.0248,0.009382
2720.9566,0.009458
2721.8885,0.009539
2722.8203,0.009310
2723.7521,0.009741
2724.6840,0.010232
2725.6158,0.010020
2726.5476,0.010053
2727.4795,0.010027
2728.4113,0.009904
2729.3431,0.010056
2730.2750,0.010907
2731.2068,0.011466
2732.1386,0.011126
2733.0705,0.010699
2734.0023,0.010886
2734.9341,0.011281
2735.8660,0.011082
2736.7978,0.010707
2737.7296,0.010970
2738.6615,0.011249
2739.5933,0.011402
2740.5251,0.011295
2741.4570,0.011101
2742.3888,0.011149
2743.3206,0.011368
2744.2525,0.011381
2745.1843,0.011375
2746.1162,0.011719
2747.0480,0.011754
2747.9798,0.011545
2748.9117,0.011448
2749.8435,0.011397
2750.7753,0.011635
2751.7072,0.011629
2752.6390,0.011684
2753.5708,0.011996
2754.5027,0.011889
2755.4345,0.011698
2756.3663,0.011831
2757.2982,0.012138
2758.2300,0.012210
2759.1618,0.012195
2760.0937,0.012206
2761.0255,0.012240
2761.9573,0.012372
2762.8892,0.012216
2763.8210,0.011911
2764.7528,0.011643
2765.6847,0.012081
2766.6165,0.012342
2767.5483,0.012445
2768.4802,0.012816
2769.4120,0.012877
2770.3438,0.012839
2771.2757,0.012800
2772.2075,0.012557
2773.1394,0.012260
2774.0712,0.012377
2775.0030,0.012691
2775.9349,0.012706
2776.8667,0.013212
2777.7985,0.013241
2778.7304,0.012720
2779.6622,0.012812
2780.5940,0.013198
2781.5259,0.013735
2782.4577,0.013942
2783.3895,0.013495
2784.3214,0.012880
2785.2532,0.013047
2786.1850,0.013965
2787.1169,0.014465
2788.0487,0.014204
2788.9805,0.013865
2789.9124,0.013822
2790.8442,0.014274
2791.7760,0.014816
2792.7079,0.014742
2793.6397,0.014915
2794.5715,0.015151
2795.5034,0.015040
2796.4352,0.014437
2797.3670,0.014190
2798.2989,0.014907
2799.2307,0.015673
2800.1626,0.016406
2801.0944,0.016403
2802.0262,0.015823
2802.9581,0.015632
2803.8899,0.015951
2804.8217,0.016055
2805.7536,0.016548
2806.6854,0.017218
2807.6172,0.017247
2808.5491,0.017187
2809.4809,0.017397
2810.4127,0.017839
2811.3446,0.018013
2812.2764,0.018387
2813.2082,0.018369
2814.1401,0.018271
2815.0719,0.018229
2816.0037,0.018685
2816.9356,0.019116
2817.8674,0.019033
2818.7992,0.019128
2819.7311,0.019143
2820.6629,0.019002
2821.5947,0.019214
2822.5266,0.019398
2823.4584,0.019216
2824.3902,0.019697
2825.3221,0.020191
2826.2539,0.020896
2827.1857,0.021405
2828.1176,0.021243
2829.0494,0.021500
2829.9813,0.021679
2830.9131,0.021282
2831.8449,0.021613
2832.7768,0.022024
2833.7086,0.022305
2834.6404,0.022772
2835.5723,0.022420
2836.5041,0.022316
2837.4359,0.022088
2838.3678,0.022220
2839.2996,0.022655
2840.2314,0.022952
2841.1633,0.023536
2842.0951,0.024415
2843.0269,0.024503
2843.9588,0.024010
2844.8906,0.024321
2845.8224,0.024897
2846.7543,0.024562
2847.6861,0.024607
2848.6179,0.025779
2849.5498,0.025760
2850.4816,0.025543
2851.4134,0.026248
2852.3453,0.026881
2853.2771,0.027101
2854.2089,0.026580
2855.1408,0.026411
2856.0726,0.027290
2857.0045,0.027995
2857.9363,0.028193
2858.8681,0.028806
2859.8000,0.029546
2860.7318,0.029541
2861.6636,0.029763
2862.5955,0.030072
2863.5273,0.030427
2864.4591,0.030900
2865.3910,0.031277
2866.3228,0.031245
2867.2546,0.031534
2868.1865,0.032420
2869.1183,0.033428
2870.0501,0.034649
2870.9820,0.035119
2871.9138,0.035071
2872.8456,0.036101
2873.7775,0.036891
2874.7093,0.037368
2875.6411,0.037781
2876.5730,0.038115
2877.5048,0.039238
2878.4366,0.040477
2879.3685,0.041106
2880.3003,0.040840
2881.2321,0.040876
2882.1640,0.041894
2883.0958,0.042349
2884.0277,0.042567
2884.9595,0.043125
2885.8913,0.043552
2886.8232,0.043674
2887.7550,0.043642
2888.6868,0.043988
2889.6187,0.044446
2890.5505,0.045379
2891.4823,0.046089
2892.4142,0.046828
2893.3460,0.047116
2894.2778,0.047017
2895.2097,0.047353
2896.1415,0.048293
2897.0733,0.048442
2898.0052,0.048374
2898.9370,0.048834
2899.8688,0.049747
2900.8007,0.050139
2901.7325,0.049814
2902.6643,0.049785
2903.5962,0.050376
2904.5280,0.050480
2905.4598,0.050419
2906.3917,0.050079
2907.3235,0.049267
2908.2553,0.048284
2909.1872,0.048724
2910.1190,0.048657
2911.0509,0.048432
2911.9827,0.048841
2912.9145,0.048204
2913.8464,0.047577
2914.7782,0.046936
2915.7100,0.046692
2916.6419,0.046911
2917.5737,0.046694
2918.5055,0.046368
2919.4374,0.045992
2920.3692,0.045634
2921.3010,0.045698
2922.2329,0.045653
2923.1647,0.045999
2924.0965,0.047441
2925.0284,0.048058
2925.9602,0.047935
2926.8920,0.047530
2927.8239,0.048061
2928.7557,0.048935
2929.6875,0.049467
2930.6194,0.049091
2931.5512,0.048497
2932.4830,0.049173
2933.4149,0.050534
2934.3467,0.050140
2935.2785,0.049984
2936.2104,0.050860
2937.1422,0.051196
2938.0741,0.050836
2939.0059,0.050325
2939.9377,0.049798
2940.8696,0.050430
2941.8014,0.050550
2942.7332,0.050276
2943.6651,0.050668
2944.5969,0.050875
2945.5287,0.050563
2946.4606,0.050711
2947.3924,0.050539
2948.3242,0.050449
2949.2561,0.051136
2950.1879,0.051060
2951.1197,0.050450
2952.0516,0.050792
2952.9834,0.051063
2953.9152,0.051341
2954.8471,0.051571
2955.7789,0.051648
2956.7107,0.051820
2957.6426,0.052222
2958.5744,0.053210
2959.5062,0.054226
2960.4381,0.055208
2961.3699,0.056032
2962.3017,0.057564
2963.2336,0.058470
2964.1654,0.059227
2965.0972,0.061185
2966.0291,0.063405
2966.9609,0.065223
2967.8928,0.067269
2968.8246,0.070198
2969.7564,0.072437
2970.6883,0.074343
2971.6201,0.077318
2972.5519,0.080528
2973.4838,0.082895
2974.4156,0.085494
2975.3474,0.087594
2976.2793,0.089932
2977.2111,0.091946
2978.1429,0.093205
2979.0748,0.094256
2980.0066,0.095125
2980.9384,0.095349
2981.8703,0.094675
2982.8021,0.094081
2983.7339,0.092814
2984.6658,0.090713
2985.5976,0.088999
2986.5294,0.086584
2987.4613,0.083714
2988.3931,0.080837
2989.3249,0.077884
2990.2568,0.075164
2991.1886,0.073316
2992.1204,0.071631
2993.0523,0.069395
2993.9841,0.066897
2994.9160,0.064868
2995.8478,0.062969
2996.7796,0.061601
2997.7115,0.061003
2998.6433,0.060252
2999.5751,0.059392
3000.5070,0.058774
3001.4388,0.058106
3002.3706,0.057388
3003.3025,0.056698
3004.2343,0.056098
3005.1661,0.056075
3006.0980,0.056244
3007.0298,0.056508
3007.9616,0.056777
3008.8935,0.056407
3009.8253,0.055899
3010.7571,0.056453
3011.6890,0.056502
3012.6208,0.056635
3013.5526,0.056999
3014.4845,0.056782
3015.4163,0.057433
3016.3481,0.057588
3017.2800,0.057457
3018.2118,0.058268
3019.1436,0.058787
3020.0755,0.058648
3021.0073,0.059381
3021.9392,0.059897
3022.8710,0.060023
3023.8028,0.060807
3024.7347,0.061554
3025.6665,0.061658
3026.5983,0.062036
3027.5302,0.063353
3028.4620,0.064110
3029.3938,0.063028
3030.3257,0.062996
3031.2575,0.064371
3032.1893,0.065076
3033.1212,0.064762
3034.0530,0.065942
3034.9848,0.067025
3035.9167,0.066805
3036.8485,0.066918
3037.7803,0.067783
3038.7122,0.068697
3039.6440,0.069963
3040.5758,0.070335
3041.5077,0.069995
3042.4395,0.069993
3043.3713,0.070905
3044.3032,0.071411
3045.2350,0.072032
3046.1668,0.072442
3047.0987,0.072704
3048.0305,0.073401
3048.9624,0.073591
3049.8942,0.074627
3050.8260,0.076489
3051.7579,0.077686
3052.6897,0.078229
3053.6215,0.078196
3054.5534,0.078305
3055.4852,0.079023
3056.4170,0.079960
3057.3489,0.080808
3058.2807,0.081679
3059.2125,0.082469
3060.1444,0.083561
3061.0762,0.084489
3062.0080,0.084712
3062.9399,0.083998
3063.8717,0.084570
3064.8035,0.086218
3065.7354,0.087579
3066.6672,0.088719
3067.5990,0.089612
3068.5309,0.090402
3069.4627,0.091072
3070.3945,0.090955
3071.3264,0.091032
3072.2582,0.091355
3073.1900,0.093056
3074.1219,0.095072
3075.0537,0.095901
3075.9856,0.096168
3076.9174,0.097106
3077.8492,0.098558
3078.7811,0.099433
3079.7129,0.099410
3080.6447,0.100280
3081.5766,0.101658
3082.5084,0.102179
3083.4402,0.102288
3084.3721,0.102949
3085.3039,0.103351
3086.2357,0.104237
3087.1676,0.105645
3088.0994,0.106944
3089.0312,0.107610
3089.9631,0.108782
3090.8949,0.110145
3091.8267,0.111080
3092.7586,0.110985
3093.6904,0.111808
3094.6222,0.113146
3095.5541,0.114300
3096.4859,0.115043
3097.4177,0.116182
3098.3496,0.117403
3099.2814,0.118169
3100.2132,0.119486
3101.1451,0.120860
3102.0769,0.121100
3103.0087,0.121841
3103.9406,0.123333
3104.8724,0.124466
3105.8043,0.124297
3106.7361,0.125054
3107.6679,0.126950
3108.5998,0.128777
3109.5316,0.130185
3110.4634,0.130841
3111.3953,0.131271
3112.3271,0.132370
3113.2589,0.133887
3114.1908,0.135380
3115.1226,0.136177
3116.0544,0.136979
3116.9863,0.137558
3117.9181,0.138985
3118.8499,0.141064
3119.7818,0.142274
3120.7136,0.143019
3121.6454,0.144203
3122.5773,0.145506
3123.5091,0.145929
3124.4409,0.145484
3125.3728,0.146825
3126.3046,0.148648
3127.2364,0.150672
3128.1683,0.151747
3129.1001,0.152426
3130.0319,0.153178
3130.9638,0.153839
3131.8956,0.155153
3132.8275,0.156520
3133.7593,0.157211
3134.6911,0.157856
3135.6230,0.159481
3136.5548,0.162038
3137.4866,0.164155
3138.4185,0.164461
3139.3503,0.165690
3140.2821,0.168169
3141.2140,0.169399
3142.1458,0.170700
3143.0776,0.171826
3144.0095,0.172264
3144.9413,0.172703
3145.8731,0.174525
3146.8050,0.176075
3147.7368,0.176739
3148.6686,0.178532
3149.6005,0.180940
3150.5323,0.182304
3151.4641,0.182907
3152.3960,0.184005
3153.3278,0.185687
3154.2596,0.186367
3155.1915,0.187387
3156.1233,0.189146
3157.0551,0.190663
3157.9870,0.190619
3158.9188,0.190990
3159.8507,0.192086
3160.7825,0.194428
3161.7143,0.196037
3162.6462,0.196927
3163.5780,0.198061
3164.5098,0.199408
3165.4417,0.201544
3166.3735,0.203546
3167.3053,0.203848
3168.2372,0.204208
3169.1690,0.204799
3170.1008,0.205264
3171.0327,0.206559
3171.9645,0.209576
3172.8963,0.211196
3173.8282,0.211984
3174.7600,0.214526
3175.6918,0.216881
3176.6237,0.217218
3177.5555,0.217400
3178.4873,0.219118
3179.4192,0.220760
3180.3510,0.220846
3181.2828,0.221640
3182.2147,0.223249
3183.1465,0.224962
3184.0783,0.225684
3185.0102,0.226453
3185.9420,0.227800
3186.8739,0.229069
3187.8057,0.230784
3188.7375,0.232195
3189.6694,0.233287
3190.6012,0.234642
3191.5330,0.234916
3192.4649,0.235392
3193.3967,0.237189
3194.3285,0.238565
3195.2604,0.238733
3196.1922,0.239663
3197.1240,0.239850
3198.0559,0.241333
3198.9877,0.243377
3199.9195,0.244762
3200.8514,0.247065
3201.7832,0.247571
3202.7150,0.246360
3203.6469,0.248085
3204.5787,0.250598
3205.5105,0.252021
3206.4424,0.251922
3207.3742,0.252345
3208.3060,0.254313
3209.2379,0.255535
3210.1697,0.255571
3211.1015,0.256568
3212.0334,0.257675
3212.9652,0.258196
3213.8971,0.258529
3214.8289,0.260531
3215.7607,0.262547
3216.6926,0.262597
3217.6244,0.261507
3218.5562,0.262161
3219.4881,0.264647
3220.4199,0.267107
3221.3517,0.266795
3222.2836,0.266474
3223.2154,0.267895
3224.1472,0.268718
3225.0791,0.268018
3226.0109,0.267810
3226.9427,0.268963
3227.8746,0.271634
3228.8064,0.271743
3229.7382,0.270154
3230.6701,0.271193
3231.6019,0.274145
3232.5337,0.274133
3233.4656,0.272657
3234.3974,0.273046
3235.3292,0.274990
3236.2611,0.275693
3237.1929,0.275577
3238.1247,0.275143
3239.0566,0.275585
3239.9884,0.276827
3240.9202,0.279111
3241.8521,0.279881
3242.7839,0.278624
3243.7158,0.279321
3244.6476,0.280636
3245.5794,0.279825
3246.5113,0.280498
3247.4431,0.281315
3248.3749,0.281527
3249.3068,0.282993
3250.2386,0.282502
3251.1704,0.280674
3252.1023,0.281427
3253.0341,0.281896
3253.9659,0.282672
3254.8978,0.283463
3255.8296,0.282618
3256.7614,0.283897
3257.6933,0.285643
3258.6251,0.283144
3259.5569,0.283204
3260.4888,0.285927
3261.4206,0.284745
3262.3524,0.282361
3263.2843,0.284699
3264.2161,0.288100
3265.1479,0.287973
3266.0798,0.286121
3267.0116,0.286267
3267.9434,0.286850
3268.8753,0.286460
3269.8071,0.286254
3270.7390,0.286859
3271.6708,0.287322
3272.6026,0.287466
3273.5345,0.287336
3274.4663,0.287383
3275.3981,0.286796
3276.3300,0.286911
3277.2618,0.287763
3278.1936,0.288366
3279.1255,0.288024
3280.0573,0.286987
3280.9891,0.286302
3281.9210,0.287374
3282.8528,0.287711
3283.7846,0.287797
3284.7165,0.288154
3285.6483,0.287629
3286.5801,0.287924
3287.5120,0.288291
3288.4438,0.288504
3289.3756,0.289040
3290.3075,0.288562
3291.2393,0.287472
3292.1711,0.287319
3293.1030,0.287219
3294.0348,0.286184
3294.9666,0.285922
3295.8985,0.285875
3296.8303,0.285767
3297.7622,0.286441
3298.6940,0.288155
3299.6258,0.288500
3300.5577,0.287281
3301.4895,0.288068
3302.4213,0.289244
3303.3532,0.289031
3304.2850,0.289515
3305.2168,0.289699
3306.1487,0.289373
3307.0805,0.290863
3308.0123,0.292166
3308.9442,0.290517
3309.8760,0.287974
3310.8078,0.287336
3311.7397,0.289487
3312.6715,0.290086
3313.6033,0.288314
3314.5352,0.287946
3315.4670,0.288683
3316.3988,0.289332
3317.3307,0.289983
3318.2625,0.289983
3319.1943,0.291064
3320.1262,0.291910
3321.0580,0.290404
3321.9898,0.291026
3322.9217,0.291399
3323.8535,0.290567
3324.7854,0.291102
3325.7172,0.291135
3326.6490,0.291650
3327.5809,0.292476
3328.5127,0.291495
3329.4445,0.290592
3330.3764,0.292531
3331.3082,0.292375
3332.2400,0.289744
3333.1719,0.290610
3334.1037,0.292276
3335.0355,0.292347
3335.9674,0.292406
3336.8992,0.291490
3337.8310,0.290895
3338.7629,0.292589
3339.6947,0.293701
3340.6265,0.292944
3341.5584,0.291967
3342.4902,0.291206
3343.4220,0.288864
3344.3539,0.287331
3345.2857,0.289035
3346.2175,0.291711
3347.1494,0.291814
3348.0812,0.290987
3349.0130,0.292140
3349.9449,0.292413
3350.8767,0.291854
3351.8086,0.292341
3352.7404,0.291814
3353.6722,0.291059
3354.6041,0.291186
3355.5359,0.291936
3356.4677,0.292101
3357.3996,0.290382
3358.3314,0.289935
3359.2632,0.292094
3360.1951,0.291524
3361.1269,0.290154
3362.0587,0.290531
3362.9906,0.291571
3363.9224,0.290917
3364.8542,0.289366
3365.7861,0.288598
3366.7179,0.290203
3367.6497,0.290801
3368.5816,0.288021
3369.5134,0.286995
3370.4452,0.288507
3371.3771,0.288272
3372.3089,0.287335
3373.2407,0.287380
3374.1726,0.286722
3375.1044,0.284534
3376.0362,0.282181
3376.9681,0.282194
3377.8999,0.284261
3378.8317,0.283894
3379.7636,0.283407
3380.6954,0.284380
3381.6273,0.284804
3382.5591,0.283354
3383.4909,0.283618
3384.4228,0.284544
3385.3546,0.283508
3386.2864,0.280513
3387.2183,0.279157
3388.1501,0.279716
3389.0819,0.280949
3390.0138,0.280724
3390.9456,0.279628
3391.8774,0.278070
3392.8093,0.276009
3393.7411,0.275023
3394.6729,0.274988
3395.6048,0.272848
3396.5366,0.271314
3397.4684,0.273303
3398.4003,0.274170
3399.3321,0.271808
3400.2639,0.272943
3401.1958,0.275869
3402.1276,0.275667
3403.0594,0.271762
3403.9913,0.267648
3404.9231,0.265537
3405.8549,0.264960
3406.7868,0.264430
3407.7186,0.265192
3408.6505,0.265976
3409.5823,0.266307
3410.5141,0.264990
3411.4460,0.261838
3412.3778,0.260283
3413.3096,0.262170
3414.2415,0.261485
3415.1733,0.257883
3416.1051,0.257151
3417.0370,0.260262
3417.9688,0.259448
3418.9006,0.256044
3419.8325,0.254223
3420.7643,0.255490
3421.6961,0.256155
3422.6280,0.255312
3423.5598,0.255201
3424.4916,0.254408
3425.4235,0.251921
3426.3553,0.250395
3427.2871,0.250098
3428.2190,0.251135
3429.1508,0.251242
3430.0826,0.248385
3431.0145,0.244180
3431.9463,0.241588
3432.8781,0.239791
3433.8100,0.240257
3434.7418,0.239542
3435.6737,0.237776
3436.6055,0.236220
3437.5373,0.237098
3438.4692,0.236340
3439.4010,0.234450
3440.3328,0.233816
3441.2647,0.231904
3442.1965,0.228611
3443.1283,0.229089
3444.0602,0.230505
3444.9920,0.230133
3445.9238,0.228934
3446.8557,0.227318
3447.7875,0.225989
3448.7193,0.227736
3449.6512,0.227524
3450.5830,0.225376
3451.5148,0.223751
3452.4467,0.223033
3453.3785,0.218750
3454.3103,0.215846
3455.2422,0.215935
3456.1740,0.214646
3457.1058,0.214959
3458.0377,0.217885
3458.9695,0.216870
3459.9013,0.215416
3460.8332,0.212811
3461.7650,0.209276
3462.6969,0.206567
3463.6287,0.206463
3464.5605,0.207563
3465.4924,0.207835
3466.4242,0.209818
3467.3560,0.209136
3468.2879,0.203722
3469.2197,0.201023
3470.1515,0.199626
3471.0834,0.200232
3472.0152,0.198118
3472.9470,0.195535
3473.8789,0.195684
3474.8107,0.194741
3475.7425,0.193014
3476.6744,0.193978
3477.6062,0.194440
3478.5380,0.193258
3479.4699,0.191551
3480.4017,0.190156
3481.3335,0.187999
3482.2654,0.186618
3483.1972,0.185150
3484.1290,0.185561
3485.0609,0.187188
3485.9927,0.186133
3486.9245,0.182123
3487.8564,0.180225
3488.7882,0.179330
3489.7201,0.179934
3490.6519,0.180980
3491.5837,0.178818
3492.5156,0.175661
3493.4474,0.175653
3494.3792,0.176144
3495.3111,0.174385
3496.2429,0.171835
3497.1747,0.173952
3498.1066,0.173594
3499.0384,0.172622
3499.9702,0.170645
3500.9021,0.167304
3501.8339,0.164605
3502.7657,0.165335
3503.6976,0.166697
3504.6294,0.166625
3505.5612,0.163624
3506.4931,0.160313
3507.4249,0.159265
3508.3567,0.160028
3509.2886,0.159530
3510.2204,0.160175
3511.1522,0.160071
3512.0841,0.158683
3513.0159,0.156166
3513.9477,0.156358
3514.8796,0.155926
3515.8114,0.152146
3516.7432,0.149347
3517.6751,0.149305
3518.6069,0.149198
3519.5388,0.148629
3520.4706,0.146341
3521.4024,0.145415
3522.3343,0.144757
3523.2661,0.143693
3524.1979,0.143632
3525.1298,0.143968
3526.0616,0.143271
3526.9934,0.141955
3527.9253,0.141357
3528.8571,0.139629
3529.7889,0.136239
3530.7208,0.135802
3531.6526,0.137662
3532.5844,0.138422
3533.5163,0.136927
3534.4481,0.133707
3535.3799,0.129754
3536.3118,0.130027
3537.2436,0.129522
3538.1754,0.128072
3539.1073,0.128165
3540.0391,0.127089
3540.9709,0.124101
3541.9028,0.123400
3542.8346,0.124189
3543.7664,0.124519
3544.6983,0.122919
3545.6301,0.123031
3546.5620,0.122614
3547.4938,0.120943
3548.4256,0.120562
3549.3575,0.119856
3550.2893,0.116760
3551.2211,0.112957
3552.1530,0.113684
3553.0848,0.115555
3554.0166,0.116145
3554.9485,0.115014
3555.8803,0.113121
3556.8121,0.111079
3557.7440,0.109954
3558.6758,0.109662
3559.6076,0.108964
3560.5395,0.105857
3561.4713,0.103337
3562.4031,0.103413
3563.3350,0.103606
3564.2668,0.104317
3565.1986,0.104619
3566.1305,0.103678
3567.0623,0.102025
3567.9941,0.101241
3568.9260,0.101882
3569.8578,0.100841
3570.7896,0.098155
3571.7215,0.097382
3572.6533,0.096003
3573.5852,0.094017
3574.5170,0.092697
3575.4488,0.092856
3576.3807,0.091923
3577.3125,0.091538
3578.2443,0.091542
3579.1762,0.090696
3580.1080,0.088825
3581.0398,0.088570
3581.9717,0.088248
3582.9035,0.087534
3583.8353,0.087453
3584.7672,0.086897
3585.6990,0.085498
3586.6308,0.085278
3587.5627,0.084306
3588.4945,0.081352
3589.4263,0.078481
3590.3582,0.078254
3591.2900,0.077470
3592.2218,0.077670
3593.1537,0.076899
3594.0855,0.078043
3595.0173,0.078497
3595.9492,0.078426
3596.8810,0.076320
3597.8128,0.073857
3598.7447,0.073534
3599.6765,0.073756
3600.6084,0.071797
3601.5402,0.070693
3602.4720,0.069979
3603.4039,0.069122
3604.3357,0.068490
3605.2675,0.069537
3606.1994,0.070940
3607.1312,0.069580
3608.0630,0.067940
3608.9949,0.067643
3609.9267,0.065917
3610.8585,0.065881
3611.7904,0.064773
3612.7222,0.061353
3613.6540,0.059113
3614.5859,0.060382
3615.5177,0.058774
3616.4495,0.057782
3617.3814,0.059719
3618.3132,0.060093
3619.2450,0.059652
3620.1769,0.058443
3621.1087,0.055155
3622.0405,0.055113
3622.9724,0.055793
3623.9042,0.054569
3624.8360,0.054668
3625.7679,0.054790
3626.6997,0.053625
3627.6316,0.053307
3628.5634,0.052592
3629.4952,0.051940
3630.4271,0.051085
3631.3589,0.050733
3632.2907,0.051422
3633.2226,0.050408
3634.1544,0.048723
3635.0862,0.048384
3636.0181,0.048827
3636.9499,0.047009
3637.8817,0.043321
3638.8136,0.043881
3639.7454,0.045087
3640.6772,0.044818
3641.6091,0.043929
3642.5409,0.042877
3643.4727,0.041597
3644.4046,0.040519
3645.3364,0.040754
3646.2682,0.041674
3647.2001,0.039412
3648.1319,0.035670
3649.0637,0.034386
3649.9956,0.036212
3650.9274,0.036726
3651.8592,0.037169
3652.7911,0.037544
3653.7229,0.034959
3654.6547,0.033872
3655.5866,0.033567
3656.5184,0.033279
3657.4503,0.032485
3658.3821,0.032174
3659.3139,0.031974
3660.2458,0.032077
3661.1776,0.031938
3662.1094,0.030992
3663.0413,0.030416
3663.9731,0.029149
3664.9049,0.028176
3665.8368,0.027197
3666.7686,0.026486
3667.7004,0.025921
3668.6323,0.025415
3669.5641,0.024097
3670.4959,0.022728
3671.4278,0.021494
3672.3596,0.021088
3673.2914,0.020622
3674.2233,0.020707
3675.1551,0.021368
3676.0869,0.020705
3677.0188,0.020115
3677.9506,0.018519
3678.8824,0.016550
3679.8143,0.016572
3680.7461,0.016593
3681.6779,0.016184
3682.6098,0.016288
3683.5416,0.015525
3684.4735,0.014312
3685.4053,0.013836
3686.3371,0.013927
3687.2690,0.014025
3688.2008,0.013451
3689.1326,0.011572
3690.0645,0.010125
3690.9963,0.009788
3691.9281,0.009887
3692.8600,0.010430
3693.7918,0.010561
3694.7236,0.010366
3695.6555,0.010042
3696.5873,0.009570
3697.5191,0.009205
3698.4510,0.008282
3699.3828,0.008359
3700.3146,0.008290
3701.2465,0.007014
3702.1783,0.006553
3703.1101,0.007332
3704.0420,0.006684
3704.9738,0.006091
3705.9056,0.006886
3706.8375,0.006610
3707.7693,0.005604
3708.7011,0.005804
3709.6330,0.006062
3710.5648,0.005925
3711.4967,0.006157
3712.4285,0.005752
3713.3603,0.004207
3714.2922,0.003557
3715.2240,0.003888
3716.1558,0.004281
3717.0877,0.004101
3718.0195,0.003925
3718.9513,0.004586
3719.8832,0.004506
3720.8150,0.004582
3721.7468,0.003562
3722.6787,0.003681
3723.6105,0.003853
3724.5423,0.002979
3725.4742,0.003838
3726.4060,0.003916
3727.3378,0.002391
3728.2697,0.001149
3729.2015,0.002172
3730.1333,0.003464
3731.0652,0.003952
3731.9970,0.003199
3732.9288,0.002103
3733.8607,0.002346
3734.7925,0.003431
3735.7243,0.003463
3736.6562,0.002262
3737.5880,0.000214
3738.5199,-0.000033
3739.4517,0.001000
3740.3835,0.001590
3741.3154,0.003051
3742.2472,0.003621
3743.1790,0.002417
3744.1109,0.000957
3745.0427,0.001471
3745.9745,0.000824
3746.9064,0.000500
3747.8382,0.000736
3748.7700,0.000583
3749.7019,0.000512
3750.6337,0.001813
3751.5655,0.001332
3752.4974,0.000414
3753.4292,0.001090
3754.3610,0.000479
3755.2929,0.000888
3756.2247,0.002389
3757.1565,0.002263
3758.0884,0.001501
3759.0202,0.002019
3759.9520,0.003121
3760.8839,0.002353
3761.8157,0.001849
3762.7475,0.001798
3763.6794,0.002231
3764.6112,0.001778
3765.5431,0.001276
3766.4749,0.002219
3767.4067,0.002797
3768.3386,0.002541
3769.2704,0.001894
3770.2022,0.000688
3771.1341,0.000900
3772.0659,0.001558
3772.9977,0.002352
3773.9296,0.003020
3774.8614,0.002581
3775.7932,0.002081
3776.7251,0.002132
3777.6569,0.002803
3778.5887,0.002520
3779.5206,0.001039
3780.4524,0.000424
3781.3842,0.001132
3782.3161,0.001595
3783.2479,0.002426
3784.1797,0.002951
3785.1116,0.001960
3786.0434,0.001218
3786.9752,0.000728
3787.9071,0.001756
3788.8389,0.002827
3789.7707,0.002250
3790.7026,0.002149
3791.6344,0.002081
3792.5662,0.002072
3793.4981,0.002140
3794.4299,0.001145
3795.3618,0.001273
3796.2936,0.001700
3797.2254,0.001301
3798.1573,0.001124
3799.0891,0.001304
3800.0209,0.001661
3800.9528,0.001791
3801.8846,0.001178
3802.8164,0.001232
3803.7483,0.001638
3804.6801,0.002322
3805.6119,0.003019
3806.5438,0.002183
3807.4756,0.000980
3808.4074,0.000427
3809.3393,0.000842
3810.2711,0.000699
3811.2029,0.001687
3812.1348,0.002059
3813.0666,0.001299
3813.9984,0.001751
3814.9303,0.001445
3815.8621,0.000900
3816.7939,0.000749
3817.7258,0.000665
3818.6576,0.001569
3819.5894,0.002807
3820.5213,0.002026
3821.4531,0.000631
3822.3850,-0.000429
3823.3168,-0.000718
3824.2486,-0.000101
3825.1805,0.000710
3826.1123,0.001450
3827.0441,0.001479
3827.9760,0.000872
3828.9078,0.001645
3829.8396,0.002076
3830.7715,0.001691
3831.7033,0.001495
3832.6351,0.001972
3833.5670,0.001228
3834.4988,-0.000599
3835.4306,-0.001210
3836.3625,-0.000756
3837.2943,-0.000713
3838.2261,-0.000668
3839.1580,0.000262
3840.0898,0.000542
3841.0216,0.001302
3841.9535,0.001324
3842.8853,0.000021
3843.8171,-0.000458
3844.7490,0.000709
3845.6808,0.001067
3846.6126,0.001036
3847.5445,0.001630
3848.4763,0.001658
3849.4082,0.001233
3850.3400,0.000688
3851.2718,-0.000336
3852.2037,-0.000357
3853.1355,-0.000318
3854.0673,-0.000045
3854.9992,-0.000065
3855.9310,0.000718
3856.8628,-0.001043
3857.7947,-0.000764
3858.7265,0.001203
3859.6583,0.000940
3860.5902,0.000934
3861.5220,0.001385
3862.4538,0.001582
3863.3857,0.001272
3864.3175,0.000653
3865.2493,-0.000095
3866.1812,0.000357
3867.1130,0.001065
3868.0448,0.000635
3868.9767,0.001323
3869.9085,0.001716
3870.8403,0.001092
3871.7722,0.000791
3872.7040,-0.000111
3873.6358,-0.000350
3874.5677,-0.000113
3875.4995,-0.000100
3876.4314,0.000770
3877.3632,0.000651
3878.2950,-0.000116
3879.2269,0.000986
3880.1587,0.001250
3881.0905,0.000572
3882.0224,-0.001014
3882.9542,-0.001788
3883.8860,-0.000126
3884.8179,0.001470
3885.7497,0.002303
3886.6815,0.001928
3887.6134,-0.000171
3888.5452,-0.000425
3889.4770,0.001523
3890.4089,0.002008
3891.3407,0.001812
3892.2725,0.002351
3893.2044,0.001443
3894.1362,0.000460
3895.0680,0.000841
3895.9999,0.001637
3896.9317,0.001726
3897.8635,0.000750
3898.7954,-0.000599
3899.7272,-0.000598
3900.6590,0.000287
3901.5909,0.001017
3902.5227,0.000880
3903.4546,0.000721
3904.3864,0.000773
3905.3182,0.000409
3906.2501,0.000739
3907.1819,0.001704
3908.1137,0.001725
3909.0456,0.001224
3909.9774,0.000749
3910.9092,0.001072
3911.8411,0.001322
3912.7729,0.001678
3913.7047,0.001134
3914.6366,0.000389
3915.5684,0.001304
3916.5002,0.001951
3917.4321,0.002114
3918.3639,0.001400
3919.2957,0.000132
3920.2276,0.000840
3921.1594,0.001767
3922.0912,0.001029
3923.0231,0.000690
3923.9549,0.000774
3924.8867,0.001165
3925.8186,0.001682
3926.7504,0.001569
3927.6822,0.001573
3928.6141,0.001436
3929.5459,0.000477
3930.4777,0.000164
3931.4096,0.000902
3932.3414,0.001648
3933.2733,0.001437
3934.2051,0.001399
3935.1369,0.002222
3936.0688,0.001278
3937.0006,0.000525
3937.9324,0.001980
3938.8643,0.002639
3939.7961,0.002492
3940.7279,0.001508
3941.6598,0.000308
3942.5916,0.000233
3943.5234,0.000924
3944.4553,0.001410
3945.3871,0.001551
3946.3189,0.001805
3947.2508,0.001302
3948.1826,0.001281
3949.1144,0.001307
3950.0463,0.000818
3950.9781,0.001341
3951.9099,0.000700
3952.8418,0.000263
3953.7736,0.000736
3954.7054,0.000845
3955.6373,0.000848
3956.5691,0.001542
3957.5009,0.002101
3958.4328,0.002307
3959.3646,0.002570
3960.2965,0.001394
3961.2283,0.000922
3962.1601,0.001076
3963.0920,0.001035
3964.0238,0.001173
3964.9556,0.001294
3965.8875,0.000874
3966.8193,0.001103
3967.7511,0.001627
3968.6830,0.001365
3969.6148,0.001162
3970.5466,0.001713
3971.4785,0.002046
3972.4103,0.001402
3973.3421,0.000882
3974.2740,0.001072
3975.2058,0.001245
3976.1376,0.001731
3977.0695,0.002251
3978.0013,0.001654
3978.9331,0.001718
3979.8650,0.001312
3980.7968,0.000892
3981.7286,0.001130
3982.6605,0.000459
3983.5923,0.000094
3984.5241,0.000475
3985.4560,0.000780
3986.3878,0.001080
3987.3197,0.000491
3988.2515,0.001448
3989.1833,0.002773
3990.1152,0.002590
3991.0470,0.002381
3991.9788,0.001662
3992.9107,0.001445
3993.8425,0.001339
3994.7743,0.001006
3995.7062,0.001270
3996.6380,0.001897
3997.5698,0.001682
3998.5017,0.001089
3999.4335,0.000560
4000.3653,0.001054
