Wavenumber,Intensity
650.4205,0.336751
651.3523,0.345324
652.2841,0.365748
653.2160,0.368029
654.1478,0.366837
655.0796,0.367070
656.0115,0.359606
656.9433,0.356338
657.8751,0.360066
658.8070,0.368195
659.7388,0.371309
660.6706,0.367463
661.6025,0.355883
662.5343,0.342990
663.4661,0.342124
664.3980,0.350334
665.3298,0.340260
666.2616,0.339759
667.1935,0.344051
668.1253,0.333948
669.0571,0.341487
669.9890,0.349764
670.9208,0.345771
671.8526,0.342133
672.7845,0.339144
673.7163,0.340960
674.6481,0.341522
675.5800,0.334288
676.5118,0.327508
677.4437,0.330677
678.3755,0.331539
679.3073,0.330196
680.2392,0.329891
681.1710,0.329961
682.1028,0.328845
683.0347,0.331241
683.9665,0.329037
684.8983,0.323619
685.8302,0.318870
686.7620,0.316497
687.6938,0.311599
688.6257,0.309787
689.5575,0.312365
690.4893,0.313139
691.4212,0.313049
692.3530,0.316309
693.2848,0.317144
694.2167,0.315016
695.1485,0.313688
696.0803,0.311507
697.0122,0.311217
697.9440,0.315287
698.8758,0.311738
699.8077,0.306762
700.7395,0.306612
701.6713,0.304763
702.6032,0.302100
703.5350,0.302753
704.4669,0.302022
705.3987,0.298479
706.3305,0.295388
707.2624,0.296673
708.1942,0.294806
709.1260,0.291791
710.0579,0.288294
710.9897,0.287850
711.9215,0.289148
712.8534,0.290035
713.7852,0.290037
714.7170,0.286197
715.6489,0.282830
716.5807,0.282843
717.5125,0.282791
718.4444,0.283862
719.3762,0.281478
720.3080,0.277747
721.2399,0.276014
722.1717,0.277588
723.1035,0.278758
724.0354,0.276887
724.9672,0.273377
725.8990,0.273296
726.8309,0.274515
727.7627,0.272377
728.6945,0.267064
729.6264,0.264851
730.5582,0.265608
731.4901,0.263555
732.4219,0.261119
733.3537,0.262415
734.2856,0.261616
735.2174,0.259320
736.1492,0.257155
737.0811,0.256698
738.0129,0.256945
738.9447,0.257311
739.8766,0.255388
740.8084,0.252021
741.7402,0.249530
742.6721,0.248434
743.6039,0.247560
744.5357,0.246572
745.4676,0.244706
746.3994,0.243916
747.3312,0.241922
748.2631,0.239679
749.1949,0.239687
750.1267,0.240640
751.0586,0.238096
751.9904,0.235571
752.9222,0.235197
753.8541,0.233620
754.7859,0.232618
755.7177,0.231480
756.6496,0.231793
757.5814,0.233206
758.5132,0.231514
759.4451,0.227359
760.3769,0.224694
761.3088,0.224966
762.2406,0.224476
763.1724,0.221271
764.1043,0.217970
765.0361,0.216369
765.9679,0.217185
766.8998,0.217390
767.8316,0.216723
768.7634,0.216530
769.6953,0.214441
770.6271,0.211266
771.5589,0.210655
772.4908,0.211102
773.4226,0.208758
774.3544,0.207488
775.2863,0.207269
776.2181,0.205208
777.1499,0.203672
778.0818,0.204351
779.0136,0.203139
779.9454,0.200852
780.8773,0.200409
781.8091,0.199325
782.7409,0.197121
783.6728,0.196354
784.6046,0.195017
785.5364,0.194100
786.4683,0.193367
787.4001,0.191873
788.3320,0.191487
789.2638,0.191660
790.1956,0.190073
791.1275,0.188884
792.0593,0.187943
792.9911,0.186454
793.9230,0.185569
794.8548,0.184333
795.7866,0.181459
796.7185,0.179202
797.6503,0.178123
798.5821,0.178078
799.5140,0.177848
800.4458,0.176784
801.3776,0.174756
802.3095,0.174144
803.2413,0.174961
804.1731,0.174528
805.1050,0.173062
806.0368,0.171935
806.9686,0.170125
807.9005,0.167586
808.8323,0.166916
809.7641,0.166660
810.6960,0.164737
811.6278,0.162525
812.5596,0.160567
813.4915,0.159925
814.4233,0.159133
815.3552,0.157611
816.2870,0.156011
817.2188,0.155068
818.1507,0.153941
819.0825,0.153417
820.0143,0.152575
820.9462,0.151309
821.8780,0.150432
822.8098,0.148633
823.7417,0.145695
824.6735,0.145066
825.6053,0.145673
826.5372,0.144677
827.4690,0.142240
828.4008,0.140759
829.3327,0.139519
830.2645,0.138926
831.1963,0.138735
832.1282,0.138487
833.0600,0.137966
833.9918,0.136939
834.9237,0.135348
835.8555,0.134412
836.7873,0.133515
837.7192,0.132573
838.6510,0.131594
839.5828,0.130267
840.5147,0.129040
841.4465,0.128351
842.3784,0.127720
843.3102,0.127795
844.2420,0.127588
845.1739,0.126582
846.1057,0.125293
847.0375,0.124543
847.9694,0.123627
848.9012,0.122129
849.8330,0.121386
850.7649,0.120924
851.6967,0.119596
852.6285,0.118760
853.5604,0.119006
854.4922,0.119184
855.4240,0.118326
856.3559,0.117924
857.2877,0.117675
858.2195,0.117208
859.1514,0.116682
860.0832,0.116110
861.0150,0.116024
861.9469,0.116567
862.8787,0.116907
863.8105,0.117119
864.7424,0.117408
865.6742,0.118284
866.6060,0.119873
867.5379,0.121509
868.4697,0.123061
869.4016,0.125866
870.3334,0.130274
871.2652,0.135139
872.1971,0.139546
873.1289,0.145061
874.0607,0.151572
874.9926,0.158172
875.9244,0.163819
876.8562,0.167878
877.7881,0.169695
878.7199,0.169040
879.6517,0.166237
880.5836,0.161021
881.5154,0.153555
882.4472,0.145102
883.3791,0.136799
884.3109,0.128935
885.2427,0.121599
886.1746,0.115231
887.1064,0.109493
888.0382,0.104444
888.9701,0.100326
889.9019,0.096851
890.8337,0.093607
891.7656,0.090592
892.6974,0.088414
893.6292,0.086656
894.5611,0.085389
895.4929,0.084318
896.4247,0.082379
897.3566,0.081099
898.2884,0.080515
899.2203,0.079579
900.1521,0.078641
901.0839,0.077759
902.0158,0.076550
902.9476,0.075624
903.8794,0.075118
904.8113,0.074697
905.7431,0.074315
906.6749,0.073912
907.6068,0.073122
908.5386,0.072056
909.4704,0.071083
910.4023,0.070749
911.3341,0.069936
912.2659,0.069514
913.1978,0.069470
914.1296,0.069209
915.0614,0.068510
915.9933,0.067531
916.9251,0.066881
917.8569,0.066413
918.7888,0.065995
919.7206,0.065821
920.6524,0.065717
921.5843,0.065439
922.5161,0.065118
923.4479,0.064191
924.3798,0.063293
925.3116,0.063148
926.2435,0.063304
927.1753,0.063126
928.1071,0.062529
929.0390,0.061861
929.9708,0.061419
930.9026,0.061299
931.8345,0.061043
932.7663,0.060871
933.6981,0.060734
934.6300,0.060179
935.5618,0.059544
936.4936,0.059442
937.4255,0.059558
938.3573,0.059378
939.2891,0.058643
940.2210,0.058350
941.1528,0.058606
942.0846,0.058204
943.0165,0.057581
943.9483,0.057486
944.8801,0.057510
945.8120,0.057393
946.7438,0.057385
947.6756,0.057327
948.6075,0.057068
949.5393,0.056390
950.4711,0.056016
951.4030,0.056063
952.3348,0.055535
953.2667,0.055157
954.1985,0.054948
955.1303,0.054904
956.0622,0.054687
956.9940,0.054207
957.9258,0.054625
958.8577,0.054780
959.7895,0.054527
960.7213,0.054362
961.6532,0.054065
962.5850,0.053810
963.5168,0.053641
964.4487,0.053516
965.3805,0.053398
966.3123,0.053396
967.2442,0.053216
968.1760,0.053404
969.1078,0.053636
970.0397,0.053374
970.9715,0.053120
971.9033,0.052919
972.8352,0.052679
973.7670,0.052766
974.6988,0.052703
975.6307,0.052334
976.5625,0.052140
977.4943,0.052209
978.4262,0.052075
979.3580,0.052286
980.2899,0.052670
981.2217,0.052632
982.1535,0.052633
983.0854,0.052591
984.0172,0.052458
984.9490,0.052442
985.8809,0.052284
986.8127,0.052176
987.7445,0.052543
988.6764,0.052997
989.6082,0.052912
990.5400,0.052914
991.4719,0.053006
992.4037,0.053067
993.3355,0.053405
994.2674,0.053256
995.1992,0.053263
996.1310,0.053689
997.0629,0.054078
997.9947,0.054395
998.9265,0.054464
999.8584,0.054405
1000.7902,0.054847
1001.7220,0.055163
1002.6539,0.055377
1003.5857,0.055709
1004.5175,0.055905
1005.4494,0.056344
1006.3812,0.057142
1007.3131,0.057621
1008.2449,0.058083
1009.1767,0.058897
1010.1086,0.059400
1011.0404,0.059901
1011.9722,0.060401
1012.9041,0.061206
1013.8359,0.062214
1014.7677,0.063298
1015.6996,0.064446
1016.6314,0.065368
1017.5632,0.066624
1018.4951,0.068192
1019.4269,0.069909
1020.3587,0.071626
1021.2906,0.073307
1022.2224,0.075610
1023.1542,0.078316
1024.0861,0.080992
1025.0179,0.083713
1025.9497,0.086749
1026.8816,0.090451
1027.8134,0.094620
1028.7452,0.099514
1029.6771,0.105063
1030.6089,0.111109
1031.5407,0.118112
1032.4726,0.126128
1033.4044,0.135099
1034.3362,0.145526
1035.2681,0.157835
1036.1999,0.171528
1037.1318,0.186302
1038.0636,0.202350
1038.9954,0.219221
1039.9273,0.236186
1040.8591,0.251855
1041.7909,0.265318
1042.7228,0.275653
1043.6546,0.281219
1044.5864,0.281688
1045.5183,0.277402
1046.4501,0.268591
1047.3819,0.256155
1048.3138,0.241000
1049.2456,0.224021
1050.1774,0.206428
1051.1093,0.188805
1052.0411,0.171633
1052.9729,0.155621
1053.9048,0.141143
1054.8366,0.128243
1055.7684,0.116865
1056.7003,0.106885
1057.6321,0.098936
1058.5639,0.092381
1059.4958,0.086916
1060.4276,0.082571
1061.3594,0.079331
1062.2913,0.077140
1063.2231,0.075631
1064.1550,0.074267
1065.0868,0.073411
1066.0186,0.073061
1066.9505,0.073346
1067.8823,0.073825
1068.8141,0.074441
1069.7460,0.075839
1070.6778,0.077536
1071.6096,0.079455
1072.5415,0.081689
1073.4733,0.083871
1074.4051,0.086269
1075.3370,0.089084
1076.2688,0.092524
1077.2006,0.095962
1078.1325,0.099482
1079.0643,0.103008
1079.9961,0.106255
1080.9280,0.109347
1081.8598,0.112481
1082.7916,0.115129
1083.7235,0.116931
1084.6553,0.118179
1085.5871,0.118799
1086.5190,0.118479
1087.4508,0.117126
1088.3826,0.114821
1089.3145,0.111782
1090.2463,0.107764
1091.1782,0.103277
1092.1100,0.098400
1093.0418,0.093018
1093.9737,0.087605
1094.9055,0.082656
1095.8373,0.078097
1096.7692,0.073995
1097.7010,0.070249
1098.6328,0.066518
1099.5647,0.063240
1100.4965,0.060564
1101.4283,0.058196
1102.3602,0.056085
1103.2920,0.054208
1104.2238,0.052564
1105.1557,0.051140
1106.0875,0.050089
1107.0193,0.049012
1107.9512,0.048083
1108.8830,0.047447
1109.8148,0.046958
1110.7467,0.046537
1111.6785,0.045968
1112.6103,0.045332
1113.5422,0.045043
1114.4740,0.044981
1115.4058,0.044612
1116.3377,0.044228
1117.2695,0.044125
1118.2014,0.044076
1119.1332,0.043934
1120.0650,0.043816
1120.9969,0.043853
1121.9287,0.044040
1122.8605,0.044113
1123.7924,0.043991
1124.7242,0.043638
1125.6560,0.043444
1126.5879,0.043506
1127.5197,0.043697
1128.4515,0.043471
1129.3834,0.043197
1130.3152,0.043218
1131.2470,0.042976
1132.1789,0.042710
1133.1107,0.042461
1134.0425,0.042293
1134.9744,0.042351
1135.9062,0.042500
1136.8380,0.042292
1137.7699,0.042059
1138.7017,0.041995
1139.6335,0.041761
1140.5654,0.041500
1141.4972,0.041349
1142.4290,0.041333
1143.3609,0.041123
1144.2927,0.041068
1145.2246,0.041163
1146.1564,0.040926
1147.0882,0.040735
1148.0201,0.040795
1148.9519,0.040817
1149.8837,0.040687
1150.8156,0.040726
1151.7474,0.040884
1152.6792,0.040821
1153.6111,0.040759
1154.5429,0.040704
1155.4747,0.040841
1156.4066,0.040912
1157.3384,0.040739
1158.2702,0.040554
1159.2021,0.040354
1160.1339,0.040090
1161.0657,0.039846
1161.9976,0.039480
1162.9294,0.039225
1163.8612,0.039260
1164.7931,0.039236
1165.7249,0.038836
1166.6567,0.038668
1167.5886,0.038641
1168.5204,0.038432
1169.4522,0.038088
1170.3841,0.038006
1171.3159,0.038045
1172.2477,0.038075
1173.1796,0.038081
1174.1114,0.037858
1175.0433,0.037790
1175.9751,0.037843
1176.9069,0.037695
1177.8388,0.037653
1178.7706,0.037796
1179.7024,0.037788
1180.6343,0.037743
1181.5661,0.037904
1182.4979,0.037887
1183.4298,0.037624
1184.3616,0.037526
1185.2934,0.037584
1186.2253,0.037696
1187.1571,0.037769
1188.0889,0.037663
1189.0208,0.037587
1189.9526,0.037483
1190.8844,0.037581
1191.8163,0.037548
1192.7481,0.037468
1193.6799,0.037723
1194.6118,0.037785
1195.5436,0.037648
1196.4754,0.037734
1197.4073,0.037892
1198.3391,0.037914
1199.2709,0.037756
1200.2028,0.037749
1201.1346,0.037822
1202.0665,0.037870
1202.9983,0.037991
1203.9301,0.038167
1204.8620,0.038156
1205.7938,0.038045
1206.7256,0.038114
1207.6575,0.038066
1208.5893,0.037982
1209.5211,0.038120
1210.4530,0.038238
1211.3848,0.038112
1212.3166,0.038232
1213.2485,0.038376
1214.1803,0.038363
1215.1121,0.038526
1216.0440,0.038817
1216.9758,0.038708
1217.9076,0.038445
1218.8395,0.038497
1219.7713,0.038648
1220.7031,0.038802
1221.6350,0.038899
1222.5668,0.038827
1223.4986,0.038718
1224.4305,0.038729
1225.3623,0.038951
1226.2941,0.039244
1227.2260,0.039148
1228.1578,0.038975
1229.0897,0.039087
1230.0215,0.039286
1230.9533,0.039355
1231.8852,0.039409
1232.8170,0.039505
1233.7488,0.039552
1234.6807,0.039586
1235.6125,0.039638
1236.5443,0.039908
1237.4762,0.040249
1238.4080,0.040461
1239.3398,0.040415
1240.2717,0.040427
1241.2035,0.040552
1242.1353,0.040579
1243.0672,0.040609
1243.9990,0.040839
1244.9308,0.041135
1245.8627,0.041334
1246.7945,0.041602
1247.7263,0.041702
1248.6582,0.041820
1249.5900,0.042104
1250.5218,0.042280
1251.4537,0.042452
1252.3855,0.042670
1253.3173,0.043064
1254.2492,0.043474
1255.1810,0.043874
1256.1129,0.044400
1257.0447,0.044512
1257.9765,0.044579
1258.9084,0.045133
1259.8402,0.045716
1260.7720,0.046054
1261.7039,0.046599
1262.6357,0.047184
1263.5675,0.047555
1264.4994,0.048204
1265.4312,0.049157
1266.3630,0.049887
1267.2949,0.050383
1268.2267,0.050960
1269.1585,0.051642
1270.0904,0.052193
1271.0222,0.052777
1271.9540,0.053399
1272.8859,0.053872
1273.8177,0.053969
1274.7495,0.053932
1275.6814,0.053919
1276.6132,0.053653
1277.5450,0.053310
1278.4769,0.052867
1279.4087,0.052112
1280.3405,0.051764
1281.2724,0.051733
1282.2042,0.051207
1283.1361,0.050314
1284.0679,0.049752
1284.9997,0.049516
1285.9316,0.049377
1286.8634,0.049227
1287.7952,0.049104
1288.7271,0.049156
1289.6589,0.049127
1290.5907,0.049013
1291.5226,0.049086
1292.4544,0.049065
1293.3862,0.049142
1294.3181,0.049442
1295.2499,0.049683
1296.1817,0.050099
1297.1136,0.050412
1298.0454,0.050505
1298.9772,0.050721
1299.9091,0.050986
1300.8409,0.051224
1301.7727,0.051486
1302.7046,0.051632
1303.6364,0.051621
1304.5682,0.051819
1305.5001,0.052551
1306.4319,0.053274
1307.3637,0.053633
1308.2956,0.053826
1309.2274,0.053978
1310.1592,0.054115
1311.0911,0.054131
1312.0229,0.054096
1312.9548,0.054535
1313.8866,0.055270
1314.8184,0.055685
1315.7503,0.055945
1316.6821,0.055868
1317.6139,0.055753
1318.5458,0.055972
1319.4776,0.056536
1320.4094,0.057015
1321.3413,0.056909
1322.2731,0.056717
1323.2049,0.056715
1324.1368,0.057012
1325.0686,0.057133
1326.0004,0.056915
1326.9323,0.056794
1327.8641,0.056787
1328.7959,0.056793
1329.7278,0.056600
1330.6596,0.056449
1331.5914,0.056244
1332.5233,0.056142
1333.4551,0.055935
1334.3869,0.055484
1335.3188,0.054926
1336.2506,0.054612
1337.1824,0.054486
1338.1143,0.054267
1339.0461,0.053956
1339.9780,0.053824
1340.9098,0.053880
1341.8416,0.053433
1342.7735,0.052649
1343.7053,0.052056
1344.6371,0.051815
1345.5690,0.051530
1346.5008,0.051048
1347.4326,0.050707
1348.3645,0.050455
1349.2963,0.050158
1350.2281,0.049863
1351.1600,0.049757
1352.0918,0.049764
1353.0236,0.049564
1353.9555,0.049186
1354.8873,0.049179
1355.8191,0.049220
1356.7510,0.049029
1357.6828,0.048786
1358.6146,0.048706
1359.5465,0.048622
1360.4783,0.048497
1361.4101,0.048799
1362.3420,0.049090
1363.2738,0.049705
1364.2056,0.050874
1365.1375,0.050907
1366.0693,0.050491
1367.0012,0.051033
1367.9330,0.051857
1368.8648,0.052503
1369.7967,0.053653
1370.7285,0.054584
1371.6603,0.055139
1372.5922,0.056333
1373.5240,0.057999
1374.4558,0.060462
1375.3877,0.062985
1376.3195,0.063830
1377.2513,0.064039
1378.1832,0.064665
1379.1150,0.065716
1380.0468,0.066558
1380.9787,0.067137
1381.9105,0.067647
1382.8423,0.067963
1383.7742,0.067943
1384.7060,0.067704
1385.6378,0.067243
1386.5697,0.067211
1387.5015,0.067994
1388.4333,0.068616
1389.3652,0.067701
1390.2970,0.066099
1391.2288,0.064985
1392.1607,0.064216
1393.0925,0.063546
1394.0244,0.063045
1394.9562,0.063084
1395.8880,0.063992
1396.8199,0.064363
1397.7517,0.063908
1398.6835,0.063605
1399.6154,0.064143
1400.5472,0.065001
1401.4790,0.064664
1402.4109,0.064118
1403.3427,0.064087
1404.2745,0.064158
1405.2064,0.064535
1406.1382,0.065544
1407.0700,0.065507
1408.0019,0.065055
1408.9337,0.065203
1409.8655,0.065562
1410.7974,0.065984
1411.7292,0.066070
1412.6610,0.066003
1413.5929,0.065741
1414.5247,0.065135
1415.4565,0.064659
1416.3884,0.064453
1417.3202,0.064637
1418.2520,0.065001
1419.1839,0.065325
1420.1157,0.067279
1421.0476,0.067900
1421.9794,0.065619
1422.9112,0.064000
1423.8431,0.063669
1424.7749,0.064583
1425.7067,0.064375
1426.6386,0.063044
1427.5704,0.062091
1428.5022,0.061451
1429.4341,0.060974
1430.3659,0.060851
1431.2977,0.060807
1432.2296,0.059890
1433.1614,0.058715
1434.0932,0.057873
1435.0251,0.057322
1435.9569,0.056538
1436.8887,0.056430
1437.8206,0.058597
1438.7524,0.059044
1439.6842,0.057516
1440.6161,0.056578
1441.5479,0.056359
1442.4797,0.056405
1443.4116,0.056723
1444.3434,0.057100
1445.2752,0.057510
1446.2071,0.058276
1447.1389,0.059003
1448.0707,0.060155
1449.0026,0.062041
1449.9344,0.062837
1450.8663,0.062439
1451.7981,0.062243
1452.7299,0.062215
1453.6618,0.061948
1454.5936,0.060957
1455.5254,0.060022
1456.4573,0.059929
1457.3891,0.060885
1458.3209,0.060894
1459.2528,0.059253
1460.1846,0.057308
1461.1164,0.054876
1462.0483,0.052351
1462.9801,0.050304
1463.9119,0.049108
1464.8438,0.048303
1465.7756,0.047964
1466.7074,0.047794
1467.6393,0.046779
1468.5711,0.045663
1469.5029,0.044627
1470.4348,0.043369
1471.3666,0.042427
1472.2984,0.042218
1473.2303,0.043130
1474.1621,0.044584
1475.0939,0.044610
1476.0258,0.043955
1476.9576,0.044275
1477.8895,0.044887
1478.8213,0.044457
1479.7531,0.043905
1480.6850,0.044139
1481.6168,0.044942
1482.5486,0.044974
1483.4805,0.044444
1484.4123,0.044046
1485.3441,0.043395
1486.2760,0.042818
1487.2078,0.042557
1488.1396,0.042580
1489.0715,0.042535
1490.0033,0.042205
1490.9351,0.042559
1491.8670,0.042411
1492.7988,0.040846
1493.7306,0.039671
1494.6625,0.038691
1495.5943,0.037735
1496.5261,0.037645
1497.4580,0.038687
1498.3898,0.038914
1499.3216,0.038729
1500.2535,0.039052
1501.1853,0.038649
1502.1171,0.037511
1503.0490,0.036683
1503.9808,0.036389
1504.9127,0.035947
1505.8445,0.035239
1506.7763,0.035901
1507.7082,0.039406
1508.6400,0.040571
1509.5718,0.039262
1510.5037,0.038455
1511.4355,0.037851
1512.3673,0.037310
1513.2992,0.037499
1514.2310,0.037329
1515.1628,0.036479
1516.0947,0.036164
1517.0265,0.036248
1517.9583,0.037255
1518.8902,0.038104
1519.8220,0.036551
1520.7538,0.035676
1521.6857,0.036970
1522.6175,0.038707
1523.5493,0.038418
1524.4812,0.037650
1525.4130,0.037241
1526.3448,0.037672
1527.2767,0.038078
1528.2085,0.037772
1529.1403,0.037505
1530.0722,0.037069
1531.0040,0.036562
1531.9359,0.036215
1532.8677,0.036315
1533.7995,0.037123
1534.7314,0.038237
1535.6632,0.038020
1536.5950,0.037034
1537.5269,0.036327
1538.4587,0.035949
1539.3905,0.036551
1540.3224,0.039532
1541.2542,0.041446
1542.1860,0.039654
1543.1179,0.039136
1544.0497,0.039208
1544.9815,0.039117
1545.9134,0.039847
1546.8452,0.040472
1547.7770,0.039645
1548.7089,0.038795
1549.6407,0.038728
1550.5725,0.039407
1551.5044,0.040105
1552.4362,0.039640
1553.3680,0.038949
1554.2999,0.038523
1555.2317,0.038804
1556.1635,0.039441
1557.0954,0.038585
1558.0272,0.037688
1558.9591,0.039539
1559.8909,0.044833
1560.8227,0.045911
1561.7546,0.044757
1562.6864,0.043314
1563.6182,0.042320
1564.5501,0.042247
1565.4819,0.042536
1566.4137,0.042547
1567.3456,0.042515
1568.2774,0.042528
1569.2092,0.042874
1570.1411,0.044437
1571.0729,0.046189
1572.0047,0.045662
1572.9366,0.044758
1573.8684,0.044721
1574.8002,0.044970
1575.7321,0.045345
1576.6639,0.046837
1577.5957,0.049437
1578.5276,0.049495
1579.4594,0.048455
1580.3912,0.048629
1581.3231,0.049196
1582.2549,0.049611
1583.1867,0.050205
1584.1186,0.050738
1585.0504,0.051246
1585.9822,0.051970
1586.9141,0.052535
1587.8459,0.052740
1588.7778,0.053285
1589.7096,0.054498
1590.6414,0.055878
1591.5733,0.056569
1592.5051,0.056783
1593.4369,0.057567
1594.3688,0.058493
1595.3006,0.059675
1596.2324,0.061358
1597.1643,0.062746
1598.0961,0.063392
1599.0279,0.063852
1599.9598,0.064894
1600.8916,0.066215
1601.8234,0.067363
1602.7553,0.068288
1603.6871,0.069311
1604.6189,0.070920
1605.5508,0.072797
1606.4826,0.074507
1607.4144,0.076066
1608.3463,0.077901
1609.2781,0.079957
1610.2099,0.081465
1611.1418,0.082331
1612.0736,0.083314
1613.0054,0.084650
1613.9373,0.086171
1614.8691,0.088098
1615.8010,0.089671
1616.7328,0.092016
1617.6646,0.097902
1618.5965,0.102291
1619.5283,0.101332
1620.4601,0.100702
1621.3920,0.102032
1622.3238,0.103839
1623.2556,0.105547
1624.1875,0.110182
1625.1193,0.115059
1626.0511,0.115082
1626.9830,0.115025
1627.9148,0.116638
1628.8466,0.120126
1629.7785,0.122610
1630.7103,0.121572
1631.6421,0.120855
1632.5740,0.121659
1633.5058,0.122188
1634.4376,0.122361
1635.3695,0.124625
1636.3013,0.131540
1637.2331,0.138060
1638.1650,0.137117
1639.0968,0.133964
1640.0286,0.130876
1640.9605,0.129783
1641.8923,0.129678
1642.8242,0.129110
1643.7560,0.128290
1644.6878,0.127181
1645.6197,0.126608
1646.5515,0.127841
1647.4833,0.129760
1648.4152,0.130036
1649.3470,0.128109
1650.2788,0.124850
1651.2107,0.122577
1652.1425,0.121640
1653.0743,0.123129
1654.0062,0.130423
1654.9380,0.133692
1655.8698,0.127774
1656.8017,0.121989
1657.7335,0.118179
1658.6653,0.115913
1659.5972,0.114114
1660.5290,0.112371
1661.4608,0.110790
1662.3927,0.109457
1663.3245,0.108872
1664.2563,0.108233
1665.1882,0.106031
1666.1200,0.103398
1667.0518,0.101208
1667.9837,0.099718
1668.9155,0.098498
1669.8474,0.097813
1670.7792,0.097291
1671.7110,0.094989
1672.6429,0.092735
1673.5747,0.090922
1674.5065,0.089104
1675.4384,0.087720
1676.3702,0.087201
1677.3020,0.085621
1678.2339,0.083005
1679.1657,0.080746
1680.0975,0.078446
1681.0294,0.076603
1681.9612,0.075268
1682.8930,0.073634
1683.8249,0.072253
1684.7567,0.072735
1685.6885,0.074405
1686.6204,0.071617
1687.5522,0.068115
1688.4840,0.066096
1689.4159,0.064594
1690.3477,0.062807
1691.2795,0.061228
1692.2114,0.059870
1693.1432,0.058597
1694.0750,0.057217
1695.0069,0.055411
1695.9387,0.054150
1696.8706,0.054200
1697.8024,0.053548
1698.7342,0.051805
1699.6661,0.050646
1700.5979,0.050021
1701.5297,0.050268
1702.4616,0.048877
1703.3934,0.046505
1704.3252,0.044692
1705.2571,0.043696
1706.1889,0.043084
1707.1207,0.042436
1708.0526,0.041482
1708.9844,0.040130
1709.9162,0.039406
1710.8481,0.038610
1711.7799,0.037323
1712.7117,0.036245
1713.6436,0.035406
1714.5754,0.034244
1715.5072,0.033704
1716.4391,0.033774
1717.3709,0.033033
1718.3027,0.032254
1719.2346,0.032205
1720.1664,0.031642
1721.0982,0.030724
1722.0301,0.030317
1722.9619,0.029884
1723.8937,0.028773
1724.8256,0.027897
1725.7574,0.027692
1726.6893,0.027434
1727.6211,0.026745
1728.5529,0.025992
1729.4848,0.025517
1730.4166,0.024921
1731.3484,0.024506
1732.2803,0.024150
1733.2121,0.023604
1734.1439,0.023416
1735.0758,0.023158
1736.0076,0.023129
1736.9394,0.022777
1737.8713,0.022368
1738.8031,0.022135
1739.7349,0.021474
1740.6668,0.020836
1741.5986,0.021085
1742.5304,0.020869
1743.4623,0.020255
1744.3941,0.020143
1745.3259,0.019820
1746.2578,0.019154
1747.1896,0.018860
1748.1214,0.018651
1749.0533,0.018639
1749.9851,0.018961
1750.9169,0.018947
1751.8488,0.018467
1752.7806,0.018398
1753.7125,0.018079
1754.6443,0.017553
1755.5761,0.017554
1756.5080,0.017337
1757.4398,0.016919
1758.3716,0.016978
1759.3035,0.016976
1760.2353,0.016642
1761.1671,0.016144
1762.0990,0.015779
1763.0308,0.015897
1763.9626,0.015529
1764.8945,0.015246
1765.8263,0.015504
1766.7581,0.015338
1767.6900,0.014737
1768.6218,0.014343
1769.5536,0.014601
1770.4855,0.014768
1771.4173,0.014334
1772.3491,0.014044
1773.2810,0.014200
1774.2128,0.014139
1775.1446,0.013789
1776.0765,0.013543
1777.0083,0.013440
1777.9401,0.013419
1778.8720,0.013475
1779.8038,0.013531
1780.7357,0.013572
1781.6675,0.013366
1782.5993,0.013337
1783.5312,0.012933
1784.4630,0.012432
1785.3948,0.012392
1786.3267,0.012751
1787.2585,0.012444
1788.1903,0.011740
1789.1222,0.011702
1790.0540,0.012022
1790.9858,0.012036
1791.9177,0.011715
1792.8495,0.012015
1793.7813,0.012672
1794.7132,0.012455
1795.6450,0.011574
1796.5768,0.010908
1797.5087,0.011053
1798.4405,0.011162
1799.3723,0.011012
1800.3042,0.011220
1801.2360,0.011151
1802.1678,0.011003
1803.0997,0.011154
1804.0315,0.011220
1804.9633,0.010622
1805.8952,0.010265
1806.8270,0.010511
1807.7589,0.010379
1808.6907,0.010214
1809.6225,0.010484
1810.5544,0.010687
1811.4862,0.010748
1812.4180,0.010949
1813.3499,0.010981
1814.2817,0.010865
1815.2135,0.010351
1816.1454,0.010001
1817.0772,0.009673
1818.0090,0.009458
1818.9409,0.010172
1819.8727,0.010494
1820.8045,0.009780
1821.7364,0.009260
1822.6682,0.009234
1823.6000,0.009563
1824.5319,0.009642
1825.4637,0.009445
1826.3955,0.009472
1827.3274,0.009680
1828.2592,0.008817
1829.1910,0.008036
1830.1229,0.008555
1831.0547,0.009526
1831.9865,0.009606
1832.9184,0.009811
1833.8502,0.009832
1834.7821,0.009079
1835.7139,0.008407
1836.6457,0.008710
1837.5776,0.009092
1838.5094,0.008645
1839.4412,0.008581
1840.3731,0.008623
1841.3049,0.008784
1842.2367,0.009213
1843.1686,0.008966
1844.1004,0.008603
1845.0322,0.009040
1845.9641,0.009460
1846.8959,0.008256
1847.8277,0.007652
1848.7596,0.007806
1849.6914,0.007896
1850.6232,0.007349
1851.5551,0.007217
1852.4869,0.007822
1853.4187,0.008068
1854.3506,0.007972
1855.2824,0.008188
1856.2142,0.008311
1857.1461,0.008132
1858.0779,0.007962
1859.0097,0.008511
1859.9416,0.009105
1860.8734,0.008433
1861.8052,0.007780
1862.7371,0.008187
1863.6689,0.008620
1864.6008,0.009172
1865.5326,0.009701
1866.4644,0.009514
1867.3963,0.008622
1868.3281,0.007935
1869.2599,0.008343
1870.1918,0.007739
1871.1236,0.007226
1872.0554,0.008106
1872.9873,0.008412
1873.9191,0.007438
1874.8509,0.007193
1875.7828,0.007613
1876.7146,0.007373
1877.6464,0.008153
1878.5783,0.009321
1879.5101,0.008587
1880.4419,0.007664
1881.3738,0.007724
1882.3056,0.007757
1883.2374,0.008258
1884.1693,0.009160
1885.1011,0.008647
1886.0329,0.007321
1886.9648,0.007488
1887.8966,0.008194
1888.8284,0.008006
1889.7603,0.007340
1890.6921,0.007659
1891.6240,0.008818
1892.5558,0.008608
1893.4876,0.008352
1894.4195,0.008673
1895.3513,0.008583
1896.2831,0.008319
1897.2150,0.007452
1898.1468,0.006673
1899.0786,0.007719
1900.0105,0.008463
1900.9423,0.008179
1901.8741,0.007610
1902.8060,0.008871
1903.7378,0.009290
1904.6696,0.009282
1905.6015,0.009344
1906.5333,0.007917
1907.4651,0.006579
1908.3970,0.006909
1909.3288,0.008555
1910.2606,0.009326
1911.1925,0.009220
1912.1243,0.008501
1913.0561,0.007219
1913.9880,0.006413
1914.9198,0.007689
1915.8516,0.008612
1916.7835,0.007879
1917.7153,0.007638
1918.6472,0.007752
1919.5790,0.006393
1920.5108,0.006192
1921.4427,0.007824
1922.3745,0.008873
1923.3063,0.009019
1924.2382,0.009200
1925.1700,0.009780
1926.1018,0.009390
1927.0337,0.008032
1927.9655,0.007038
1928.8973,0.006809
1929.8292,0.005783
1930.7610,0.005418
1931.6928,0.006354
1932.6247,0.006173
1933.5565,0.007119
1934.4883,0.007525
1935.4202,0.007922
1936.3520,0.009453
1937.2838,0.009002
1938.2157,0.006461
1939.1475,0.006003
1940.0793,0.008432
1941.0112,0.009043
1941.9430,0.008312
1942.8748,0.007251
1943.8067,0.006050
1944.7385,0.005342
1945.6704,0.004886
1946.6022,0.004470
1947.5340,0.005677
1948.4659,0.006506
1949.3977,0.007086
1950.3295,0.008270
1951.2614,0.005891
1952.1932,0.004953
1953.1250,0.007652
1954.0569,0.007282
1954.9887,0.004762
1955.9205,0.005161
1956.8524,0.006787
1957.7842,0.008140
1958.7160,0.007217
1959.6479,0.006089
1960.5797,0.004135
1961.5115,-0.000266
1962.4434,-0.001349
1963.3752,0.002334
1964.3070,0.006833
1965.2389,0.007090
1966.1707,0.004288
1967.1025,0.003940
1968.0344,0.006682
1968.9662,0.005399
1969.8980,0.003240
1970.8299,0.005731
1971.7617,0.006007
1972.6936,0.004756
1973.6254,0.001967
1974.5572,0.000722
1975.4891,0.001822
1976.4209,0.002060
1977.3527,0.001731
1978.2846,0.001679
1979.2164,0.001040
1980.1482,0.000907
1981.0801,0.002623
1982.0119,0.004792
1982.9437,0.006029
1983.8756,0.005415
1984.8074,0.004572
1985.7392,0.004696
1986.6711,0.006476
1987.6029,0.007077
1988.5347,0.006498
1989.4666,0.006212
1990.3984,0.005247
1991.3302,0.005124
1992.2621,0.005300
1993.1939,0.003737
1994.1257,0.004604
1995.0576,0.007430
1995.9894,0.005914
1996.9212,0.004676
1997.8531,0.007326
1998.7849,0.005686
1999.7167,0.004541
2000.6486,0.004921
2001.5804,0.005559
2002.5123,0.004633
2003.4441,0.001915
2004.3759,0.002712
2005.3078,0.005903
2006.2396,0.007829
2007.1714,0.007839
2008.1033,0.007184
2009.0351,0.003575
2009.9669,0.001575
2010.8988,0.002502
2011.8306,0.002056
2012.7624,0.001504
2013.6943,0.001440
2014.6261,0.002660
2015.5579,0.004080
2016.4898,0.003056
2017.4216,0.001309
2018.3534,0.003492
2019.2853,0.004094
2020.2171,0.005578
2021.1489,0.005891
2022.0808,0.003600
2023.0126,0.001922
2023.9444,-0.002298
2024.8763,0.000259
2025.8081,0.002361
2026.7399,0.001712
2027.6718,0.005388
2028.6036,0.002931
2029.5355,0.001855
2030.4673,0.004316
2031.3991,0.005673
2032.3310,0.003968
2033.2628,0.001417
2034.1946,0.004041
2035.1265,0.006510
2036.0583,0.001749
2036.9901,-0.002155
2037.9220,-0.000726
2038.8538,0.002668
2039.7856,0.006200
2040.7175,0.008126
2041.6493,0.005788
2042.5811,0.004797
2043.5130,0.006566
2044.4448,0.006462
2045.3766,0.005018
2046.3085,0.004156
2047.2403,0.006244
2048.1721,0.010894
2049.1040,0.010339
2050.0358,0.007983
2050.9676,0.007472
2051.8995,0.007621
2052.8313,0.006828
2053.7631,0.008621
2054.6950,0.010848
2055.6268,0.010432
2056.5587,0.010037
2057.4905,0.009391
2058.4223,0.008342
2059.3542,0.009028
2060.2860,0.008879
2061.2178,0.008232
2062.1497,0.008863
2063.0815,0.008583
2064.0133,0.009065
2064.9452,0.010186
2065.8770,0.008931
2066.8088,0.009192
2067.7407,0.010339
2068.6725,0.012048
2069.6043,0.012834
2070.5362,0.011139
2071.4680,0.010756
2072.3998,0.011660
2073.3317,0.010568
2074.2635,0.009585
2075.1953,0.011624
2076.1272,0.011605
2077.0590,0.010933
2077.9908,0.010778
2078.9227,0.010841
2079.8545,0.011034
2080.7863,0.012885
2081.7182,0.012779
2082.6500,0.012006
2083.5819,0.011459
2084.5137,0.011482
2085.4455,0.012212
2086.3774,0.012133
2087.3092,0.012959
2088.2410,0.013061
2089.1729,0.012571
2090.1047,0.012660
2091.0365,0.012168
2091.9684,0.011611
2092.9002,0.011137
2093.8320,0.011162
2094.7639,0.011486
2095.6957,0.011510
2096.6275,0.011172
2097.5594,0.011197
2098.4912,0.010796
2099.4230,0.010561
2100.3549,0.011311
2101.2867,0.011816
2102.2185,0.012332
2103.1504,0.012371
2104.0822,0.012285
2105.0140,0.010854
2105.9459,0.010805
2106.8777,0.010814
2107.8095,0.010821
2108.7414,0.011735
2109.6732,0.011482
2110.6051,0.011166
2111.5369,0.010803
2112.4687,0.011645
2113.4006,0.012334
2114.3324,0.011106
2115.2642,0.010173
2116.1961,0.011128
2117.1279,0.012744
2118.0597,0.012536
2118.9916,0.011211
2119.9234,0.011385
2120.8552,0.012403
2121.7871,0.012467
2122.7189,0.012571
2123.6507,0.012522
2124.5826,0.012067
2125.5144,0.011463
2126.4462,0.011370
2127.3781,0.011802
2128.3099,0.012552
2129.2417,0.012536
2130.1736,0.012035
2131.1054,0.013580
2132.0372,0.013638
2132.9691,0.011914
2133.9009,0.012397
2134.8327,0.012411
2135.7646,0.010961
2136.6964,0.010677
2137.6282,0.010362
2138.5601,0.009773
2139.4919,0.010404
2140.4238,0.010883
2141.3556,0.009305
2142.2874,0.008037
2143.2193,0.008979
2144.1511,0.007482
2145.0829,0.007782
2146.0148,0.008978
2146.9466,0.008104
2147.8784,0.007596
2148.8103,0.008027
2149.7421,0.009425
2150.6739,0.010955
2151.6058,0.010790
2152.5376,0.009258
2153.4694,0.009391
2154.4013,0.008083
2155.3331,0.004504
2156.2649,0.003001
2157.1968,0.004461
2158.1286,0.005057
2159.0604,0.004234
2159.9923,0.005808
2160.9241,0.004531
2161.8559,0.003655
2162.7878,0.005347
2163.7196,0.004755
2164.6514,0.002944
2165.5833,0.003686
2166.5151,0.005770
2167.4470,0.008229
2168.3788,0.008816
2169.3106,0.004717
2170.2425,0.005072
2171.1743,0.007385
2172.1061,0.006931
2173.0380,0.006139
2173.9698,0.007323
2174.9016,0.008434
2175.8335,0.009830
2176.7653,0.008757
2177.6971,0.006302
2178.6290,0.006337
2179.5608,0.005536
2180.4926,0.003123
2181.4245,0.003215
2182.3563,0.005249
2183.2881,0.005775
2184.2200,0.007186
2185.1518,0.004679
2186.0836,0.001628
2187.0155,0.004871
2187.9473,0.006840
2188.8791,0.008556
2189.8110,0.007520
2190.7428,0.008150
2191.6746,0.011120
2192.6065,0.009408
2193.5383,0.004958
2194.4702,0.004702
2195.4020,0.008195
2196.3338,0.009918
2197.2657,0.008448
2198.1975,0.006659
2199.1293,0.005611
2200.0612,0.005966
2200.9930,0.004707
2201.9248,0.004525
2202.8567,0.006710
2203.7885,0.009541
2204.7203,0.010841
2205.6522,0.009495
2206.5840,0.006889
2207.5158,0.006321
2208.4477,0.006504
2209.3795,0.005784
2210.3113,0.008608
2211.2432,0.010994
2212.1750,0.009326
2213.1068,0.008127
2214.0387,0.008575
2214.9705,0.008977
2215.9023,0.006618
2216.8342,0.005363
2217.7660,0.009011
2218.6978,0.012987
2219.6297,0.013929
2220.5615,0.010733
2221.4934,0.007079
2222.4252,0.006577
2223.3570,0.008648
2224.2889,0.010464
2225.2207,0.009698
2226.1525,0.007957
2227.0844,0.008040
2228.0162,0.008610
2228.9480,0.008905
2229.8799,0.008692
2230.8117,0.008974
2231.7435,0.007565
2232.6754,0.006447
2233.6072,0.007681
2234.5390,0.008777
2235.4709,0.008821
2236.4027,0.008306
2237.3345,0.007222
2238.2664,0.006130
2239.1982,0.008217
2240.1300,0.009080
2241.0619,0.006245
2241.9937,0.005415
2242.9255,0.006998
2243.8574,0.007872
2244.7892,0.008291
2245.7210,0.008396
2246.6529,0.007826
2247.5847,0.008163
2248.5166,0.009442
2249.4484,0.010381
2250.3802,0.009476
2251.3121,0.008697
2252.2439,0.009320
2253.1757,0.007848
2254.1076,0.006680
2255.0394,0.008061
2255.9712,0.009725
2256.9031,0.008620
2257.8349,0.009169
2258.7667,0.010406
2259.6986,0.009670
2260.6304,0.009830
2261.5622,0.009741
2262.4941,0.009149
2263.4259,0.008418
2264.3577,0.007835
2265.2896,0.008760
2266.2214,0.008960
2267.1532,0.009240
2268.0851,0.009849
2269.0169,0.007523
2269.9487,0.005738
2270.8806,0.006049
2271.8124,0.007703
2272.7442,0.008790
2273.6761,0.008674
2274.6079,0.008629
2275.5397,0.008024
2276.4716,0.007226
2277.4034,0.007666
2278.3353,0.009083
2279.2671,0.009182
2280.1989,0.008240
2281.1308,0.008151
2282.0626,0.010056
2282.9944,0.011096
2283.9263,0.009866
2284.8581,0.008272
2285.7899,0.007733
2286.7218,0.007841
2287.6536,0.007651
2288.5854,0.008631
2289.5173,0.009349
2290.4491,0.008504
2291.3809,0.008103
2292.3128,0.008291
2293.2446,0.008552
2294.1764,0.008354
2295.1083,0.008067
2296.0401,0.008165
2296.9719,0.007917
2297.9038,0.008017
2298.8356,0.007990
2299.7674,0.008481
2300.6993,0.009192
2301.6311,0.008835
2302.5629,0.008173
2303.4948,0.008134
2304.4266,0.008531
2305.3585,0.008279
2306.2903,0.008406
2307.2221,0.008516
2308.1540,0.007667
2309.0858,0.007664
2310.0176,0.008520
2310.9495,0.008935
2311.8813,0.008723
2312.8131,0.008383
2313.7450,0.008596
2314.6768,0.008023
2315.6086,0.007905
2316.5405,0.008647
2317.4723,0.008520
2318.4041,0.008508
2319.3360,0.008148
2320.2678,0.007114
2321.1996,0.007202
2322.1315,0.007192
2323.0633,0.007666
2323.9951,0.008540
2324.9270,0.008025
2325.8588,0.007463
2326.7906,0.007337
2327.7225,0.007524
2328.6543,0.007454
2329.5861,0.007289
2330.5180,0.007998
2331.4498,0.007984
2332.3817,0.007537
2333.3135,0.008233
2334.2453,0.008870
2335.1772,0.008782
2336.1090,0.008474
2337.0408,0.007848
2337.9727,0.007475
2338.9045,0.007678
2339.8363,0.007740
2340.7682,0.007578
2341.7000,0.007832
2342.6318,0.008417
2343.5637,0.008178
2344.4955,0.007285
2345.4273,0.006871
2346.3592,0.006986
2347.2910,0.007102
2348.2228,0.007489
2349.1547,0.007492
2350.0865,0.007398
2351.0183,0.007841
2351.9502,0.007675
2352.8820,0.006597
2353.8138,0.005992
2354.7457,0.006567
2355.6775,0.007450
2356.6093,0.008285
2357.5412,0.007421
2358.4730,0.005775
2359.4049,0.005402
2360.3367,0.006251
2361.2685,0.006579
2362.2004,0.006023
2363.1322,0.005982
2364.0640,0.005848
2364.9959,0.005759
2365.9277,0.005708
2366.8595,0.005475
2367.7914,0.006348
2368.7232,0.007836
2369.6550,0.008064
2370.5869,0.007522
2371.5187,0.006482
2372.4505,0.006175
2373.3824,0.005960
2374.3142,0.005482
2375.2460,0.006297
2376.1779,0.006988
2377.1097,0.007302
2378.0415,0.006999
2378.9734,0.006341
2379.9052,0.006238
2380.8370,0.006279
2381.7689,0.006937
2382.7007,0.007457
2383.6325,0.007350
2384.5644,0.006362
2385.4962,0.005519
2386.4281,0.006047
2387.3599,0.006552
2388.2917,0.006751
2389.2236,0.006960
2390.1554,0.006589
2391.0872,0.006505
2392.0191,0.006811
2392.9509,0.006206
2393.8827,0.005558
2394.8146,0.006092
2395.7464,0.006595
2396.6782,0.006498
2397.6101,0.006642
2398.5419,0.006496
2399.4737,0.005876
2400.4056,0.005380
2401.3374,0.005991
2402.2692,0.006407
2403.2011,0.006136
2404.1329,0.005995
2405.0647,0.006075
2405.9966,0.006465
2406.9284,0.006820
2407.8602,0.006529
2408.7921,0.006158
2409.7239,0.005416
2410.6557,0.004918
2411.5876,0.005013
2412.5194,0.005118
2413.4512,0.004831
2414.3831,0.005243
2415.3149,0.006207
2416.2468,0.006917
2417.1786,0.006896
2418.1104,0.005697
2419.0423,0.004816
2419.9741,0.005296
2420.9059,0.005786
2421.8378,0.005953
2422.7696,0.006622
2423.7014,0.006047
2424.6333,0.005523
2425.5651,0.005961
2426.4969,0.005910
2427.4288,0.005673
2428.3606,0.005945
2429.2924,0.006209
2430.2243,0.005765
2431.1561,0.004863
2432.0879,0.004277
2433.0198,0.004889
2433.9516,0.005287
2434.8834,0.005210
2435.8153,0.005391
2436.7471,0.005817
2437.6789,0.006607
2438.6108,0.006517
2439.5426,0.005571
2440.4744,0.004760
2441.4063,0.004149
2442.3381,0.004110
2443.2700,0.004750
2444.2018,0.004754
2445.1336,0.004835
2446.0655,0.006096
2446.9973,0.006451
2447.9291,0.005974
2448.8610,0.005856
2449.7928,0.005741
2450.7246,0.005289
2451.6565,0.004963
2452.5883,0.004460
2453.5201,0.004413
2454.4520,0.004914
2455.3838,0.004571
2456.3156,0.004798
2457.2475,0.005629
2458.1793,0.005858
2459.1111,0.006137
2460.0430,0.005704
2460.9748,0.004874
2461.9066,0.004806
2462.8385,0.005254
2463.7703,0.005444
2464.7021,0.005099
2465.6340,0.005313
2466.5658,0.005697
2467.4976,0.005750
2468.4295,0.005241
2469.3613,0.005006
2470.2932,0.005350
2471.2250,0.006027
2472.1568,0.006567
2473.0887,0.006099
2474.0205,0.005314
2474.9523,0.005206
2475.8842,0.004951
2476.8160,0.004633
2477.7478,0.004268
2478.6797,0.004691
2479.6115,0.005242
2480.5433,0.005267
2481.4752,0.005552
2482.4070,0.005168
2483.3388,0.005027
2484.2707,0.005348
2485.2025,0.005237
2486.1343,0.005305
2487.0662,0.005679
2487.9980,0.005046
2488.9298,0.003812
2489.8617,0.004338
2490.7935,0.006126
2491.7253,0.006355
2492.6572,0.006069
2493.5890,0.005971
2494.5208,0.006179
2495.4527,0.006644
2496.3845,0.006746
2497.3164,0.005870
2498.2482,0.004895
2499.1800,0.005835
2500.1119,0.006961
2501.0437,0.006946
2501.9755,0.005661
2502.9074,0.005431
2503.8392,0.006102
2504.7710,0.005325
2505.7029,0.004883
2506.6347,0.005564
2507.5665,0.005333
2508.4984,0.004793
2509.4302,0.004864
2510.3620,0.005411
2511.2939,0.005614
2512.2257,0.005170
2513.1575,0.005102
2514.0894,0.004839
2515.0212,0.004294
2515.9530,0.004973
2516.8849,0.006039
2517.8167,0.005544
2518.7485,0.004883
2519.6804,0.004905
2520.6122,0.005283
2521.5440,0.004955
2522.4759,0.004496
2523.4077,0.005070
2524.3396,0.005215
2525.2714,0.005479
2526.2032,0.005474
2527.1351,0.005338
2528.0669,0.005136
2528.9987,0.004543
2529.9306,0.004637
2530.8624,0.005579
2531.7942,0.006079
2532.7261,0.005214
2533.6579,0.004203
2534.5897,0.005105
2535.5216,0.005806
2536.4534,0.005135
2537.3852,0.004884
2538.3171,0.004911
2539.2489,0.004488
2540.1807,0.004913
2541.1126,0.005474
2542.0444,0.005141
2542.9762,0.004292
2543.9081,0.004972
2544.8399,0.006561
2545.7717,0.006267
2546.7036,0.005211
2547.6354,0.004630
2548.5672,0.004911
2549.4991,0.005394
2550.4309,0.005396
2551.3627,0.004967
2552.2946,0.004371
2553.2264,0.004789
2554.1583,0.005569
2555.0901,0.004832
2556.0219,0.004350
2556.9538,0.005030
2557.8856,0.004769
2558.8174,0.004592
2559.7493,0.005086
2560.6811,0.004773
2561.6129,0.004232
2562.5448,0.004665
2563.4766,0.005088
2564.4084,0.004544
2565.3403,0.004518
2566.2721,0.004554
2567.2039,0.004221
2568.1358,0.004073
2569.0676,0.004013
2569.9994,0.004449
2570.9313,0.004636
2571.8631,0.004364
2572.7949,0.004420
2573.7268,0.004674
2574.6586,0.004601
2575.5904,0.003981
2576.5223,0.003498
2577.4541,0.003970
2578.3859,0.004611
2579.3178,0.004439
2580.2496,0.003749
2581.1815,0.003785
2582.1133,0.004743
2583.0451,0.005436
2583.9770,0.004950
2584.9088,0.004464
2585.8406,0.004420
2586.7725,0.004566
2587.7043,0.005140
2588.6361,0.005022
2589.5680,0.004239
2590.4998,0.004239
2591.4316,0.004665
2592.3635,0.004911
2593.2953,0.005172
2594.2271,0.005039
2595.1590,0.004708
2596.0908,0.004260
2597.0226,0.004422
2597.9545,0.004790
2598.8863,0.005109
2599.8181,0.005045
2600.7500,0.004284
2601.6818,0.003884
2602.6136,0.004215
2603.5455,0.004362
2604.4773,0.004248
2605.4091,0.004729
2606.3410,0.004416
2607.2728,0.003752
2608.2047,0.004248
2609.1365,0.005494
2610.0683,0.005730
2611.0002,0.005402
2611.9320,0.004582
2612.8638,0.003964
2613.7957,0.004417
2614.7275,0.004957
2615.6593,0.005376
2616.5912,0.005353
2617.5230,0.005002
2618.4548,0.005181
2619.3867,0.005474
2620.3185,0.005057
2621.2503,0.005063
2622.1822,0.005498
2623.1140,0.005594
2624.0458,0.005549
2624.9777,0.005503
2625.9095,0.005448
2626.8413,0.005520
2627.7732,0.005504
2628.7050,0.005498
2629.6368,0.005521
2630.5687,0.005663
2631.5005,0.006091
2632.4323,0.005976
2633.3642,0.005516
2634.2960,0.005589
2635.2279,0.005998
2636.1597,0.006235
2637.0915,0.005928
2638.0234,0.005409
2638.9552,0.005861
2639.8870,0.006415
2640.8189,0.005982
2641.7507,0.005468
2642.6825,0.005608
2643.6144,0.006141
2644.5462,0.006133
2645.4780,0.005916
2646.4099,0.006013
2647.3417,0.006246
2648.2735,0.006600
2649.2054,0.006424
2650.1372,0.005999
2651.0690,0.006057
2652.0009,0.006336
2652.9327,0.006284
2653.8645,0.006365
2654.7964,0.006490
2655.7282,0.006185
2656.6600,0.006073
2657.5919,0.006475
2658.5237,0.006889
2659.4555,0.006912
2660.3874,0.006499
2661.3192,0.006282
2662.2511,0.006571
2663.1829,0.006805
2664.1147,0.006714
2665.0466,0.006689
2665.9784,0.006876
2666.9102,0.006846
2667.8421,0.006495
2668.7739,0.006409
2669.7057,0.006471
2670.6376,0.006438
2671.5694,0.006642
2672.5012,0.006930
2673.4331,0.006997
2674.3649,0.006995
2675.2967,0.006888
2676.2286,0.007096
2677.1604,0.007515
2678.0922,0.007658
2679.0241,0.007677
2679.9559,0.007623
2680.8877,0.007654
2681.8196,0.007795
2682.7514,0.007892
2683.6832,0.007902
2684.6151,0.007892
2685.5469,0.007743
2686.4787,0.007687
2687.4106,0.007865
2688.3424,0.008390
2689.2742,0.008869
2690.2061,0.008647
2691.1379,0.008184
2692.0698,0.008268
2693.0016,0.008437
2693.9334,0.008254
2694.8653,0.008217
2695.7971,0.008083
2696.7289,0.008093
2697.6608,0.008349
2698.5926,0.008415
2699.5244,0.008450
2700.4563,0.008414
2701.3881,0.008548
2702.3199,0.008891
2703.2518,0.009104
2704.1836,0.009544
2705.1154,0.009729
2706.0473,0.009527
2706.9791,0.009430
2707.9109,0.008965
2708.8428,0.008442
2709.7746,0.008528
2710.7064,0.009128
2711.6383,0.009541
2712.5701,0.009731
2713.5019,0.009757
2714.4338,0.009363
2715.3656,0.009563
2716.2974,0.010069
2717.2293,0.009821
2718.1611,0.009748
2719.0930,0.009972
2720.0248,0.009756
2720.9566,0.009943
2721.8885,0.010301
2722.8203,0.009965
2723.7521,0.009837
2724.6840,0.010277
2725.6158,0.010637
2726.5476,0.010503
2727.4795,0.010385
2728.4113,0.010436
2729.3431,0.010530
2730.2750,0.010877
2731.2068,0.011134
2732.1386,0.011028
2733.0705,0.011014
2734.0023,0.011192
2734.9341,0.010962
2735.8660,0.010834
2736.7978,0.010735
2737.7296,0.010491
2738.6615,0.010530
2739.5933,0.010487
2740.5251,0.010925
2741.4570,0.011491
2742.3888,0.011490
2743.3206,0.011710
2744.2525,0.012084
2745.1843,0.011943
2746.1162,0.011525
2747.0480,0.011761
2747.9798,0.011963
2748.9117,0.011898
2749.8435,0.012207
2750.7753,0.012444
2751.7072,0.012427
2752.6390,0.012365
2753.5708,0.012213
2754.5027,0.012058
2755.4345,0.012481
2756.3663,0.012791
2757.2982,0.012366
2758.2300,0.011764
2759.1618,0.011700
2760.0937,0.011894
2761.0255,0.011811
2761.9573,0.012260
2762.8892,0.013150
2763.8210,0.013338
2764.7528,0.013308
2765.6847,0.013255
2766.6165,0.012926
2767.5483,0.012876
2768.4802,0.012737
2769.4120,0.012423
2770.3438,0.012639
2771.2757,0.013097
2772.2075,0.012947
2773.1394,0.012771
2774.0712,0.013186
2775.0030,0.013091
2775.9349,0.012466
2776.8667,0.012621
2777.7985,0.013590
2778.7304,0.014092
2779.6622,0.013827
2780.5940,0.013564
2781.5259,0.013475
2782.4577,0.013469
2783.3895,0.013250
2784.3214,0.013125
2785.2532,0.013408
2786.1850,0.013917
2787.1169,0.014258
2788.0487,0.014332
2788.9805,0.014224
2789.9124,0.014331
2790.8442,0.014616
2791.7760,0.014768
2792.7079,0.014952
2793.6397,0.015082
2794.5715,0.015161
2795.5034,0.014966
2796.4352,0.014747
2797.3670,0.015077
2798.2989,0.015780
2799.2307,0.016248
2800.1626,0.016206
2801.0944,0.016109
2802.0262,0.016536
2802.9581,0.017014
2803.8899,0.017266
2804.8217,0.017332
2805.7536,0.017162
2806.6854,0.017507
2807.6172,0.017997
2808.5491,0.018121
2809.4809,0.017699
2810.4127,0.017466
2811.3446,0.018159
2812.2764,0.018597
2813.2082,0.019012
2814.1401,0.019838
2815.0719,0.019726
2816.0037,0.019212
2816.9356,0.019477
2817.8674,0.019601
2818.7992,0.019575
2819.7311,0.019946
2820.6629,0.020578
2821.5947,0.021134
2822.5266,0.020750
2823.4584,0.019904
2824.3902,0.020181
2825.3221,0.020950
2826.2539,0.021044
2827.1857,0.021084
2828.1176,0.021690
2829.0494,0.022017
2829.9813,0.021738
2830.9131,0.022075
2831.8449,0.022886
2832.7768,0.022882
2833.7086,0.022722
2834.6404,0.023339
2835.5723,0.024031
2836.5041,0.024095
2837.4359,0.023622
2838.3678,0.023696
2839.2996,0.024313
2840.2314,0.024107
2841.1633,0.023695
2842.0951,0.024158
2843.0269,0.024716
2843.9588,0.025076
2844.8906,0.025341
2845.8224,0.025638
2846.7543,0.025994
2847.6861,0.026253
2848.6179,0.026352
2849.5498,0.026207
2850.4816,0.026305
2851.4134,0.026800
2852.3453,0.027030
2853.2771,0.027941
2854.2089,0.028788
2855.1408,0.028813
2856.0726,0.029064
2857.0045,0.029362
2857.9363,0.029689
2858.8681,0.030104
2859.8000,0.030007
2860.7318,0.029699
2861.6636,0.029997
2862.5955,0.031276
2863.5273,0.032400
2864.4591,0.032733
2865.3910,0.032922
2866.3228,0.033833
2867.2546,0.034580
2868.1865,0.035269
2869.1183,0.036130
2870.0501,0.036675
2870.9820,0.037017
2871.9138,0.037820
2872.8456,0.039049
2873.7775,0.040010
2874.7093,0.040787
2875.6411,0.040907
2876.5730,0.041008
2877.5048,0.041571
2878.4366,0.042101
2879.3685,0.043131
2880.3003,0.043482
2881.2321,0.043685
2882.1640,0.044407
2883.0958,0.045095
2884.0277,0.046068
2884.9595,0.046798
2885.8913,0.046576
2886.8232,0.046333
2887.7550,0.046622
2888.6868,0.047332
2889.6187,0.047920
2890.5505,0.047904
2891.4823,0.048406
2892.4142,0.049317
2893.3460,0.048984
2894.2778,0.048836
2895.2097,0.050247
2896.1415,0.051623
2897.0733,0.051811
2898.0052,0.051891
2898.9370,0.052313
2899.8688,0.052398
2900.8007,0.052759
2901.7325,0.053632
2902.6643,0.053908
2903.5962,0.053538
2904.5280,0.052822
2905.4598,0.052438
2906.3917,0.052256
2907.3235,0.052055
2908.2553,0.051855
2909.1872,0.051355
2910.1190,0.050318
2911.0509,0.049412
2911.9827,0.048855
2912.9145,0.048678
2913.8464,0.048602
2914.7782,0.048577
2915.7100,0.048116
2916.6419,0.047784
2917.5737,0.047939
2918.5055,0.047835
2919.4374,0.047428
2920.3692,0.047528
2921.3010,0.047605
2922.2329,0.047903
2923.1647,0.048263
2924.0965,0.048150
2925.0284,0.048132
2925.9602,0.048789
2926.8920,0.049468
2927.8239,0.050087
2928.7557,0.050428
2929.6875,0.050296
2930.6194,0.050510
2931.5512,0.050911
2932.4830,0.051076
2933.4149,0.051152
2934.3467,0.051029
2935.2785,0.051142
2936.2104,0.051149
2937.1422,0.051234
2938.0741,0.050934
2939.0059,0.050605
2939.9377,0.051055
2940.8696,0.051810
2941.8014,0.051803
2942.7332,0.051063
2943.6651,0.051073
2944.5969,0.051278
2945.5287,0.050677
2946.4606,0.050399
2947.3924,0.051510
2948.3242,0.051751
2949.2561,0.051026
2950.1879,0.051106
2951.1197,0.051574
2952.0516,0.051496
2952.9834,0.050685
2953.9152,0.051123
2954.8471,0.052309
2955.7789,0.052424
2956.7107,0.052340
2957.6426,0.052945
2958.5744,0.053418
2959.5062,0.053864
2960.4381,0.055209
2961.3699,0.056744
2962.3017,0.057799
2963.2336,0.059491
2964.1654,0.061623
2965.0972,0.063252
2966.0291,0.065476
2966.9609,0.068055
2967.8928,0.070660
2968.8246,0.073370
2969.7564,0.075913
2970.6883,0.078718
2971.6201,0.081874
2972.5519,0.084911
2973.4838,0.087569
2974.4156,0.089945
2975.3474,0.092792
2976.2793,0.095390
2977.2111,0.097498
2978.1429,0.099035
2979.0748,0.099303
2980.0066,0.099254
2980.9384,0.099129
2981.8703,0.098404
2982.8021,0.096695
2983.7339,0.094499
2984.6658,0.092405
2985.5976,0.089597
2986.5294,0.085164
2987.4613,0.081814
2988.3931,0.079740
2989.3249,0.076949
2990.2568,0.073178
2991.1886,0.070050
2992.1204,0.067953
2993.0523,0.066152
2993.9841,0.064409
2994.9160,0.062220
2995.8478,0.060236
2996.7796,0.059571
2997.7115,0.058366
2998.6433,0.057234
2999.5751,0.056520
3000.5070,0.055341
3001.4388,0.055216
3002.3706,0.054757
3003.3025,0.053198
3004.2343,0.053250
3005.1661,0.053769
3006.0980,0.053488
3007.0298,0.053403
3007.9616,0.053359
3008.8935,0.053003
3009.8253,0.053624
3010.7571,0.053555
3011.6890,0.052872
3012.6208,0.053193
3013.5526,0.053234
3014.4845,0.053071
3015.4163,0.053353
3016.3481,0.053554
3017.2800,0.053871
3018.2118,0.053754
3019.1436,0.054388
3020.0755,0.054710
3021.0073,0.053931
3021.9392,0.053639
3022.8710,0.054088
3023.8028,0.054700
3024.7347,0.054928
3025.6665,0.055253
3026.5983,0.056954
3027.5302,0.057747
3028.4620,0.057960
3029.3938,0.057929
3030.3257,0.058795
3031.2575,0.059335
3032.1893,0.059098
3033.1212,0.059863
3034.0530,0.061328
3034.9848,0.061478
3035.9167,0.060737
3036.8485,0.060743
3037.7803,0.061311
3038.7122,0.062655
3039.6440,0.063661
3040.5758,0.063909
3041.5077,0.064010
3042.4395,0.064485
3043.3713,0.065232
3044.3032,0.065638
3045.2350,0.066580
3046.1668,0.067195
3047.0987,0.067648
3048.0305,0.067829
3048.9624,0.068108
3049.8942,0.068729
3050.8260,0.069212
3051.7579,0.070149
3052.6897,0.071055
3053.6215,0.071354
3054.5534,0.072021
3055.4852,0.072518
3056.4170,0.072718
3057.3489,0.072376
3058.2807,0.073680
3059.2125,0.076023
3060.1444,0.076915
3061.0762,0.076823
3062.0080,0.077118
3062.9399,0.077928
3063.8717,0.078233
3064.8035,0.078487
3065.7354,0.078905
3066.6672,0.080501
3067.5990,0.082153
3068.5309,0.081979
3069.4627,0.081810
3070.3945,0.082959
3071.3264,0.083828
3072.2582,0.084178
3073.1900,0.085346
3074.1219,0.086260
3075.0537,0.086312
3075.9856,0.086960
3076.9174,0.088543
3077.8492,0.089221
3078.7811,0.090416
3079.7129,0.091212
3080.6447,0.091432
3081.5766,0.091590
3082.5084,0.093255
3083.4402,0.093899
3084.3721,0.093578
3085.3039,0.094795
3086.2357,0.095855
3087.1676,0.096813
3088.0994,0.098491
3089.0312,0.099414
3089.9631,0.099963
3090.8949,0.100429
3091.8267,0.101316
3092.7586,0.102028
3093.6904,0.102322
3094.6222,0.103183
3095.5541,0.104500
3096.4859,0.105405
3097.4177,0.105557
3098.3496,0.106398
3099.2814,0.107838
3100.2132,0.108844
3101.1451,0.110170
3102.0769,0.110711
3103.0087,0.111709
3103.9406,0.113220
3104.8724,0.114764
3105.8043,0.114899
3106.7361,0.116379
3107.6679,0.118393
3108.5998,0.119336
3109.5316,0.119208
3110.4634,0.119080
3111.3953,0.119575
3112.3271,0.120959
3113.2589,0.122139
3114.1908,0.122936
3115.1226,0.124011
3116.0544,0.124495
3116.9863,0.124808
3117.9181,0.126423
3118.8499,0.128185
3119.7818,0.129944
3120.7136,0.130080
3121.6454,0.130544
3122.5773,0.132425
3123.5091,0.133861
3124.4409,0.133915
3125.3728,0.135405
3126.3046,0.136184
3127.2364,0.135891
3128.1683,0.137915
3129.1001,0.140936
3130.0319,0.140956
3130.9638,0.141686
3131.8956,0.144105
3132.8275,0.145223
3133.7593,0.145483
3134.6911,0.147168
3135.6230,0.148466
3136.5548,0.149767
3137.4866,0.150720
3138.4185,0.151618
3139.3503,0.153017
3140.2821,0.154220
3141.2140,0.154816
3142.1458,0.155218
3143.0776,0.155958
3144.0095,0.156794
3144.9413,0.157489
3145.8731,0.159591
3146.8050,0.161199
3147.7368,0.163587
3148.6686,0.164190
3149.6005,0.164550
3150.5323,0.166277
3151.4641,0.169164
3152.3960,0.170503
3153.3278,0.170826
3154.2596,0.171135
3155.1915,0.171969
3156.1233,0.172047
3157.0551,0.172613
3157.9870,0.173500
3158.9188,0.175101
3159.8507,0.176960
3160.7825,0.179651
3161.7143,0.180559
3162.6462,0.180618
3163.5780,0.181526
3164.5098,0.183495
3165.4417,0.185908
3166.3735,0.187127
3167.3053,0.186909
3168.2372,0.188632
3169.1690,0.190221
3170.1008,0.190500
3171.0327,0.190869
3171.9645,0.192050
3172.8963,0.193109
3173.8282,0.195677
3174.7600,0.197287
3175.6918,0.198138
3176.6237,0.199065
3177.5555,0.199751
3178.4873,0.200780
3179.4192,0.204054
3180.3510,0.206105
3181.2828,0.206438
3182.2147,0.206777
3183.1465,0.207619
3184.0783,0.209205
3185.0102,0.210630
3185.9420,0.209568
3186.8739,0.212212
3187.8057,0.215404
3188.7375,0.214708
3189.6694,0.213176
3190.6012,0.214679
3191.5330,0.216331
3192.4649,0.218567
3193.3967,0.221966
3194.3285,0.223309
3195.2604,0.221845
3196.1922,0.221887
3197.1240,0.223236
3198.0559,0.224921
3198.9877,0.225636
3199.9195,0.226928
3200.8514,0.227682
3201.7832,0.229011
3202.7150,0.229633
3203.6469,0.230895
3204.5787,0.231141
3205.5105,0.231485
3206.4424,0.233036
3207.3742,0.234434
3208.3060,0.234868
3209.2379,0.236215
3210.1697,0.238218
3211.1015,0.240701
3212.0334,0.240688
3212.9652,0.241385
3213.8971,0.242946
3214.8289,0.242918
3215.7607,0.241554
3216.6926,0.243530
3217.6244,0.246712
3218.5562,0.245891
3219.4881,0.244498
3220.4199,0.244869
3221.3517,0.245304
3222.2836,0.247564
3223.2154,0.249742
3224.1472,0.250491
3225.0791,0.251557
3226.0109,0.253221
3226.9427,0.253410
3227.8746,0.252862
3228.8064,0.252953
3229.7382,0.255115
3230.6701,0.255538
3231.6019,0.256184
3232.5337,0.255466
3233.4656,0.255564
3234.3974,0.257972
3235.3292,0.258427
3236.2611,0.256800
3237.1929,0.257618
3238.1247,0.258391
3239.0566,0.259383
3239.9884,0.260411
3240.9202,0.261191
3241.8521,0.262069
3242.7839,0.263060
3243.7158,0.261719
3244.6476,0.260500
3245.5794,0.262206
3246.5113,0.263177
3247.4431,0.262254
3248.3749,0.263311
3249.3068,0.263428
3250.2386,0.263936
3251.1704,0.263246
3252.1023,0.264573
3253.0341,0.264899
3253.9659,0.265355
3254.8978,0.266235
3255.8296,0.266345
3256.7614,0.265528
3257.6933,0.266516
3258.6251,0.266997
3259.5569,0.265551
3260.4888,0.263897
3261.4206,0.266220
3262.3524,0.268151
3263.2843,0.269861
3264.2161,0.268434
3265.1479,0.266740
3266.0798,0.266064
3267.0116,0.267852
3267.9434,0.269572
3268.8753,0.270461
3269.8071,0.270368
3270.7390,0.270666
3271.6708,0.269915
3272.6026,0.270158
3273.5345,0.268188
3274.4663,0.267574
3275.3981,0.267640
3276.3300,0.269755
3277.2618,0.269707
3278.1936,0.269674
3279.1255,0.269944
3280.0573,0.269374
3280.9891,0.267730
3281.9210,0.269345
3282.8528,0.270291
3283.7846,0.272180
3284.7165,0.271575
3285.6483,0.270334
3286.5801,0.271815
3287.5120,0.272520
3288.4438,0.271019
3289.3756,0.271182
3290.3075,0.270932
3291.2393,0.272396
3292.1711,0.272863
3293.1030,0.273823
3294.0348,0.273203
3294.9666,0.274025
3295.8985,0.272608
3296.8303,0.271424
3297.7622,0.269473
3298.6940,0.268612
3299.6258,0.269551
3300.5577,0.273141
3301.4895,0.273873
3302.4213,0.273087
3303.3532,0.272427
3304.2850,0.274101
3305.2168,0.273888
3306.1487,0.274704
3307.0805,0.275253
3308.0123,0.273188
3308.9442,0.271349
3309.8760,0.271420
3310.8078,0.270586
3311.7397,0.272904
3312.6715,0.274243
3313.6033,0.273843
3314.5352,0.272419
3315.4670,0.272204
3316.3988,0.271198
3317.3307,0.272956
3318.2625,0.272915
3319.1943,0.272560
3320.1262,0.273081
3321.0580,0.274919
3321.9898,0.275452
3322.9217,0.275758
3323.8535,0.275012
3324.7854,0.275755
3325.7172,0.274778
3326.6490,0.273905
3327.5809,0.273972
3328.5127,0.276743
3329.4445,0.277273
3330.3764,0.276977
3331.3082,0.276779
3332.2400,0.278733
3333.1719,0.278979
3334.1037,0.277334
3335.0355,0.275643
3335.9674,0.276424
3336.8992,0.276703
3337.8310,0.276229
3338.7629,0.275763
3339.6947,0.275389
3340.6265,0.274180
3341.5584,0.275542
3342.4902,0.275449
3343.4220,0.276064
3344.3539,0.274591
3345.2857,0.273949
3346.2175,0.275296
3347.1494,0.277799
3348.0812,0.277898
3349.0130,0.278788
3349.9449,0.279055
3350.8767,0.278271
3351.8086,0.275277
3352.7404,0.274779
3353.6722,0.274599
3354.6041,0.275923
3355.5359,0.274307
3356.4677,0.273536
3357.3996,0.276140
3358.3314,0.278275
3359.2632,0.277214
3360.1951,0.277132
3361.1269,0.275466
3362.0587,0.273582
3362.9906,0.273429
3363.9224,0.275332
3364.8542,0.274666
3365.7861,0.275016
3366.7179,0.275191
3367.6497,0.275946
3368.5816,0.274480
3369.5134,0.272839
3370.4452,0.272376
3371.3771,0.271247
3372.3089,0.268505
3373.2407,0.270619
3374.1726,0.272491
3375.1044,0.272581
3376.0362,0.270627
3376.9681,0.270469
3377.8999,0.271408
3378.8317,0.271544
3379.7636,0.271168
3380.6954,0.272417
3381.6273,0.271771
3382.5591,0.270251
3383.4909,0.268543
3384.4228,0.269670
3385.3546,0.269535
3386.2864,0.268184
3387.2183,0.269278
3388.1501,0.271791
3389.0819,0.271674
3390.0138,0.269014
3390.9456,0.265909
3391.8774,0.266575
3392.8093,0.267492
3393.7411,0.267748
3394.6729,0.264281
3395.6048,0.262269
3396.5366,0.262071
3397.4684,0.260982
3398.4003,0.258066
3399.3321,0.259863
3400.2639,0.260332
3401.1958,0.258378
3402.1276,0.258850
3403.0594,0.260646
3403.9913,0.259563
3404.9231,0.258295
3405.8549,0.255236
3406.7868,0.256239
3407.7186,0.256125
3408.6505,0.253982
3409.5823,0.251747
3410.5141,0.250629
3411.4460,0.251257
3412.3778,0.249206
3413.3096,0.246738
3414.2415,0.246763
3415.1733,0.247333
3416.1051,0.248033
3417.0370,0.247487
3417.9688,0.245615
3418.9006,0.241069
3419.8325,0.239173
3420.7643,0.240622
3421.6961,0.243549
3422.6280,0.245319
3423.5598,0.247113
3424.4916,0.245483
3425.4235,0.242874
3426.3553,0.240601
3427.2871,0.238614
3428.2190,0.236528
3429.1508,0.237390
3430.0826,0.237499
3431.0145,0.235815
3431.9463,0.231300
3432.8781,0.231231
3433.8100,0.233124
3434.7418,0.234334
3435.6737,0.231395
3436.6055,0.227437
3437.5373,0.226264
3438.4692,0.226365
3439.4010,0.223192
3440.3328,0.219421
3441.2647,0.219298
3442.1965,0.221352
3443.1283,0.221628
3444.0602,0.221565
3444.9920,0.219939
3445.9238,0.217598
3446.8557,0.216193
3447.7875,0.217797
3448.7193,0.219832
3449.6512,0.217713
3450.5830,0.214046
3451.5148,0.213389
3452.4467,0.212740
3453.3785,0.211236
3454.3103,0.210632
3455.2422,0.209830
3456.1740,0.204824
3457.1058,0.205006
3458.0377,0.207631
3458.9695,0.206534
3459.9013,0.204268
3460.8332,0.202049
3461.7650,0.202547
3462.6969,0.205163
3463.6287,0.201849
3464.5605,0.201302
3465.4924,0.201890
3466.4242,0.198557
3467.3560,0.196722
3468.2879,0.197609
3469.2197,0.195695
3470.1515,0.193222
3471.0834,0.191580
3472.0152,0.190911
3472.9470,0.191188
3473.8789,0.188406
3474.8107,0.184433
3475.7425,0.186131
3476.6744,0.188536
3477.6062,0.187899
3478.5380,0.183248
3479.4699,0.181382
3480.4017,0.183137
3481.3335,0.180901
3482.2654,0.177995
3483.1972,0.179484
3484.1290,0.181162
3485.0609,0.178560
3485.9927,0.175785
3486.9245,0.176653
3487.8564,0.175922
3488.7882,0.173426
3489.7201,0.171227
3490.6519,0.172643
3491.5837,0.171179
3492.5156,0.171467
3493.4474,0.171416
3494.3792,0.171395
3495.3111,0.171538
3496.2429,0.168156
3497.1747,0.164903
3498.1066,0.165013
3499.0384,0.161015
3499.9702,0.160572
3500.9021,0.161539
3501.8339,0.158687
3502.7657,0.155269
3503.6976,0.156484
3504.6294,0.155387
3505.5612,0.153626
3506.4931,0.153037
3507.4249,0.153741
3508.3567,0.153581
3509.2886,0.152282
3510.2204,0.151002
3511.1522,0.152613
3512.0841,0.151924
3513.0159,0.149602
3513.9477,0.151281
3514.8796,0.150312
3515.8114,0.144529
3516.7432,0.144238
3517.6751,0.143104
3518.6069,0.141934
3519.5388,0.142979
3520.4706,0.144302
3521.4024,0.142697
3522.3343,0.140273
3523.2661,0.140596
3524.1979,0.140451
3525.1298,0.139768
3526.0616,0.137249
3526.9934,0.133758
3527.9253,0.134023
3528.8571,0.133758
3529.7889,0.130973
3530.7208,0.130050
3531.6526,0.130406
3532.5844,0.130360
3533.5163,0.130859
3534.4481,0.128906
3535.3799,0.126603
3536.3118,0.126155
3537.2436,0.124365
3538.1754,0.124213
3539.1073,0.125869
3540.0391,0.124172
3540.9709,0.122349
3541.9028,0.121926
3542.8346,0.121155
3543.7664,0.120200
3544.6983,0.118701
3545.6301,0.116433
3546.5620,0.116644
3547.4938,0.114613
3548.4256,0.112696
3549.3575,0.112491
3550.2893,0.112873
3551.2211,0.112732
3552.1530,0.108961
3553.0848,0.106075
3554.0166,0.107273
3554.9485,0.108624
3555.8803,0.108095
3556.8121,0.107845
3557.7440,0.107596
3558.6758,0.104771
3559.6076,0.102824
3560.5395,0.102449
3561.4713,0.101735
3562.4031,0.102016
3563.3350,0.102103
3564.2668,0.099786
3565.1986,0.097845
3566.1305,0.096275
3567.0623,0.096888
3567.9941,0.095587
3568.9260,0.093197
3569.8578,0.093632
3570.7896,0.093814
3571.7215,0.095010
3572.6533,0.093900
3573.5852,0.089183
3574.5170,0.089135
3575.4488,0.090959
3576.3807,0.090078
3577.3125,0.087642
3578.2443,0.085840
3579.1762,0.085132
3580.1080,0.084863
3581.0398,0.083684
3581.9717,0.083882
3582.9035,0.084922
3583.8353,0.082256
3584.7672,0.079273
3585.6990,0.079631
3586.6308,0.078885
3587.5627,0.078540
3588.4945,0.079630
3589.4263,0.078986
3590.3582,0.075621
3591.2900,0.074201
3592.2218,0.073843
3593.1537,0.074064
3594.0855,0.073994
3595.0173,0.072961
3595.9492,0.071086
3596.8810,0.071237
3597.8128,0.073066
3598.7447,0.073616
3599.6765,0.072065
3600.6084,0.069153
3601.5402,0.068390
3602.4720,0.068970
3603.4039,0.067339
3604.3357,0.066287
3605.2675,0.066785
3606.1994,0.066506
3607.1312,0.064582
3608.0630,0.063506
3608.9949,0.063419
3609.9267,0.062384
3610.8585,0.061584
3611.7904,0.060741
3612.7222,0.058259
3613.6540,0.058460
3614.5859,0.061022
3615.5177,0.061215
3616.4495,0.059374
3617.3814,0.058080
3618.3132,0.055512
3619.2450,0.055174
3620.1769,0.055928
3621.1087,0.055711
3622.0405,0.054464
3622.9724,0.053581
3623.9042,0.053090
3624.8360,0.052740
3625.7679,0.051056
3626.6997,0.049481
3627.6316,0.051213
3628.5634,0.051783
3629.4952,0.048526
3630.4271,0.046041
3631.3589,0.046095
3632.2907,0.047057
3633.2226,0.047771
3634.1544,0.047529
3635.0862,0.047432
3636.0181,0.045557
3636.9499,0.043382
3637.8817,0.043314
3638.8136,0.043791
3639.7454,0.042755
3640.6772,0.041385
3641.6091,0.041511
3642.5409,0.040751
3643.4727,0.039936
3644.4046,0.039917
3645.3364,0.040026
3646.2682,0.040007
3647.2001,0.039302
3648.1319,0.037707
3649.0637,0.036771
3649.9956,0.036674
3650.9274,0.035669
3651.8592,0.035156
3652.7911,0.034409
3653.7229,0.034000
3654.6547,0.033348
3655.5866,0.032443
3656.5184,0.032332
3657.4503,0.031423
3658.3821,0.030044
3659.3139,0.028953
3660.2458,0.028106
3661.1776,0.028437
3662.1094,0.028423
3663.0413,0.027311
3663.9731,0.027532
3664.9049,0.027218
3665.8368,0.026486
3666.7686,0.026433
3667.7004,0.025272
3668.6323,0.023691
3669.5641,0.022657
3670.4959,0.022412
3671.4278,0.021525
3672.3596,0.018698
3673.2914,0.018049
3674.2233,0.017545
3675.1551,0.016375
3676.0869,0.016879
3677.0188,0.017331
3677.9506,0.018185
3678.8824,0.017772
3679.8143,0.016676
3680.7461,0.017482
3681.6779,0.017298
3682.6098,0.016115
3683.5416,0.015733
3684.4735,0.014708
3685.4053,0.012921
3686.3371,0.012461
3687.2690,0.012648
3688.2008,0.012728
3689.1326,0.012047
3690.0645,0.011609
3690.9963,0.011855
3691.9281,0.010165
3692.8600,0.007684
3693.7918,0.008183
3694.7236,0.010798
3695.6555,0.010846
3696.5873,0.009069
3697.5191,0.008788
3698.4510,0.008506
3699.3828,0.007787
3700.3146,0.006671
3701.2465,0.006165
3702.1783,0.007122
3703.1101,0.007367
3704.0420,0.006788
3704.9738,0.006290
3705.9056,0.006558
3706.8375,0.006719
3707.7693,0.006155
3708.7011,0.005092
3709.6330,0.004522
3710.5648,0.004696
3711.4967,0.004660
3712.4285,0.003885
3713.3603,0.003691
3714.2922,0.004026
3715.2240,0.003859
3716.1558,0.003618
3717.0877,0.003261
3718.0195,0.004277
3718.9513,0.005198
3719.8832,0.004044
3720.8150,0.003532
3721.7468,0.004421
3722.6787,0.004684
3723.6105,0.003999
3724.5423,0.003495
3725.4742,0.002798
3726.4060,0.002366
3727.3378,0.002971
3728.2697,0.003208
3729.2015,0.002827
3730.1333,0.003013
3731.0652,0.003033
3731.9970,0.003772
3732.9288,0.004672
3733.8607,0.003542
3734.7925,0.001456
3735.7243,0.000298
3736.6562,0.001920
3737.5880,0.003253
3738.5199,0.001140
3739.4517,0.000931
3740.3835,0.001253
3741.3154,0.000938
3742.2472,0.002481
3743.1790,0.002936
3744.1109,0.002394
3745.0427,0.002655
3745.9745,0.002543
3746.9064,0.001642
3747.8382,-0.000249
3748.7700,-0.001169
3749.7019,0.000058
3750.6337,0.001350
3751.5655,0.001462
3752.4974,0.001249
3753.4292,0.001050
3754.3610,0.000970
3755.2929,0.002257
3756.2247,0.002207
3757.1565,0.000925
3758.0884,0.001200
3759.0202,0.002822
3759.9520,0.003557
3760.8839,0.002975
3761.8157,0.002659
3762.7475,0.002130
3763.6794,0.001426
3764.6112,0.000924
3765.5431,0.000491
3766.4749,0.000747
3767.4067,0.001818
3768.3386,0.002080
3769.2704,0.001496
3770.2022,0.001250
3771.1341,0.001032
3772.0659,0.001013
3772.9977,0.001161
3773.9296,0.001184
3774.8614,0.001288
3775.7932,0.001669
3776.7251,0.001681
3777.6569,0.001355
3778.5887,0.001330
3779.5206,0.001651
3780.4524,0.001476
3781.3842,0.001236
3782.3161,0.001227
3783.2479,0.000973
3784.1797,0.001351
3785.1116,0.001385
3786.0434,0.001082
3786.9752,0.001396
3787.9071,0.001133
3788.8389,0.001110
3789.7707,0.001625
3790.7026,0.001402
3791.6344,0.001489
3792.5662,0.002032
3793.4981,0.001824
3794.4299,0.000927
3795.3618,0.000871
3796.2936,0.001505
3797.2254,0.001234
3798.1573,0.001427
3799.0891,0.001521
3800.0209,0.000387
3800.9528,0.000591
3801.8846,0.000579
3802.8164,-0.000790
3803.7483,-0.001472
3804.6801,-0.000390
3805.6119,0.001498
3806.5438,0.002302
3807.4756,0.002065
3808.4074,0.001124
3809.3393,0.000498
3810.2711,0.001378
3811.2029,0.001770
3812.1348,0.000881
3813.0666,0.000271
3813.9984,0.000641
3814.9303,0.001159
3815.8621,0.000822
3816.7939,0.000930
3817.7258,0.001353
3818.6576,0.000613
3819.5894,-0.000104
3820.5213,0.000523
3821.4531,0.001095
3822.3850,-0.000082
3823.3168,-0.000436
3824.2486,0.000797
3825.1805,0.000420
3826.1123,0.000596
3827.0441,0.000953
3827.9760,0.000605
3828.9078,0.000406
3829.8396,0.000093
3830.7715,-0.000009
3831.7033,0.000295
3832.6351,0.000867
3833.5670,0.001122
3834.4988,0.000491
3835.4306,0.000272
3836.3625,0.001271
3837.2943,0.000970
3838.2261,0.000034
3839.1580,-0.000799
3840.0898,-0.000776
3841.0216,0.000787
3841.9535,0.001069
3842.8853,-0.000186
3843.8171,-0.001171
3844.7490,-0.000487
3845.6808,0.001277
3846.6126,0.001939
3847.5445,0.001018
3848.4763,0.000845
3849.4082,0.001185
3850.3400,0.000426
3851.2718,0.000778
3852.2037,0.001746
3853.1355,0.000074
3854.0673,-0.002335
3854.9992,-0.001193
3855.9310,0.001269
3856.8628,0.001252
3857.7947,0.001147
3858.7265,0.000837
3859.6583,-0.000114
3860.5902,0.000099
3861.5220,0.001759
3862.4538,0.001857
3863.3857,0.000043
3864.3175,-0.000388
3865.2493,0.000134
3866.1812,0.000052
3867.1130,-0.000441
3868.0448,0.000320
3868.9767,0.001755
3869.9085,0.001230
3870.8403,0.000344
3871.7722,0.000072
3872.7040,-0.000371
3873.6358,-0.001426
3874.5677,-0.001173
3875.4995,0.000013
3876.4314,0.001185
3877.3632,0.001472
3878.2950,0.001462
3879.2269,0.001902
3880.1587,0.001415
3881.0905,0.000738
3882.0224,0.000555
3882.9542,-0.000214
3883.8860,-0.000264
3884.8179,0.000962
3885.7497,0.002112
3886.6815,0.002549
3887.6134,0.001920
3888.5452,0.001329
3889.4770,0.001818
3890.4089,0.002463
3891.3407,0.002008
3892.2725,0.001142
3893.2044,0.001248
3894.1362,0.000541
3895.0680,-0.000024
3895.9999,0.000787
3896.9317,0.000680
3897.8635,-0.000175
3898.7954,-0.000096
3899.7272,0.000938
3900.6590,0.001188
3901.5909,0.000002
3902.5227,-0.000547
3903.4546,0.000817
3904.3864,0.001945
3905.3182,0.001242
3906.2501,-0.000103
3907.1819,-0.000388
3908.1137,-0.000262
3909.0456,0.000550
3909.9774,0.000800
3910.9092,0.000242
3911.8411,0.000333
3912.7729,0.001167
3913.7047,0.002108
3914.6366,0.001959
3915.5684,0.001490
3916.5002,0.001933
3917.4321,0.002251
3918.3639,0.001503
3919.2957,0.000384
3920.2276,-0.000314
3921.1594,0.000482
3922.0912,0.000903
3923.0231,0.000826
3923.9549,0.001484
3924.8867,0.002426
3925.8186,0.002087
3926.7504,0.001513
3927.6822,0.001228
3928.6141,0.001057
3929.5459,0.001429
3930.4777,0.001784
3931.4096,0.001423
3932.3414,0.001094
3933.2733,0.001378
3934.2051,0.001702
3935.1369,0.002275
3936.0688,0.002915
3937.0006,0.003325
3937.9324,0.002826
3938.8643,0.002102
3939.7961,0.001800
3940.7279,0.000321
3941.6598,-0.000458
3942.5916,0.000858
3943.5234,0.002265
3944.4553,0.001945
3945.3871,0.000793
3946.3189,0.000556
3947.2508,0.000527
3948.1826,0.000587
3949.1144,0.000974
3950.0463,0.001643
3950.9781,0.002520
3951.9099,0.001799
3952.8418,0.000592
3953.7736,-0.000379
3954.7054,0.000394
3955.6373,0.002162
3956.5691,0.002541
3957.5009,0.002446
3958.4328,0.002475
3959.3646,0.002140
3960.2965,0.001443
3961.2283,0.001121
3962.1601,0.000752
3963.0920,0.000193
3964.0238,0.000293
3964.9556,0.000620
3965.8875,0.000784
3966.8193,0.000997
3967.7511,0.001217
3968.6830,0.001075
3969.6148,0.000541
3970.5466,0.000250
3971.4785,0.000825
3972.4103,0.000729
3973.3421,0.000642
3974.2740,0.001589
3975.2058,0.002369
3976.1376,0.002471
3977.0695,0.002161
3978.0013,0.001272
3978.9331,0.001271
3979.8650,0.001468
3980.7968,0.000989
3981.7286,0.002185
3982.6605,0.003522
3983.5923,0.003225
3984.5241,0.001864
3985.4560,0.001053
3986.3878,0.001328
3987.3197,0.000870
3988.2515,0.000322
3989.1833,0.000483
3990.1152,0.000794
3991.0470,0.000815
3991.9788,0.001140
3992.9107,0.001552
3993.8425,0.001195
3994.7743,0.000987
3995.7062,0.001547
3996.6380,0.001781
3997.5698,0.001395
3998.5017,0.000895
3999.4335,0.000739
4000.3653,0.001913
