Wavenumber,Intensity
650.4205,0.196572
651.3523,0.194400
652.2841,0.198185
653.2160,0.202062
654.1478,0.197515
655.0796,0.199363
656.0115,0.203455
656.9433,0.203226
657.8751,0.204113
658.8070,0.198296
659.7388,0.188623
660.6706,0.200031
661.6025,0.207019
662.5343,0.200666
663.4661,0.199421
664.3980,0.196393
665.3298,0.194321
666.2616,0.188885
667.1935,0.186105
668.1253,0.196150
669.0571,0.207075
669.9890,0.201291
670.9208,0.198292
671.8526,0.196761
672.7845,0.191111
673.7163,0.190682
674.6481,0.196507
675.5800,0.201486
676.5118,0.195357
677.4437,0.187467
678.3755,0.186446
679.3073,0.189808
680.2392,0.190210
681.1710,0.189598
682.1028,0.190066
683.0347,0.190181
683.9665,0.190541
684.8983,0.189907
685.8302,0.187513
686.7620,0.187636
687.6938,0.186589
688.6257,0.186257
689.5575,0.187309
690.4893,0.188416
691.4212,0.188223
692.3530,0.186797
693.2848,0.185494
694.2167,0.184514
695.1485,0.181377
696.0803,0.182657
697.0122,0.185792
697.9440,0.186637
698.8758,0.185955
699.8077,0.186053
700.7395,0.185343
701.6713,0.185050
702.6032,0.182390
703.5350,0.180249
704.4669,0.177988
705.3987,0.175415
706.3305,0.175007
707.2624,0.177614
708.1942,0.178477
709.1260,0.178366
710.0579,0.177810
710.9897,0.175943
711.9215,0.173679
712.8534,0.173393
713.7852,0.175562
714.7170,0.174412
715.6489,0.173132
716.5807,0.175308
717.5125,0.174262
718.4444,0.170796
719.3762,0.171460
720.3080,0.174752
721.2399,0.173581
722.1717,0.169803
723.1035,0.168083
724.0354,0.168129
724.9672,0.168169
725.8990,0.168831
726.8309,0.167693
727.7627,0.165939
728.6945,0.165261
729.6264,0.164392
730.5582,0.165120
731.4901,0.165805
732.4219,0.164688
733.3537,0.164700
734.2856,0.163628
735.2174,0.161999
736.1492,0.160319
737.0811,0.158765
738.0129,0.158966
738.9447,0.160379
739.8766,0.159934
740.8084,0.158775
741.7402,0.157225
742.6721,0.156902
743.6039,0.157722
744.5357,0.157899
745.4676,0.157259
746.3994,0.157228
747.3312,0.155900
748.2631,0.152987
749.1949,0.151673
750.1267,0.152037
751.0586,0.152120
751.9904,0.152439
752.9222,0.151496
753.8541,0.149627
754.7859,0.149042
755.7177,0.148588
756.6496,0.148801
757.5814,0.149114
758.5132,0.146327
759.4451,0.144382
760.3769,0.145630
761.3088,0.146470
762.2406,0.145187
763.1724,0.144629
764.1043,0.144405
765.0361,0.144268
765.9679,0.143945
766.8998,0.142341
767.8316,0.141437
768.7634,0.141485
769.6953,0.140517
770.6271,0.138872
771.5589,0.137586
772.4908,0.137118
773.4226,0.136556
774.3544,0.135333
775.2863,0.134592
776.2181,0.134975
777.1499,0.135351
778.0818,0.135629
779.0136,0.135531
779.9454,0.134161
780.8773,0.131753
781.8091,0.130421
782.7409,0.129935
783.6728,0.129999
784.6046,0.130579
785.5364,0.130499
786.4683,0.129569
787.4001,0.128819
788.3320,0.127222
789.2638,0.126181
790.1956,0.126405
791.1275,0.125844
792.0593,0.124943
792.9911,0.124756
793.9230,0.123346
794.8548,0.121805
795.7866,0.120694
796.7185,0.119807
797.6503,0.119636
798.5821,0.119264
799.5140,0.118755
800.4458,0.118310
801.3776,0.117794
802.3095,0.117630
803.2413,0.117539
804.1731,0.116770
805.1050,0.115799
806.0368,0.114567
806.9686,0.113524
807.9005,0.113891
808.8323,0.113701
809.7641,0.112545
810.6960,0.112630
811.6278,0.112262
812.5596,0.110933
813.4915,0.109972
814.4233,0.108788
815.3552,0.108104
816.2870,0.107548
817.2188,0.106245
818.1507,0.105407
819.0825,0.105734
820.0143,0.105590
820.9462,0.103880
821.8780,0.102299
822.8098,0.102237
823.7417,0.101478
824.6735,0.100533
825.6053,0.101422
826.5372,0.102119
827.4690,0.100643
828.4008,0.099159
829.3327,0.098851
830.2645,0.097514
831.1963,0.096093
832.1282,0.096457
833.0600,0.096104
833.9918,0.095236
834.9237,0.095066
835.8555,0.094503
836.7873,0.093506
837.7192,0.092948
838.6510,0.092821
839.5828,0.092455
840.5147,0.091464
841.4465,0.090233
842.3784,0.089217
843.3102,0.088815
844.2420,0.088310
845.1739,0.087321
846.1057,0.086442
847.0375,0.086172
847.9694,0.085976
848.9012,0.085899
849.8330,0.085801
850.7649,0.084595
851.6967,0.083719
852.6285,0.083437
853.5604,0.082516
854.4922,0.081588
855.4240,0.080720
856.3559,0.080150
857.2877,0.079922
858.2195,0.079520
859.1514,0.079006
860.0832,0.078925
861.0150,0.078500
861.9469,0.077334
862.8787,0.076528
863.8105,0.076394
864.7424,0.076258
865.6742,0.075508
866.6060,0.074257
867.5379,0.073483
868.4697,0.073453
869.4016,0.073544
870.3334,0.073086
871.2652,0.072340
872.1971,0.071769
873.1289,0.071385
874.0607,0.071076
874.9926,0.071068
875.9244,0.071067
876.8562,0.071442
877.7881,0.071485
878.7199,0.070799
879.6517,0.070140
880.5836,0.069223
881.5154,0.068138
882.4472,0.067125
883.3791,0.066093
884.3109,0.065393
885.2427,0.064475
886.1746,0.063920
887.1064,0.063667
888.0382,0.062913
888.9701,0.062247
889.9019,0.061559
890.8337,0.060835
891.7656,0.060264
892.6974,0.059580
893.6292,0.058860
894.5611,0.058682
895.4929,0.058640
896.4247,0.057973
897.3566,0.057438
898.2884,0.057078
899.2203,0.056630
900.1521,0.056249
901.0839,0.055855
902.0158,0.055404
902.9476,0.054744
903.8794,0.054318
904.8113,0.053837
905.7431,0.053795
906.6749,0.053841
907.6068,0.053319
908.5386,0.052516
909.4704,0.051904
910.4023,0.051682
911.3341,0.051165
912.2659,0.050695
913.1978,0.050296
914.1296,0.049774
915.0614,0.049751
915.9933,0.049637
916.9251,0.049133
917.8569,0.048383
918.7888,0.048139
919.7206,0.048101
920.6524,0.047972
921.5843,0.047515
922.5161,0.046841
923.4479,0.046363
924.3798,0.046365
925.3116,0.046149
926.2435,0.046040
927.1753,0.045646
928.1071,0.044916
929.0390,0.044944
929.9708,0.044774
930.9026,0.044014
931.8345,0.043758
932.7663,0.043891
933.6981,0.043644
934.6300,0.043025
935.5618,0.042884
936.4936,0.042762
937.4255,0.042339
938.3573,0.041896
939.2891,0.041485
940.2210,0.041145
941.1528,0.041149
942.0846,0.040957
943.0165,0.040651
943.9483,0.040583
944.8801,0.040519
945.8120,0.040597
946.7438,0.040371
947.6756,0.040116
948.6075,0.039868
949.5393,0.039530
950.4711,0.039190
951.4030,0.038828
952.3348,0.038758
953.2667,0.038656
954.1985,0.038415
955.1303,0.038145
956.0622,0.037593
956.9940,0.037041
957.9258,0.036926
958.8577,0.037065
959.7895,0.037191
960.7213,0.037017
961.6532,0.036869
962.5850,0.036918
963.5168,0.036407
964.4487,0.036093
965.3805,0.036012
966.3123,0.035820
967.2442,0.035959
968.1760,0.036236
969.1078,0.035969
970.0397,0.035582
970.9715,0.035293
971.9033,0.035155
972.8352,0.035026
973.7670,0.034982
974.6988,0.035025
975.6307,0.034865
976.5625,0.034705
977.4943,0.034578
978.4262,0.034131
979.3580,0.033937
980.2899,0.033960
981.2217,0.033789
982.1535,0.033685
983.0854,0.033722
984.0172,0.033651
984.9490,0.033636
985.8809,0.033552
986.8127,0.033363
987.7445,0.033424
988.6764,0.033501
989.6082,0.033328
990.5400,0.032934
991.4719,0.032630
992.4037,0.032741
993.3355,0.032818
994.2674,0.032725
995.1992,0.032608
996.1310,0.032421
997.0629,0.032325
997.9947,0.032304
998.9265,0.032149
999.8584,0.032123
1000.7902,0.032202
1001.7220,0.032214
1002.6539,0.032120
1003.5857,0.032110
1004.5175,0.031984
1005.4494,0.031718
1006.3812,0.031731
1007.3131,0.031542
1008.2449,0.031354
1009.1767,0.031437
1010.1086,0.031680
1011.0404,0.031664
1011.9722,0.031749
1012.9041,0.031893
1013.8359,0.031795
1014.7677,0.031799
1015.6996,0.031733
1016.6314,0.031607
1017.5632,0.031655
1018.4951,0.031646
1019.4269,0.031651
1020.3587,0.031748
1021.2906,0.031642
1022.2224,0.031525
1023.1542,0.031668
1024.0861,0.031819
1025.0179,0.031910
1025.9497,0.031916
1026.8816,0.031833
1027.8134,0.031946
1028.7452,0.031970
1029.6771,0.032277
1030.6089,0.032878
1031.5407,0.032877
1032.4726,0.032909
1033.4044,0.033355
1034.3362,0.033581
1035.2681,0.033957
1036.1999,0.034595
1037.1318,0.035102
1038.0636,0.035528
1038.9954,0.036220
1039.9273,0.037084
1040.8591,0.037895
1041.7909,0.038847
1042.7228,0.039635
1043.6546,0.040361
1044.5864,0.040903
1045.5183,0.041179
1046.4501,0.041147
1047.3819,0.040927
1048.3138,0.040305
1049.2456,0.039213
1050.1774,0.038241
1051.1093,0.036986
1052.0411,0.035840
1052.9729,0.035101
1053.9048,0.034108
1054.8366,0.033350
1055.7684,0.032819
1056.7003,0.032327
1057.6321,0.031995
1058.5639,0.031856
1059.4958,0.031655
1060.4276,0.031380
1061.3594,0.030921
1062.2913,0.030681
1063.2231,0.030699
1064.1550,0.030650
1065.0868,0.030608
1066.0186,0.030506
1066.9505,0.030393
1067.8823,0.030340
1068.8141,0.030603
1069.7460,0.030779
1070.6778,0.030772
1071.6096,0.030810
1072.5415,0.030738
1073.4733,0.030545
1074.4051,0.030562
1075.3370,0.030833
1076.2688,0.030952
1077.2006,0.031071
1078.1325,0.031302
1079.0643,0.031389
1079.9961,0.031576
1080.9280,0.031819
1081.8598,0.032025
1082.7916,0.032202
1083.7235,0.032326
1084.6553,0.032418
1085.5871,0.032393
1086.5190,0.032366
1087.4508,0.032500
1088.3826,0.032479
1089.3145,0.032168
1090.2463,0.031882
1091.1782,0.031859
1092.1100,0.031541
1093.0418,0.031262
1093.9737,0.031128
1094.9055,0.030771
1095.8373,0.030393
1096.7692,0.030115
1097.7010,0.030163
1098.6328,0.030235
1099.5647,0.029860
1100.4965,0.029647
1101.4283,0.029723
1102.3602,0.029648
1103.2920,0.029559
1104.2238,0.029184
1105.1557,0.029104
1106.0875,0.029420
1107.0193,0.029390
1107.9512,0.029203
1108.8830,0.029237
1109.8148,0.029342
1110.7467,0.029282
1111.6785,0.028855
1112.6103,0.028785
1113.5422,0.029052
1114.4740,0.029175
1115.4058,0.028936
1116.3377,0.028949
1117.2695,0.029017
1118.2014,0.028853
1119.1332,0.028807
1120.0650,0.028679
1120.9969,0.028774
1121.9287,0.028980
1122.8605,0.029022
1123.7924,0.028805
1124.7242,0.028631
1125.6560,0.028711
1126.5879,0.028654
1127.5197,0.028676
1128.4515,0.028653
1129.3834,0.028641
1130.3152,0.028674
1131.2470,0.028542
1132.1789,0.028553
1133.1107,0.028490
1134.0425,0.028552
1134.9744,0.028628
1135.9062,0.028506
1136.8380,0.028360
1137.7699,0.028455
1138.7017,0.028434
1139.6335,0.028112
1140.5654,0.028159
1141.4972,0.028312
1142.4290,0.028222
1143.3609,0.028184
1144.2927,0.028175
1145.2246,0.027981
1146.1564,0.027753
1147.0882,0.027695
1148.0201,0.027705
1148.9519,0.027885
1149.8837,0.027906
1150.8156,0.027698
1151.7474,0.027743
1152.6792,0.027861
1153.6111,0.027917
1154.5429,0.027974
1155.4747,0.027935
1156.4066,0.027884
1157.3384,0.027827
1158.2702,0.027730
1159.2021,0.027651
1160.1339,0.027611
1161.0657,0.027607
1161.9976,0.027707
1162.9294,0.027827
1163.8612,0.027822
1164.7931,0.027671
1165.7249,0.027624
1166.6567,0.027740
1167.5886,0.027875
1168.5204,0.027812
1169.4522,0.027973
1170.3841,0.028072
1171.3159,0.027968
1172.2477,0.027713
1173.1796,0.027746
1174.1114,0.027990
1175.0433,0.028056
1175.9751,0.028009
1176.9069,0.027908
1177.8388,0.027970
1178.7706,0.027985
1179.7024,0.027904
1180.6343,0.027787
1181.5661,0.027813
1182.4979,0.027780
1183.4298,0.027802
1184.3616,0.027908
1185.2934,0.027934
1186.2253,0.027875
1187.1571,0.027929
1188.0889,0.028015
1189.0208,0.028051
1189.9526,0.028148
1190.8844,0.028080
1191.8163,0.027938
1192.7481,0.028050
1193.6799,0.028279
1194.6118,0.028369
1195.5436,0.028331
1196.4754,0.028242
1197.4073,0.028249
1198.3391,0.028206
1199.2709,0.028204
1200.2028,0.028195
1201.1346,0.028309
1202.0665,0.028435
1202.9983,0.028365
1203.9301,0.028333
1204.8620,0.028262
1205.7938,0.028244
1206.7256,0.028423
1207.6575,0.028524
1208.5893,0.028545
1209.5211,0.028442
1210.4530,0.028422
1211.3848,0.028502
1212.3166,0.028510
1213.2485,0.028313
1214.1803,0.028274
1215.1121,0.028474
1216.0440,0.028626
1216.9758,0.028709
1217.9076,0.028636
1218.8395,0.028561
1219.7713,0.028684
1220.7031,0.028768
1221.6350,0.028721
1222.5668,0.028723
1223.4986,0.028697
1224.4305,0.028739
1225.3623,0.028937
1226.2941,0.028867
1227.2260,0.028794
1228.1578,0.028945
1229.0897,0.028921
1230.0215,0.029003
1230.9533,0.029244
1231.8852,0.029234
1232.8170,0.029254
1233.7488,0.029279
1234.6807,0.029163
1235.6125,0.029251
1236.5443,0.029250
1237.4762,0.029049
1238.4080,0.029013
1239.3398,0.029138
1240.2717,0.029271
1241.2035,0.029383
1242.1353,0.029436
1243.0672,0.029421
1243.9990,0.029354
1244.9308,0.029300
1245.8627,0.029320
1246.7945,0.029317
1247.7263,0.029432
1248.6582,0.029479
1249.5900,0.029416
1250.5218,0.029465
1251.4537,0.029605
1252.3855,0.029691
1253.3173,0.029724
1254.2492,0.029549
1255.1810,0.029559
1256.1129,0.029670
1257.0447,0.029694
1257.9765,0.029744
1258.9084,0.029875
1259.8402,0.029860
1260.7720,0.030051
1261.7039,0.030343
1262.6357,0.030319
1263.5675,0.030261
1264.4994,0.030329
1265.4312,0.030379
1266.3630,0.030344
1267.2949,0.030339
1268.2267,0.030459
1269.1585,0.030519
1270.0904,0.030419
1271.0222,0.030539
1271.9540,0.030858
1272.8859,0.030931
1273.8177,0.030750
1274.7495,0.030665
1275.6814,0.030776
1276.6132,0.030805
1277.5450,0.030745
1278.4769,0.030895
1279.4087,0.030885
1280.3405,0.030415
1281.2724,0.030151
1282.2042,0.030539
1283.1361,0.030758
1284.0679,0.030580
1284.9997,0.030381
1285.9316,0.030267
1286.8634,0.030242
1287.7952,0.030311
1288.7271,0.030421
1289.6589,0.030466
1290.5907,0.030348
1291.5226,0.030137
1292.4544,0.029966
1293.3862,0.029855
1294.3181,0.030076
1295.2499,0.030228
1296.1817,0.030140
1297.1136,0.030294
1298.0454,0.030186
1298.9772,0.030033
1299.9091,0.030060
1300.8409,0.030160
1301.7727,0.030382
1302.7046,0.030304
1303.6364,0.030167
1304.5682,0.030142
1305.5001,0.030384
1306.4319,0.030608
1307.3637,0.030434
1308.2956,0.030358
1309.2274,0.030424
1310.1592,0.030468
1311.0911,0.030499
1312.0229,0.030344
1312.9548,0.030432
1313.8866,0.030772
1314.8184,0.030824
1315.7503,0.030675
1316.6821,0.030642
1317.6139,0.030670
1318.5458,0.030769
1319.4776,0.031204
1320.4094,0.031176
1321.3413,0.030738
1322.2731,0.030498
1323.2049,0.030503
1324.1368,0.030831
1325.0686,0.031160
1326.0004,0.031070
1326.9323,0.030755
1327.8641,0.030633
1328.7959,0.030614
1329.7278,0.030867
1330.6596,0.030966
1331.5914,0.030741
1332.5233,0.030708
1333.4551,0.030749
1334.3869,0.030459
1335.3188,0.030434
1336.2506,0.030608
1337.1824,0.030959
1338.1143,0.031111
1339.0461,0.031620
1339.9780,0.032029
1340.9098,0.031833
1341.8416,0.031166
1342.7735,0.030685
1343.7053,0.030517
1344.6371,0.030494
1345.5690,0.030623
1346.5008,0.030779
1347.4326,0.030855
1348.3645,0.030713
1349.2963,0.030557
1350.2281,0.030592
1351.1600,0.030584
1352.0918,0.030582
1353.0236,0.030632
1353.9555,0.030448
1354.8873,0.030318
1355.8191,0.030615
1356.7510,0.030729
1357.6828,0.030457
1358.6146,0.030254
1359.5465,0.030499
1360.4783,0.030701
1361.4101,0.030930
1362.3420,0.031038
1363.2738,0.031805
1364.2056,0.031772
1365.1375,0.030697
1366.0693,0.030369
1367.0012,0.030510
1367.9330,0.030741
1368.8648,0.031113
1369.7967,0.031442
1370.7285,0.031021
1371.6603,0.030731
1372.5922,0.030896
1373.5240,0.031792
1374.4558,0.032425
1375.3877,0.032497
1376.3195,0.032293
1377.2513,0.031652
1378.1832,0.031559
1379.1150,0.031811
1380.0468,0.031985
1380.9787,0.031995
1381.9105,0.031879
1382.8423,0.031746
1383.7742,0.031574
1384.7060,0.031871
1385.6378,0.031921
1386.5697,0.031952
1387.5015,0.032837
1388.4333,0.033535
1389.3652,0.032799
1390.2970,0.032124
1391.2288,0.031783
1392.1607,0.032057
1393.0925,0.032007
1394.0244,0.031982
1394.9562,0.032732
1395.8880,0.033349
1396.8199,0.033135
1397.7517,0.032827
1398.6835,0.032828
1399.6154,0.033118
1400.5472,0.032634
1401.4790,0.032253
1402.4109,0.032035
1403.3427,0.031955
1404.2745,0.032022
1405.2064,0.032767
1406.1382,0.033345
1407.0700,0.033073
1408.0019,0.032691
1408.9337,0.032394
1409.8655,0.032441
1410.7974,0.032376
1411.7292,0.032734
1412.6610,0.033179
1413.5929,0.033035
1414.5247,0.032401
1415.4565,0.032368
1416.3884,0.032992
1417.3202,0.033557
1418.2520,0.033980
1419.1839,0.034577
1420.1157,0.035038
1421.0476,0.033972
1421.9794,0.033463
1422.9112,0.032896
1423.8431,0.033371
1424.7749,0.034208
1425.7067,0.033895
1426.6386,0.033174
1427.5704,0.032629
1428.5022,0.032529
1429.4341,0.033081
1430.3659,0.033538
1431.2977,0.033221
1432.2296,0.033040
1433.1614,0.032979
1434.0932,0.032854
1435.0251,0.032771
1435.9569,0.032659
1436.8887,0.033696
1437.8206,0.034459
1438.7524,0.033623
1439.6842,0.032682
1440.6161,0.032378
1441.5479,0.032499
1442.4797,0.032372
1443.4116,0.032356
1444.3434,0.032533
1445.2752,0.032481
1446.2071,0.032240
1447.1389,0.032313
1448.0707,0.033394
1449.0026,0.033715
1449.9344,0.033398
1450.8663,0.033217
1451.7981,0.033117
1452.7299,0.033366
1453.6618,0.033263
1454.5936,0.033261
1455.5254,0.033730
1456.4573,0.035479
1457.3891,0.037149
1458.3209,0.036118
1459.2528,0.035067
1460.1846,0.033756
1461.1164,0.032839
1462.0483,0.032420
1462.9801,0.032348
1463.9119,0.032488
1464.8438,0.033379
1465.7756,0.033966
1466.7074,0.033478
1467.6393,0.032562
1468.5711,0.031852
1469.5029,0.031878
1470.4348,0.032023
1471.3666,0.032487
1472.2984,0.033607
1473.2303,0.035181
1474.1621,0.035587
1475.0939,0.033448
1476.0258,0.033037
1476.9576,0.033180
1477.8895,0.033335
1478.8213,0.033066
1479.7531,0.032279
1480.6850,0.032379
1481.6168,0.032920
1482.5486,0.033135
1483.4805,0.033102
1484.4123,0.032789
1485.3441,0.032797
1486.2760,0.033097
1487.2078,0.033435
1488.1396,0.034144
1489.0715,0.034675
1490.0033,0.035210
1490.9351,0.035533
1491.8670,0.034965
1492.7988,0.033553
1493.7306,0.032901
1494.6625,0.032839
1495.5943,0.033361
1496.5261,0.034614
1497.4580,0.035465
1498.3898,0.035148
1499.3216,0.034337
1500.2535,0.034095
1501.1853,0.034276
1502.1171,0.033882
1503.0490,0.033771
1503.9808,0.033738
1504.9127,0.034152
1505.8445,0.035441
1506.7763,0.038435
1507.7082,0.041036
1508.6400,0.039232
1509.5718,0.036737
1510.5037,0.036250
1511.4355,0.036028
1512.3673,0.035814
1513.2992,0.035369
1514.2310,0.035384
1515.1628,0.035515
1516.0947,0.035870
1517.0265,0.037016
1517.9583,0.037527
1518.8902,0.037155
1519.8220,0.035849
1520.7538,0.035754
1521.6857,0.038034
1522.6175,0.039418
1523.5493,0.038310
1524.4812,0.037174
1525.4130,0.037147
1526.3448,0.036981
1527.2767,0.037777
1528.2085,0.037689
1529.1403,0.037568
1530.0722,0.037228
1531.0040,0.036944
1531.9359,0.037421
1532.8677,0.038216
1533.7995,0.038726
1534.7314,0.038961
1535.6632,0.038978
1536.5950,0.037818
1537.5269,0.037408
1538.4587,0.037714
1539.3905,0.039516
1540.3224,0.042810
1541.2542,0.043634
1542.1860,0.042326
1543.1179,0.041310
1544.0497,0.041286
1544.9815,0.040992
1545.9134,0.040851
1546.8452,0.040878
1547.7770,0.040154
1548.7089,0.040019
1549.6407,0.041101
1550.5725,0.042272
1551.5044,0.042637
1552.4362,0.041745
1553.3680,0.041218
1554.2999,0.042082
1555.2317,0.042907
1556.1635,0.043297
1557.0954,0.042382
1558.0272,0.043596
1558.9591,0.047266
1559.8909,0.050240
1560.8227,0.048419
1561.7546,0.045800
1562.6864,0.044614
1563.6182,0.044283
1564.5501,0.044588
1565.4819,0.044895
1566.4137,0.045703
1567.3456,0.045439
1568.2774,0.045434
1569.2092,0.046911
1570.1411,0.048224
1571.0729,0.049155
1572.0047,0.048685
1572.9366,0.047588
1573.8684,0.047681
1574.8002,0.048485
1575.7321,0.049842
1576.6639,0.051395
1577.5957,0.053046
1578.5276,0.052526
1579.4594,0.051735
1580.3912,0.052198
1581.3231,0.052703
1582.2549,0.053095
1583.1867,0.053322
1584.1186,0.054027
1585.0504,0.054724
1585.9822,0.055466
1586.9141,0.056372
1587.8459,0.057323
1588.7778,0.058315
1589.7096,0.059146
1590.6414,0.059643
1591.5733,0.060153
1592.5051,0.061038
1593.4369,0.062464
1594.3688,0.063595
1595.3006,0.064275
1596.2324,0.064816
1597.1643,0.065745
1598.0961,0.066512
1599.0279,0.067373
1599.9598,0.068849
1600.8916,0.070351
1601.8234,0.071349
1602.7553,0.072461
1603.6871,0.073677
1604.6189,0.075039
1605.5508,0.076056
1606.4826,0.077350
1607.4144,0.078597
1608.3463,0.080114
1609.2781,0.081750
1610.2099,0.083102
1611.1418,0.084538
1612.0736,0.085248
1613.0054,0.086494
1613.9373,0.088077
1614.8691,0.089061
1615.8010,0.091017
1616.7328,0.094238
1617.6646,0.099168
1618.5965,0.101380
1619.5283,0.098916
1620.4601,0.098728
1621.3920,0.099957
1622.3238,0.102012
1623.2556,0.104696
1624.1875,0.107562
1625.1193,0.109587
1626.0511,0.108626
1626.9830,0.109092
1627.9148,0.110824
1628.8466,0.112841
1629.7785,0.113930
1630.7103,0.113337
1631.6421,0.113108
1632.5740,0.113704
1633.5058,0.114184
1634.4376,0.114729
1635.3695,0.116455
1636.3013,0.120891
1637.2331,0.122517
1638.1650,0.118945
1639.0968,0.118745
1640.0286,0.118008
1640.9605,0.116733
1641.8923,0.116503
1642.8242,0.115436
1643.7560,0.114590
1644.6878,0.114938
1645.6197,0.115531
1646.5515,0.116402
1647.4833,0.117465
1648.4152,0.115809
1649.3470,0.113945
1650.2788,0.111062
1651.2107,0.109267
1652.1425,0.109567
1653.0743,0.112517
1654.0062,0.117789
1654.9380,0.114384
1655.8698,0.108831
1656.8017,0.105696
1657.7335,0.103403
1658.6653,0.102273
1659.5972,0.100601
1660.5290,0.099478
1661.4608,0.098720
1662.3927,0.097767
1663.3245,0.097270
1664.2563,0.097029
1665.1882,0.093769
1666.1200,0.091118
1667.0518,0.090185
1667.9837,0.089121
1668.9155,0.089352
1669.8474,0.090378
1670.7792,0.089764
1671.7110,0.085745
1672.6429,0.083676
1673.5747,0.082380
1674.5065,0.080424
1675.4384,0.079691
1676.3702,0.079897
1677.3020,0.078362
1678.2339,0.075172
1679.1657,0.073929
1680.0975,0.072932
1681.0294,0.072534
1681.9612,0.071713
1682.8930,0.069945
1683.8249,0.069285
1684.7567,0.070934
1685.6885,0.070564
1686.6204,0.066835
1687.5522,0.063539
1688.4840,0.061924
1689.4159,0.060983
1690.3477,0.059820
1691.2795,0.058609
1692.2114,0.057452
1693.1432,0.055807
1694.0750,0.054988
1695.0069,0.054589
1695.9387,0.054539
1696.8706,0.055100
1697.8024,0.053298
1698.7342,0.050611
1699.6661,0.050647
1700.5979,0.050786
1701.5297,0.051477
1702.4616,0.047839
1703.3934,0.045269
1704.3252,0.044912
1705.2571,0.044625
1706.1889,0.043499
1707.1207,0.042363
1708.0526,0.041669
1708.9844,0.039824
1709.9162,0.038832
1710.8481,0.038687
1711.7799,0.038087
1712.7117,0.037397
1713.6436,0.037327
1714.5754,0.037569
1715.5072,0.037183
1716.4391,0.037318
1717.3709,0.036216
1718.3027,0.035654
1719.2346,0.035315
1720.1664,0.033104
1721.0982,0.031350
1722.0301,0.030630
1722.9619,0.030457
1723.8937,0.029857
1724.8256,0.029440
1725.7574,0.029263
1726.6893,0.028658
1727.6211,0.027952
1728.5529,0.027317
1729.4848,0.027191
1730.4166,0.027170
1731.3484,0.027607
1732.2803,0.026738
1733.2121,0.026157
1734.1439,0.026939
1735.0758,0.027318
1736.0076,0.026706
1736.9394,0.025157
1737.8713,0.023810
1738.8031,0.023386
1739.7349,0.023226
1740.6668,0.023877
1741.5986,0.023576
1742.5304,0.022132
1743.4623,0.021818
1744.3941,0.022234
1745.3259,0.021950
1746.2578,0.021328
1747.1896,0.021087
1748.1214,0.021451
1749.0533,0.021546
1749.9851,0.021215
1750.9169,0.020864
1751.8488,0.020554
1752.7806,0.020540
1753.7125,0.019124
1754.6443,0.018892
1755.5761,0.018935
1756.5080,0.018393
1757.4398,0.018769
1758.3716,0.019564
1759.3035,0.018251
1760.2353,0.017182
1761.1671,0.017300
1762.0990,0.017932
1763.0308,0.018224
1763.9626,0.017131
1764.8945,0.016691
1765.8263,0.016887
1766.7581,0.016493
1767.6900,0.016307
1768.6218,0.016485
1769.5536,0.016893
1770.4855,0.016783
1771.4173,0.016539
1772.3491,0.016726
1773.2810,0.016859
1774.2128,0.016658
1775.1446,0.015621
1776.0765,0.015263
1777.0083,0.015048
1777.9401,0.013965
1778.8720,0.013643
1779.8038,0.014305
1780.7357,0.014814
1781.6675,0.015163
1782.5993,0.014965
1783.5312,0.013922
1784.4630,0.013753
1785.3948,0.014119
1786.3267,0.014309
1787.2585,0.013680
1788.1903,0.013786
1789.1222,0.013761
1790.0540,0.013437
1790.9858,0.013710
1791.9177,0.014772
1792.8495,0.015035
1793.7813,0.015060
1794.7132,0.014423
1795.6450,0.013552
1796.5768,0.013774
1797.5087,0.013778
1798.4405,0.013707
1799.3723,0.013758
1800.3042,0.014032
1801.2360,0.014059
1802.1678,0.013606
1803.0997,0.013026
1804.0315,0.012662
1804.9633,0.012319
1805.8952,0.012216
1806.8270,0.012585
1807.7589,0.012668
1808.6907,0.012562
1809.6225,0.012672
1810.5544,0.012561
1811.4862,0.012863
1812.4180,0.012921
1813.3499,0.012289
1814.2817,0.011777
1815.2135,0.011613
1816.1454,0.011565
1817.0772,0.011374
1818.0090,0.011113
1818.9409,0.011655
1819.8727,0.012005
1820.8045,0.011598
1821.7364,0.011352
1822.6682,0.011399
1823.6000,0.011361
1824.5319,0.011488
1825.4637,0.011746
1826.3955,0.012215
1827.3274,0.011529
1828.2592,0.010678
1829.1910,0.010983
1830.1229,0.012005
1831.0547,0.012499
1831.9865,0.012163
1832.9184,0.011597
1833.8502,0.011522
1834.7821,0.011374
1835.7139,0.011034
1836.6457,0.010597
1837.5776,0.010431
1838.5094,0.010401
1839.4412,0.010434
1840.3731,0.011015
1841.3049,0.011415
1842.2367,0.010882
1843.1686,0.010535
1844.1004,0.010833
1845.0322,0.012307
1845.9641,0.012056
1846.8959,0.010361
1847.8277,0.009947
1848.7596,0.010235
1849.6914,0.010883
1850.6232,0.010685
1851.5551,0.010161
1852.4869,0.010289
1853.4187,0.010519
1854.3506,0.010327
1855.2824,0.010484
1856.2142,0.010476
1857.1461,0.010323
1858.0779,0.010539
1859.0097,0.010883
1859.9416,0.010783
1860.8734,0.010424
1861.8052,0.010485
1862.7371,0.010736
1863.6689,0.010659
1864.6008,0.010123
1865.5326,0.010227
1866.4644,0.010313
1867.3963,0.010444
1868.3281,0.010774
1869.2599,0.010679
1870.1918,0.010955
1871.1236,0.010177
1872.0554,0.009243
1872.9873,0.009947
1873.9191,0.010425
1874.8509,0.010459
1875.7828,0.010151
1876.7146,0.009454
1877.6464,0.009217
1878.5783,0.009865
1879.5101,0.009971
1880.4419,0.009898
1881.3738,0.010091
1882.3056,0.010679
1883.2374,0.010436
1884.1693,0.009422
1885.1011,0.008940
1886.0329,0.009475
1886.9648,0.010635
1887.8966,0.011219
1888.8284,0.010214
1889.7603,0.009616
1890.6921,0.010810
1891.6240,0.010959
1892.5558,0.009608
1893.4876,0.009837
1894.4195,0.010169
1895.3513,0.009305
1896.2831,0.009237
1897.2150,0.010125
1898.1468,0.010155
1899.0786,0.009835
1900.0105,0.009837
1900.9423,0.009309
1901.8741,0.008937
1902.8060,0.009940
1903.7378,0.010514
1904.6696,0.009719
1905.6015,0.009582
1906.5333,0.009845
1907.4651,0.009597
1908.3970,0.009115
1909.3288,0.009094
1910.2606,0.010418
1911.1925,0.011030
1912.1243,0.010058
1913.0561,0.009654
1913.9880,0.009552
1914.9198,0.009860
1915.8516,0.010088
1916.7835,0.009350
1917.7153,0.009607
1918.6472,0.010905
1919.5790,0.010461
1920.5108,0.009993
1921.4427,0.010758
1922.3745,0.010287
1923.3063,0.010312
1924.2382,0.010610
1925.1700,0.010485
1926.1018,0.010402
1927.0337,0.010108
1927.9655,0.009034
1928.8973,0.008500
1929.8292,0.009430
1930.7610,0.010199
1931.6928,0.008364
1932.6247,0.007109
1933.5565,0.009212
1934.4883,0.010517
1935.4202,0.010127
1936.3520,0.009181
1937.2838,0.007701
1938.2157,0.009249
1939.1475,0.010373
1940.0793,0.009098
1941.0112,0.009037
1941.9430,0.009670
1942.8748,0.009335
1943.8067,0.010847
1944.7385,0.012918
1945.6704,0.012609
1946.6022,0.009898
1947.5340,0.009081
1948.4659,0.009697
1949.3977,0.008341
1950.3295,0.007543
1951.2614,0.007326
1952.1932,0.007674
1953.1250,0.008460
1954.0569,0.009563
1954.9887,0.011713
1955.9205,0.012308
1956.8524,0.012191
1957.7842,0.009855
1958.7160,0.009324
1959.6479,0.009961
1960.5797,0.008795
1961.5115,0.009227
1962.4434,0.008995
1963.3752,0.008448
1964.3070,0.010268
1965.2389,0.007770
1966.1707,0.005701
1967.1025,0.007775
1968.0344,0.007463
1968.9662,0.007435
1969.8980,0.011178
1970.8299,0.011420
1971.7617,0.008732
1972.6936,0.006025
1973.6254,0.007504
1974.5572,0.009595
1975.4891,0.007960
1976.4209,0.007362
1977.3527,0.010940
1978.2846,0.010901
1979.2164,0.005779
1980.1482,0.001996
1981.0801,0.003719
1982.0119,0.007297
1982.9437,0.008661
1983.8756,0.007064
1984.8074,0.005296
1985.7392,0.006545
1986.6711,0.011384
1987.6029,0.013606
1988.5347,0.011094
1989.4666,0.010012
1990.3984,0.009557
1991.3302,0.006313
1992.2621,0.007625
1993.1939,0.010406
1994.1257,0.008639
1995.0576,0.007130
1995.9894,0.010178
1996.9212,0.010341
1997.8531,0.006583
1998.7849,0.007819
1999.7167,0.011837
2000.6486,0.011867
2001.5804,0.008392
2002.5123,0.004997
2003.4441,0.005622
2004.3759,0.007941
2005.3078,0.009399
2006.2396,0.009963
2007.1714,0.011260
2008.1033,0.011168
2009.0351,0.010440
2009.9669,0.008994
2010.8988,0.009332
2011.8306,0.009453
2012.7624,0.007251
2013.6943,0.008443
2014.6261,0.009659
2015.5579,0.009377
2016.4898,0.008796
2017.4216,0.008457
2018.3534,0.008614
2019.2853,0.011419
2020.2171,0.014217
2021.1489,0.011484
2022.0808,0.011036
2023.0126,0.010404
2023.9444,0.007028
2024.8763,0.006358
2025.8081,0.008144
2026.7399,0.008201
2027.6718,0.006349
2028.6036,0.005930
2029.5355,0.008774
2030.4673,0.008074
2031.3991,0.008490
2032.3310,0.009199
2033.2628,0.010303
2034.1946,0.013655
2035.1265,0.012749
2036.0583,0.010040
2036.9901,0.008591
2037.9220,0.008548
2038.8538,0.008049
2039.7856,0.008784
2040.7175,0.008650
2041.6493,0.009058
2042.5811,0.011176
2043.5130,0.014238
2044.4448,0.015141
2045.3766,0.014123
2046.3085,0.014384
2047.2403,0.012087
2048.1721,0.008742
2049.1040,0.009997
2050.0358,0.012691
2050.9676,0.013089
2051.8995,0.012335
2052.8313,0.010555
2053.7631,0.012186
2054.6950,0.013644
2055.6268,0.012481
2056.5587,0.011787
2057.4905,0.011481
2058.4223,0.011821
2059.3542,0.011456
2060.2860,0.011327
2061.2178,0.012647
2062.1497,0.014015
2063.0815,0.012819
2064.0133,0.012079
2064.9452,0.013756
2065.8770,0.013954
2066.8088,0.013502
2067.7407,0.012947
2068.6725,0.014782
2069.6043,0.014972
2070.5362,0.013137
2071.4680,0.012908
2072.3998,0.013558
2073.3317,0.012879
2074.2635,0.014968
2075.1953,0.016340
2076.1272,0.015800
2077.0590,0.014755
2077.9908,0.013114
2078.9227,0.013597
2079.8545,0.014692
2080.7863,0.015133
2081.7182,0.015938
2082.6500,0.015980
2083.5819,0.014680
2084.5137,0.014082
2085.4455,0.014886
2086.3774,0.015291
2087.3092,0.014878
2088.2410,0.013815
2089.1729,0.014530
2090.1047,0.016819
2091.0365,0.016290
2091.9684,0.016773
2092.9002,0.017663
2093.8320,0.016425
2094.7639,0.014778
2095.6957,0.014380
2096.6275,0.015156
2097.5594,0.015873
2098.4912,0.016296
2099.4230,0.015824
2100.3549,0.016607
2101.2867,0.015937
2102.2185,0.014492
2103.1504,0.014242
2104.0822,0.014776
2105.0140,0.014936
2105.9459,0.014767
2106.8777,0.016297
2107.8095,0.017144
2108.7414,0.016566
2109.6732,0.015514
2110.6051,0.015162
2111.5369,0.015998
2112.4687,0.016420
2113.4006,0.016058
2114.3324,0.015748
2115.2642,0.014499
2116.1961,0.014081
2117.1279,0.014261
2118.0597,0.016619
2118.9916,0.016796
2119.9234,0.015522
2120.8552,0.015420
2121.7871,0.015747
2122.7189,0.014664
2123.6507,0.014440
2124.5826,0.015688
2125.5144,0.016073
2126.4462,0.015934
2127.3781,0.015829
2128.3099,0.015548
2129.2417,0.014679
2130.1736,0.014876
2131.1054,0.015050
2132.0372,0.014220
2132.9691,0.014070
2133.9009,0.014539
2134.8327,0.014047
2135.7646,0.013795
2136.6964,0.013413
2137.6282,0.012987
2138.5601,0.014018
2139.4919,0.015707
2140.4238,0.014583
2141.3556,0.011193
2142.2874,0.010857
2143.2193,0.011919
2144.1511,0.011166
2145.0829,0.011185
2146.0148,0.014052
2146.9466,0.015996
2147.8784,0.013524
2148.8103,0.013598
2149.7421,0.012837
2150.6739,0.013802
2151.6058,0.016236
2152.5376,0.013919
2153.4694,0.012334
2154.4013,0.012403
2155.3331,0.009473
2156.2649,0.010254
2157.1968,0.012549
2158.1286,0.014020
2159.0604,0.013124
2159.9923,0.004970
2160.9241,0.001882
2161.8559,0.005845
2162.7878,0.008482
2163.7196,0.011550
2164.6514,0.010757
2165.5833,0.007095
2166.5151,0.008160
2167.4470,0.008197
2168.3788,0.005401
2169.3106,0.005170
2170.2425,0.006769
2171.1743,0.008099
2172.1061,0.012846
2173.0380,0.013145
2173.9698,0.012067
2174.9016,0.011940
2175.8335,0.009453
2176.7653,0.009227
2177.6971,0.010773
2178.6290,0.012665
2179.5608,0.014301
2180.4926,0.012361
2181.4245,0.010084
2182.3563,0.009980
2183.2881,0.011947
2184.2200,0.010800
2185.1518,0.009219
2186.0836,0.009711
2187.0155,0.011844
2187.9473,0.012982
2188.8791,0.012450
2189.8110,0.011443
2190.7428,0.011625
2191.6746,0.010613
2192.6065,0.010285
2193.5383,0.010108
2194.4702,0.011000
2195.4020,0.011448
2196.3338,0.010903
2197.2657,0.011390
2198.1975,0.014089
2199.1293,0.013222
2200.0612,0.012045
2200.9930,0.012017
2201.9248,0.011841
2202.8567,0.010435
2203.7885,0.008858
2204.7203,0.010781
2205.6522,0.013085
2206.5840,0.010840
2207.5158,0.009841
2208.4477,0.012119
2209.3795,0.013419
2210.3113,0.012663
2211.2432,0.011858
2212.1750,0.010260
2213.1068,0.008124
2214.0387,0.010176
2214.9705,0.012529
2215.9023,0.011865
2216.8342,0.010994
2217.7660,0.011887
2218.6978,0.012237
2219.6297,0.010933
2220.5615,0.011074
2221.4934,0.011470
2222.4252,0.011669
2223.3570,0.011497
2224.2889,0.011126
2225.2207,0.011838
2226.1525,0.012785
2227.0844,0.012188
2228.0162,0.011140
2228.9480,0.011916
2229.8799,0.013869
2230.8117,0.013671
2231.7435,0.013673
2232.6754,0.014163
2233.6072,0.013576
2234.5390,0.012276
2235.4709,0.011273
2236.4027,0.010808
2237.3345,0.010561
2238.2664,0.011300
2239.1982,0.011630
2240.1300,0.009463
2241.0619,0.009014
2241.9937,0.009108
2242.9255,0.009092
2243.8574,0.009744
2244.7892,0.011720
2245.7210,0.012655
2246.6529,0.009714
2247.5847,0.008901
2248.5166,0.011625
2249.4484,0.012490
2250.3802,0.011609
2251.3121,0.011197
2252.2439,0.010678
2253.1757,0.010209
2254.1076,0.011758
2255.0394,0.012078
2255.9712,0.011229
2256.9031,0.011710
2257.8349,0.012881
2258.7667,0.012907
2259.6986,0.011877
2260.6304,0.010898
2261.5622,0.010491
2262.4941,0.010151
2263.4259,0.010493
2264.3577,0.010465
2265.2896,0.010379
2266.2214,0.010563
2267.1532,0.010841
2268.0851,0.011985
2269.0169,0.013024
2269.9487,0.012113
2270.8806,0.011279
2271.8124,0.010770
2272.7442,0.011067
2273.6761,0.010385
2274.6079,0.009643
2275.5397,0.010642
2276.4716,0.012265
2277.4034,0.011752
2278.3353,0.010559
2279.2671,0.010687
2280.1989,0.011085
2281.1308,0.010951
2282.0626,0.010839
2282.9944,0.009982
2283.9263,0.010100
2284.8581,0.010729
2285.7899,0.011838
2286.7218,0.012247
2287.6536,0.011691
2288.5854,0.011099
2289.5173,0.010950
2290.4491,0.011019
2291.3809,0.010530
2292.3128,0.010680
2293.2446,0.011455
2294.1764,0.011391
2295.1083,0.011033
2296.0401,0.011150
2296.9719,0.011499
2297.9038,0.011161
2298.8356,0.010777
2299.7674,0.011604
2300.6993,0.011899
2301.6311,0.011361
2302.5629,0.011586
2303.4948,0.011752
2304.4266,0.011659
2305.3585,0.011087
2306.2903,0.010802
2307.2221,0.010733
2308.1540,0.011569
2309.0858,0.012027
2310.0176,0.011336
2310.9495,0.010832
2311.8813,0.011247
2312.8131,0.011966
2313.7450,0.011106
2314.6768,0.011192
2315.6086,0.011673
2316.5405,0.011382
2317.4723,0.011551
2318.4041,0.011329
2319.3360,0.010767
2320.2678,0.010335
2321.1996,0.011152
2322.1315,0.011328
2323.0633,0.011884
2323.9951,0.011921
2324.9270,0.012180
2325.8588,0.011208
2326.7906,0.010792
2327.7225,0.010563
2328.6543,0.011177
2329.5861,0.010861
2330.5180,0.010932
2331.4498,0.011603
2332.3817,0.011988
2333.3135,0.010813
2334.2453,0.010383
2335.1772,0.008938
2336.1090,0.008688
2337.0408,0.009627
2337.9727,0.009820
2338.9045,0.009552
2339.8363,0.010545
2340.7682,0.010094
2341.7000,0.009121
2342.6318,0.009415
2343.5637,0.010565
2344.4955,0.010119
2345.4273,0.009974
2346.3592,0.010512
2347.2910,0.010610
2348.2228,0.010148
2349.1547,0.010113
2350.0865,0.010076
2351.0183,0.009980
2351.9502,0.010096
2352.8820,0.010509
2353.8138,0.010133
2354.7457,0.009588
2355.6775,0.010091
2356.6093,0.011164
2357.5412,0.010477
2358.4730,0.009051
2359.4049,0.009487
2360.3367,0.010106
2361.2685,0.010239
2362.2004,0.011226
2363.1322,0.010474
2364.0640,0.009231
2364.9959,0.008518
2365.9277,0.008781
2366.8595,0.009040
2367.7914,0.009185
2368.7232,0.009350
2369.6550,0.009167
2370.5869,0.009276
2371.5187,0.009607
2372.4505,0.009338
2373.3824,0.009018
2374.3142,0.008579
2375.2460,0.008630
2376.1779,0.008616
2377.1097,0.008760
2378.0415,0.008826
2378.9734,0.008792
2379.9052,0.008937
2380.8370,0.009330
2381.7689,0.009492
2382.7007,0.009503
2383.6325,0.008917
2384.5644,0.008311
2385.4962,0.008443
2386.4281,0.008889
2387.3599,0.008937
2388.2917,0.009329
2389.2236,0.008947
2390.1554,0.008035
2391.0872,0.008474
2392.0191,0.009707
2392.9509,0.009583
2393.8827,0.008908
2394.8146,0.008740
2395.7464,0.008934
2396.6782,0.008946
2397.6101,0.008706
2398.5419,0.008061
2399.4737,0.008458
2400.4056,0.008971
2401.3374,0.008898
2402.2692,0.009184
2403.2011,0.009224
2404.1329,0.007867
2405.0647,0.007299
2405.9966,0.007842
2406.9284,0.008377
2407.8602,0.008745
2408.7921,0.008901
2409.7239,0.008608
2410.6557,0.008823
2411.5876,0.008929
2412.5194,0.008349
2413.4512,0.007898
2414.3831,0.007624
2415.3149,0.007755
2416.2468,0.008384
2417.1786,0.008560
2418.1104,0.009076
2419.0423,0.008838
2419.9741,0.008322
2420.9059,0.008109
2421.8378,0.008060
2422.7696,0.007878
2423.7014,0.008299
2424.6333,0.008321
2425.5651,0.007958
2426.4969,0.007708
2427.4288,0.007236
2428.3606,0.006959
2429.2924,0.007725
2430.2243,0.007546
2431.1561,0.006923
2432.0879,0.006530
2433.0198,0.006706
2433.9516,0.007381
2434.8834,0.007875
2435.8153,0.008024
2436.7471,0.008095
2437.6789,0.007654
2438.6108,0.007689
2439.5426,0.007651
2440.4744,0.007399
2441.4063,0.007351
2442.3381,0.007279
2443.2700,0.007075
2444.2018,0.007626
2445.1336,0.007903
2446.0655,0.007618
2446.9973,0.006599
2447.9291,0.006408
2448.8610,0.006906
2449.7928,0.006922
2450.7246,0.007206
2451.6565,0.008211
2452.5883,0.008145
2453.5201,0.007876
2454.4520,0.007394
2455.3838,0.006925
2456.3156,0.007648
2457.2475,0.007905
2458.1793,0.007639
2459.1111,0.007501
2460.0430,0.006899
2460.9748,0.006238
2461.9066,0.006081
2462.8385,0.007332
2463.7703,0.007892
2464.7021,0.007839
2465.6340,0.007709
2466.5658,0.006996
2467.4976,0.006664
2468.4295,0.007224
2469.3613,0.007272
2470.2932,0.007832
2471.2250,0.008267
2472.1568,0.007900
2473.0887,0.006847
2474.0205,0.006185
2474.9523,0.006014
2475.8842,0.006249
2476.8160,0.006262
2477.7478,0.006012
2478.6797,0.006562
2479.6115,0.007716
2480.5433,0.007695
2481.4752,0.006952
2482.4070,0.006378
2483.3388,0.006148
2484.2707,0.006520
2485.2025,0.006664
2486.1343,0.006615
2487.0662,0.006939
2487.9980,0.007085
2488.9298,0.007093
2489.8617,0.007294
2490.7935,0.007656
2491.7253,0.007332
2492.6572,0.006996
2493.5890,0.007992
2494.5208,0.008616
2495.4527,0.007655
2496.3845,0.006764
2497.3164,0.006622
2498.2482,0.006554
2499.1800,0.006114
2500.1119,0.005572
2501.0437,0.005827
2501.9755,0.006305
2502.9074,0.005947
2503.8392,0.005947
2504.7710,0.006113
2505.7029,0.006595
2506.6347,0.006994
2507.5665,0.007330
2508.4984,0.006989
2509.4302,0.006850
2510.3620,0.007015
2511.2939,0.006848
2512.2257,0.006793
2513.1575,0.006875
2514.0894,0.006211
2515.0212,0.006355
2515.9530,0.006447
2516.8849,0.006498
2517.8167,0.006686
2518.7485,0.006398
2519.6804,0.005969
2520.6122,0.005727
2521.5440,0.005821
2522.4759,0.006260
2523.4077,0.006560
2524.3396,0.006687
2525.2714,0.007076
2526.2032,0.007105
2527.1351,0.006132
2528.0669,0.006018
2528.9987,0.005580
2529.9306,0.005413
2530.8624,0.005462
2531.7942,0.005405
2532.7261,0.005615
2533.6579,0.005807
2534.5897,0.005690
2535.5216,0.006235
2536.4534,0.006578
2537.3852,0.006113
2538.3171,0.005252
2539.2489,0.005653
2540.1807,0.006850
2541.1126,0.007189
2542.0444,0.006825
2542.9762,0.006091
2543.9081,0.005167
2544.8399,0.005425
2545.7717,0.005653
2546.7036,0.006154
2547.6354,0.006767
2548.5672,0.006353
2549.4991,0.006361
2550.4309,0.006036
2551.3627,0.005101
2552.2946,0.005131
2553.2264,0.005947
2554.1583,0.005918
2555.0901,0.005879
2556.0219,0.006508
2556.9538,0.006490
2557.8856,0.005755
2558.8174,0.005678
2559.7493,0.006347
2560.6811,0.007085
2561.6129,0.006969
2562.5448,0.006149
2563.4766,0.005606
2564.4084,0.005942
2565.3403,0.006672
2566.2721,0.006575
2567.2039,0.006549
2568.1358,0.006278
2569.0676,0.006328
2569.9994,0.006990
2570.9313,0.007185
2571.8631,0.005629
2572.7949,0.004744
2573.7268,0.005444
2574.6586,0.006119
2575.5904,0.005908
2576.5223,0.006220
2577.4541,0.005970
2578.3859,0.005787
2579.3178,0.005695
2580.2496,0.005747
2581.1815,0.005993
2582.1133,0.006570
2583.0451,0.006148
2583.9770,0.005302
2584.9088,0.005265
2585.8406,0.006037
2586.7725,0.006226
2587.7043,0.005719
2588.6361,0.006436
2589.5680,0.006769
2590.4998,0.006045
2591.4316,0.006115
2592.3635,0.006255
2593.2953,0.006248
2594.2271,0.005986
2595.1590,0.005703
2596.0908,0.005884
2597.0226,0.006393
2597.9545,0.006552
2598.8863,0.006574
2599.8181,0.006116
2600.7500,0.005182
2601.6818,0.004488
2602.6136,0.004795
2603.5455,0.005971
2604.4773,0.006598
2605.4091,0.006103
2606.3410,0.005684
2607.2728,0.005615
2608.2047,0.005664
2609.1365,0.005906
2610.0683,0.006248
2611.0002,0.006362
2611.9320,0.005586
2612.8638,0.005298
2613.7957,0.005933
2614.7275,0.005917
2615.6593,0.005410
2616.5912,0.005286
2617.5230,0.005801
2618.4548,0.006005
2619.3867,0.006211
2620.3185,0.006471
2621.2503,0.006169
2622.1822,0.006043
2623.1140,0.006367
2624.0458,0.006631
2624.9777,0.006851
2625.9095,0.006535
2626.8413,0.006606
2627.7732,0.006421
2628.7050,0.006048
2629.6368,0.006348
2630.5687,0.006648
2631.5005,0.006577
2632.4323,0.006208
2633.3642,0.005451
2634.2960,0.005919
2635.2279,0.006512
2636.1597,0.006816
2637.0915,0.006414
2638.0234,0.006440
2638.9552,0.006507
2639.8870,0.006403
2640.8189,0.006500
2641.7507,0.006731
2642.6825,0.006802
2643.6144,0.006641
2644.5462,0.006836
2645.4780,0.006681
2646.4099,0.005835
2647.3417,0.005892
2648.2735,0.006202
2649.2054,0.006529
2650.1372,0.006676
2651.0690,0.007099
2652.0009,0.007131
2652.9327,0.006490
2653.8645,0.006276
2654.7964,0.006173
2655.7282,0.006456
2656.6600,0.007201
2657.5919,0.007245
2658.5237,0.007047
2659.4555,0.007158
2660.3874,0.006948
2661.3192,0.006657
2662.2511,0.006762
2663.1829,0.007038
2664.1147,0.006679
2665.0466,0.006639
2665.9784,0.006701
2666.9102,0.006811
2667.8421,0.006974
2668.7739,0.006997
2669.7057,0.006838
2670.6376,0.006889
2671.5694,0.007193
2672.5012,0.007278
2673.4331,0.007267
2674.3649,0.007509
2675.2967,0.007264
2676.2286,0.006911
2677.1604,0.006595
2678.0922,0.006353
2679.0241,0.006299
2679.9559,0.006487
2680.8877,0.007092
2681.8196,0.007223
2682.7514,0.007063
2683.6832,0.007623
2684.6151,0.007518
2685.5469,0.006918
2686.4787,0.006812
2687.4106,0.007026
2688.3424,0.007080
2689.2742,0.006924
2690.2061,0.007394
2691.1379,0.007943
2692.0698,0.007603
2693.0016,0.007119
2693.9334,0.007173
2694.8653,0.007525
2695.7971,0.007467
2696.7289,0.007236
2697.6608,0.007077
2698.5926,0.007244
2699.5244,0.007913
2700.4563,0.008209
2701.3881,0.007765
2702.3199,0.007481
2703.2518,0.007328
2704.1836,0.007324
2705.1154,0.007354
2706.0473,0.007399
2706.9791,0.007671
2707.9109,0.007690
2708.8428,0.007776
2709.7746,0.007821
2710.7064,0.007752
2711.6383,0.007740
2712.5701,0.007888
2713.5019,0.007881
2714.4338,0.007530
2715.3656,0.007621
2716.2974,0.007799
2717.2293,0.007635
2718.1611,0.007390
2719.0930,0.007263
2720.0248,0.007524
2720.9566,0.007880
2721.8885,0.008000
2722.8203,0.008298
2723.7521,0.008469
2724.6840,0.008245
2725.6158,0.007892
2726.5476,0.008061
2727.4795,0.007975
2728.4113,0.008010
2729.3431,0.008374
2730.2750,0.008303
2731.2068,0.008277
2732.1386,0.008414
2733.0705,0.008051
2734.0023,0.007938
2734.9341,0.008341
2735.8660,0.008569
2736.7978,0.008593
2737.7296,0.008990
2738.6615,0.008702
2739.5933,0.008057
2740.5251,0.007938
2741.4570,0.007944
2742.3888,0.008104
2743.3206,0.008404
2744.2525,0.008530
2745.1843,0.008833
2746.1162,0.008850
2747.0480,0.008975
2747.9798,0.008849
2748.9117,0.008932
2749.8435,0.009395
2750.7753,0.009505
2751.7072,0.009258
2752.6390,0.008962
2753.5708,0.009027
2754.5027,0.009256
2755.4345,0.008968
2756.3663,0.008808
2757.2982,0.008956
2758.2300,0.008849
2759.1618,0.008852
2760.0937,0.009136
2761.0255,0.008974
2761.9573,0.009015
2762.8892,0.009268
2763.8210,0.009528
2764.7528,0.009543
2765.6847,0.009029
2766.6165,0.009139
2767.5483,0.009631
2768.4802,0.009627
2769.4120,0.009861
2770.3438,0.009991
2771.2757,0.009787
2772.2075,0.009350
2773.1394,0.009342
2774.0712,0.010130
2775.0030,0.010437
2775.9349,0.010113
2776.8667,0.009905
2777.7985,0.009831
2778.7304,0.009993
2779.6622,0.010361
2780.5940,0.010449
2781.5259,0.010016
2782.4577,0.009879
2783.3895,0.010182
2784.3214,0.010297
2785.2532,0.010310
2786.1850,0.010264
2787.1169,0.010076
2788.0487,0.010487
2788.9805,0.010615
2789.9124,0.010156
2790.8442,0.010187
2791.7760,0.010680
2792.7079,0.010913
2793.6397,0.010886
2794.5715,0.011042
2795.5034,0.011268
2796.4352,0.011276
2797.3670,0.011375
2798.2989,0.011465
2799.2307,0.011376
2800.1626,0.011057
2801.0944,0.010767
2802.0262,0.010764
2802.9581,0.010823
2803.8899,0.011013
2804.8217,0.011545
2805.7536,0.011731
2806.6854,0.011842
2807.6172,0.012044
2808.5491,0.011876
2809.4809,0.011537
2810.4127,0.012173
2811.3446,0.012415
2812.2764,0.011826
2813.2082,0.012036
2814.1401,0.012764
2815.0719,0.012676
2816.0037,0.012262
2816.9356,0.011745
2817.8674,0.011790
2818.7992,0.012284
2819.7311,0.012862
2820.6629,0.012706
2821.5947,0.012520
2822.5266,0.012618
2823.4584,0.012773
2824.3902,0.013085
2825.3221,0.013240
2826.2539,0.013364
2827.1857,0.013728
2828.1176,0.013550
2829.0494,0.013333
2829.9813,0.013307
2830.9131,0.013362
2831.8449,0.013386
2832.7768,0.013632
2833.7086,0.013500
2834.6404,0.013364
2835.5723,0.013750
2836.5041,0.014342
2837.4359,0.014352
2838.3678,0.014290
2839.2996,0.014222
2840.2314,0.014594
2841.1633,0.014805
2842.0951,0.014642
2843.0269,0.014756
2843.9588,0.015092
2844.8906,0.014832
2845.8224,0.014710
2846.7543,0.014860
2847.6861,0.014747
2848.6179,0.014803
2849.5498,0.015168
2850.4816,0.015218
2851.4134,0.015380
2852.3453,0.015511
2853.2771,0.015568
2854.2089,0.015534
2855.1408,0.016002
2856.0726,0.016251
2857.0045,0.015887
2857.9363,0.015415
2858.8681,0.015559
2859.8000,0.015619
2860.7318,0.016031
2861.6636,0.016425
2862.5955,0.016717
2863.5273,0.017521
2864.4591,0.017956
2865.3910,0.017402
2866.3228,0.017397
2867.2546,0.017514
2868.1865,0.017304
2869.1183,0.017400
2870.0501,0.017650
2870.9820,0.017643
2871.9138,0.017770
2872.8456,0.017884
2873.7775,0.018289
2874.7093,0.018472
2875.6411,0.018603
2876.5730,0.019030
2877.5048,0.019473
2878.4366,0.019407
2879.3685,0.019084
2880.3003,0.018915
2881.2321,0.019163
2882.1640,0.019507
2883.0958,0.019460
2884.0277,0.019227
2884.9595,0.019961
2885.8913,0.020417
2886.8232,0.020621
2887.7550,0.020904
2888.6868,0.021157
2889.6187,0.020851
2890.5505,0.020540
2891.4823,0.020938
2892.4142,0.021584
2893.3460,0.021573
2894.2778,0.021847
2895.2097,0.022156
2896.1415,0.022163
2897.0733,0.022546
2898.0052,0.023039
2898.9370,0.022719
2899.8688,0.022907
2900.8007,0.023129
2901.7325,0.023133
2902.6643,0.023505
2903.5962,0.023450
2904.5280,0.023175
2905.4598,0.023711
2906.3917,0.024425
2907.3235,0.024975
2908.2553,0.025263
2909.1872,0.025476
2910.1190,0.024796
2911.0509,0.024039
2911.9827,0.024080
2912.9145,0.024678
2913.8464,0.024984
2914.7782,0.025130
2915.7100,0.025118
2916.6419,0.025521
2917.5737,0.025627
2918.5055,0.025570
2919.4374,0.025685
2920.3692,0.026025
2921.3010,0.025884
2922.2329,0.026024
2923.1647,0.026727
2924.0965,0.026834
2925.0284,0.026246
2925.9602,0.026521
2926.8920,0.027139
2927.8239,0.027909
2928.7557,0.028314
2929.6875,0.028385
2930.6194,0.028335
2931.5512,0.028629
2932.4830,0.029333
2933.4149,0.029809
2934.3467,0.029523
2935.2785,0.029483
2936.2104,0.029579
2937.1422,0.029485
2938.0741,0.029803
2939.0059,0.030949
2939.9377,0.031175
2940.8696,0.031043
2941.8014,0.031199
2942.7332,0.031981
2943.6651,0.032831
2944.5969,0.032836
2945.5287,0.032393
2946.4606,0.032706
2947.3924,0.032923
2948.3242,0.033490
2949.2561,0.034121
2950.1879,0.034270
2951.1197,0.034196
2952.0516,0.034137
2952.9834,0.034357
2953.9152,0.034935
2954.8471,0.035225
2955.7789,0.035632
2956.7107,0.036040
2957.6426,0.036248
2958.5744,0.036402
2959.5062,0.036733
2960.4381,0.037135
2961.3699,0.037333
2962.3017,0.037064
2963.2336,0.037436
2964.1654,0.038150
2965.0972,0.038490
2966.0291,0.038694
2966.9609,0.039428
2967.8928,0.039843
2968.8246,0.040046
2969.7564,0.040131
2970.6883,0.040564
2971.6201,0.041008
2972.5519,0.041418
2973.4838,0.041793
2974.4156,0.042127
2975.3474,0.042638
2976.2793,0.043736
2977.2111,0.044326
2978.1429,0.044430
2979.0748,0.045162
2980.0066,0.046160
2980.9384,0.046552
2981.8703,0.047099
2982.8021,0.047487
2983.7339,0.048063
2984.6658,0.048071
2985.5976,0.047958
2986.5294,0.048200
2987.4613,0.048055
2988.3931,0.048384
2989.3249,0.049254
2990.2568,0.049301
2991.1886,0.049357
2992.1204,0.049190
2993.0523,0.049007
2993.9841,0.049119
2994.9160,0.049559
2995.8478,0.050523
2996.7796,0.050997
2997.7115,0.051157
2998.6433,0.051918
2999.5751,0.051727
3000.5070,0.051005
3001.4388,0.051558
3002.3706,0.053261
3003.3025,0.053484
3004.2343,0.053006
3005.1661,0.053466
3006.0980,0.054666
3007.0298,0.054927
3007.9616,0.054530
3008.8935,0.054360
3009.8253,0.054655
3010.7571,0.055667
3011.6890,0.057235
3012.6208,0.057514
3013.5526,0.056885
3014.4845,0.057322
3015.4163,0.058801
3016.3481,0.059521
3017.2800,0.060007
3018.2118,0.060303
3019.1436,0.060569
3020.0755,0.061092
3021.0073,0.061527
3021.9392,0.061677
3022.8710,0.062078
3023.8028,0.062570
3024.7347,0.063137
3025.6665,0.063503
3026.5983,0.064094
3027.5302,0.064793
3028.4620,0.065566
3029.3938,0.065991
3030.3257,0.066589
3031.2575,0.067549
3032.1893,0.068516
3033.1212,0.068608
3034.0530,0.068899
3034.9848,0.069909
3035.9167,0.071174
3036.8485,0.071358
3037.7803,0.070785
3038.7122,0.071715
3039.6440,0.072810
3040.5758,0.072572
3041.5077,0.073351
3042.4395,0.074397
3043.3713,0.075275
3044.3032,0.076043
3045.2350,0.076528
3046.1668,0.077419
3047.0987,0.078501
3048.0305,0.078532
3048.9624,0.078923
3049.8942,0.079436
3050.8260,0.080604
3051.7579,0.081712
3052.6897,0.082101
3053.6215,0.082868
3054.5534,0.083972
3055.4852,0.084444
3056.4170,0.084464
3057.3489,0.085122
3058.2807,0.086418
3059.2125,0.087193
3060.1444,0.087499
3061.0762,0.088398
3062.0080,0.089719
3062.9399,0.090456
3063.8717,0.090861
3064.8035,0.091175
3065.7354,0.092130
3066.6672,0.093052
3067.5990,0.093750
3068.5309,0.095176
3069.4627,0.095695
3070.3945,0.096418
3071.3264,0.097773
3072.2582,0.097943
3073.1900,0.097914
3074.1219,0.097812
3075.0537,0.099015
3075.9856,0.101142
3076.9174,0.103087
3077.8492,0.103735
3078.7811,0.104268
3079.7129,0.104833
3080.6447,0.105637
3081.5766,0.106866
3082.5084,0.107668
3083.4402,0.108354
3084.3721,0.109885
3085.3039,0.111216
3086.2357,0.112081
3087.1676,0.112298
3088.0994,0.111777
3089.0312,0.112373
3089.9631,0.113901
3090.8949,0.115485
3091.8267,0.116678
3092.7586,0.117008
3093.6904,0.117629
3094.6222,0.118643
3095.5541,0.118977
3096.4859,0.119875
3097.4177,0.122217
3098.3496,0.123664
3099.2814,0.124117
3100.2132,0.125408
3101.1451,0.126390
3102.0769,0.126613
3103.0087,0.127184
3103.9406,0.128826
3104.8724,0.130468
3105.8043,0.131137
3106.7361,0.132229
3107.6679,0.133847
3108.5998,0.134459
3109.5316,0.135502
3110.4634,0.136518
3111.3953,0.137996
3112.3271,0.138984
3113.2589,0.140336
3114.1908,0.141387
3115.1226,0.142285
3116.0544,0.144026
3116.9863,0.145527
3117.9181,0.146791
3118.8499,0.146897
3119.7818,0.145995
3120.7136,0.146803
3121.6454,0.147976
3122.5773,0.149030
3123.5091,0.150343
3124.4409,0.152739
3125.3728,0.154752
3126.3046,0.156340
3127.2364,0.156656
3128.1683,0.157249
3129.1001,0.158268
3130.0319,0.159638
3130.9638,0.160619
3131.8956,0.162126
3132.8275,0.163871
3133.7593,0.165298
3134.6911,0.166836
3135.6230,0.167685
3136.5548,0.167931
3137.4866,0.170013
3138.4185,0.171972
3139.3503,0.172441
3140.2821,0.173061
3141.2140,0.174344
3142.1458,0.174658
3143.0776,0.175416
3144.0095,0.176965
3144.9413,0.177658
3145.8731,0.178947
3146.8050,0.180373
3147.7368,0.181128
3148.6686,0.182545
3149.6005,0.184607
3150.5323,0.185960
3151.4641,0.186464
3152.3960,0.188340
3153.3278,0.189479
3154.2596,0.190080
3155.1915,0.191244
3156.1233,0.192379
3157.0551,0.192330
3157.9870,0.193973
3158.9188,0.196257
3159.8507,0.198033
3160.7825,0.198667
3161.7143,0.200531
3162.6462,0.202234
3163.5780,0.202907
3164.5098,0.203124
3165.4417,0.204728
3166.3735,0.205451
3167.3053,0.206641
3168.2372,0.208335
3169.1690,0.208933
3170.1008,0.209722
3171.0327,0.212934
3171.9645,0.215102
3172.8963,0.216140
3173.8282,0.215821
3174.7600,0.216902
3175.6918,0.217671
3176.6237,0.218224
3177.5555,0.218349
3178.4873,0.219392
3179.4192,0.220744
3180.3510,0.221976
3181.2828,0.223394
3182.2147,0.224984
3183.1465,0.225605
3184.0783,0.226979
3185.0102,0.227775
3185.9420,0.229485
3186.8739,0.230452
3187.8057,0.231688
3188.7375,0.233278
3189.6694,0.234626
3190.6012,0.234726
3191.5330,0.235344
3192.4649,0.236859
3193.3967,0.238087
3194.3285,0.237992
3195.2604,0.239608
3196.1922,0.240864
3197.1240,0.241161
3198.0559,0.241437
3198.9877,0.243749
3199.9195,0.244561
3200.8514,0.245875
3201.7832,0.247103
3202.7150,0.249051
3203.6469,0.249423
3204.5787,0.249286
3205.5105,0.250427
3206.4424,0.252722
3207.3742,0.253639
3208.3060,0.253915
3209.2379,0.253500
3210.1697,0.253704
3211.1015,0.253546
3212.0334,0.254445
3212.9652,0.254899
3213.8971,0.256414
3214.8289,0.257139
3215.7607,0.258624
3216.6926,0.259310
3217.6244,0.259881
3218.5562,0.260935
3219.4881,0.262448
3220.4199,0.261174
3221.3517,0.260993
3222.2836,0.262569
3223.2154,0.263607
3224.1472,0.262553
3225.0791,0.263766
3226.0109,0.265469
3226.9427,0.266969
3227.8746,0.265969
3228.8064,0.266642
3229.7382,0.267207
3230.6701,0.267736
3231.6019,0.268348
3232.5337,0.269139
3233.4656,0.269213
3234.3974,0.270185
3235.3292,0.269776
3236.2611,0.270438
3237.1929,0.269534
3238.1247,0.269710
3239.0566,0.270707
3239.9884,0.272147
3240.9202,0.271834
3241.8521,0.271219
3242.7839,0.270838
3243.7158,0.272629
3244.6476,0.272373
3245.5794,0.272051
3246.5113,0.272861
3247.4431,0.273572
3248.3749,0.273477
3249.3068,0.273606
3250.2386,0.273569
3251.1704,0.272987
3252.1023,0.272687
3253.0341,0.275237
3253.9659,0.275726
3254.8978,0.276625
3255.8296,0.278523
3256.7614,0.278332
3257.6933,0.276336
3258.6251,0.275531
3259.5569,0.277125
3260.4888,0.278996
3261.4206,0.278145
3262.3524,0.277708
3263.2843,0.277315
3264.2161,0.277373
3265.1479,0.276564
3266.0798,0.277401
3267.0116,0.277325
3267.9434,0.276294
3268.8753,0.276876
3269.8071,0.277787
3270.7390,0.278141
3271.6708,0.279677
3272.6026,0.280776
3273.5345,0.281389
3274.4663,0.279199
3275.3981,0.277933
3276.3300,0.277097
3277.2618,0.277606
3278.1936,0.277757
3279.1255,0.278027
3280.0573,0.278179
3280.9891,0.279697
3281.9210,0.279165
3282.8528,0.278695
3283.7846,0.278135
3284.7165,0.277784
3285.6483,0.278156
3286.5801,0.279733
3287.5120,0.280377
3288.4438,0.279829
3289.3756,0.278278
3290.3075,0.279994
3291.2393,0.282259
3292.1711,0.283370
3293.1030,0.281239
3294.0348,0.280367
3294.9666,0.279897
3295.8985,0.279728
3296.8303,0.281016
3297.7622,0.282021
3298.6940,0.280295
3299.6258,0.279630
3300.5577,0.278563
3301.4895,0.279772
3302.4213,0.280117
3303.3532,0.280541
3304.2850,0.280742
3305.2168,0.282552
3306.1487,0.282532
3307.0805,0.281304
3308.0123,0.280656
3308.9442,0.281738
3309.8760,0.280129
3310.8078,0.278230
3311.7397,0.279958
3312.6715,0.281720
3313.6033,0.280535
3314.5352,0.280206
3315.4670,0.278992
3316.3988,0.280394
3317.3307,0.281101
3318.2625,0.280014
3319.1943,0.279829
3320.1262,0.281698
3321.0580,0.281533
3321.9898,0.281420
3322.9217,0.281992
3323.8535,0.283802
3324.7854,0.283404
3325.7172,0.284213
3326.6490,0.283804
3327.5809,0.282430
3328.5127,0.281781
3329.4445,0.282785
3330.3764,0.281670
3331.3082,0.280317
3332.2400,0.280097
3333.1719,0.281493
3334.1037,0.281489
3335.0355,0.283310
3335.9674,0.283859
3336.8992,0.282903
3337.8310,0.281696
3338.7629,0.283328
3339.6947,0.285773
3340.6265,0.285143
3341.5584,0.281561
3342.4902,0.281607
3343.4220,0.281301
3344.3539,0.281756
3345.2857,0.281437
3346.2175,0.281071
3347.1494,0.281157
3348.0812,0.281537
3349.0130,0.281820
3349.9449,0.281004
3350.8767,0.279251
3351.8086,0.281328
3352.7404,0.282008
3353.6722,0.282042
3354.6041,0.282335
3355.5359,0.282984
3356.4677,0.281542
3357.3996,0.281594
3358.3314,0.281880
3359.2632,0.281418
3360.1951,0.279823
3361.1269,0.280457
3362.0587,0.281892
3362.9906,0.281923
3363.9224,0.280823
3364.8542,0.280452
3365.7861,0.279819
3366.7179,0.280813
3367.6497,0.279823
3368.5816,0.278736
3369.5134,0.277976
3370.4452,0.277754
3371.3771,0.276298
3372.3089,0.276641
3373.2407,0.276039
3374.1726,0.275547
3375.1044,0.275412
3376.0362,0.275491
3376.9681,0.276763
3377.8999,0.277088
3378.8317,0.274447
3379.7636,0.274270
3380.6954,0.274377
3381.6273,0.273322
3382.5591,0.271442
3383.4909,0.270802
3384.4228,0.271405
3385.3546,0.273883
3386.2864,0.272899
3387.2183,0.270329
3388.1501,0.269289
3389.0819,0.270220
3390.0138,0.269917
3390.9456,0.269959
3391.8774,0.269697
3392.8093,0.270587
3393.7411,0.268144
3394.6729,0.265538
3395.6048,0.263259
3396.5366,0.261883
3397.4684,0.262679
3398.4003,0.265352
3399.3321,0.265880
3400.2639,0.264864
3401.1958,0.263345
3402.1276,0.263176
3403.0594,0.260783
3403.9913,0.258059
3404.9231,0.257432
3405.8549,0.257099
3406.7868,0.255253
3407.7186,0.254481
3408.6505,0.255107
3409.5823,0.256746
3410.5141,0.256088
3411.4460,0.255610
3412.3778,0.254328
3413.3096,0.252561
3414.2415,0.250115
3415.1733,0.249947
3416.1051,0.248081
3417.0370,0.245362
3417.9688,0.245669
3418.9006,0.248411
3419.8325,0.248082
3420.7643,0.247177
3421.6961,0.246639
3422.6280,0.246649
3423.5598,0.245825
3424.4916,0.244494
3425.4235,0.241192
3426.3553,0.240037
3427.2871,0.239644
3428.2190,0.238898
3429.1508,0.239037
3430.0826,0.239004
3431.0145,0.235506
3431.9463,0.233253
3432.8781,0.233576
3433.8100,0.234868
3434.7418,0.234455
3435.6737,0.233276
3436.6055,0.232153
3437.5373,0.231506
3438.4692,0.229334
3439.4010,0.228261
3440.3328,0.226550
3441.2647,0.223494
3442.1965,0.220505
3443.1283,0.221407
3444.0602,0.223045
3444.9920,0.223241
3445.9238,0.221616
3446.8557,0.219809
3447.7875,0.217814
3448.7193,0.216912
3449.6512,0.216295
3450.5830,0.216794
3451.5148,0.216505
3452.4467,0.216038
3453.3785,0.214814
3454.3103,0.214462
3455.2422,0.213413
3456.1740,0.212886
3457.1058,0.212147
3458.0377,0.209768
3458.9695,0.207990
3459.9013,0.209402
3460.8332,0.208482
3461.7650,0.205976
3462.6969,0.204799
3463.6287,0.203696
3464.5605,0.200871
3465.4924,0.200364
3466.4242,0.200618
3467.3560,0.201551
3468.2879,0.201360
3469.2197,0.198666
3470.1515,0.196769
3471.0834,0.197798
3472.0152,0.197098
3472.9470,0.193442
3473.8789,0.191322
3474.8107,0.192774
3475.7425,0.191119
3476.6744,0.189589
3477.6062,0.190442
3478.5380,0.189274
3479.4699,0.186707
3480.4017,0.189357
3481.3335,0.190460
3482.2654,0.187154
3483.1972,0.185110
3484.1290,0.185620
3485.0609,0.184013
3485.9927,0.182690
3486.9245,0.182502
3487.8564,0.181654
3488.7882,0.179486
3489.7201,0.178191
3490.6519,0.177623
3491.5837,0.176092
3492.5156,0.174313
3493.4474,0.175385
3494.3792,0.175391
3495.3111,0.172740
3496.2429,0.170789
3497.1747,0.170300
3498.1066,0.168079
3499.0384,0.167462
3499.9702,0.167695
3500.9021,0.166872
3501.8339,0.166393
3502.7657,0.165555
3503.6976,0.163378
3504.6294,0.164402
3505.5612,0.166216
3506.4931,0.164623
3507.4249,0.162432
3508.3567,0.161882
3509.2886,0.161747
3510.2204,0.163421
3511.1522,0.163821
3512.0841,0.160995
3513.0159,0.157180
3513.9477,0.155363
3514.8796,0.153558
3515.8114,0.151598
3516.7432,0.151697
3517.6751,0.153304
3518.6069,0.152822
3519.5388,0.150731
3520.4706,0.149587
3521.4024,0.149599
3522.3343,0.148177
3523.2661,0.148245
3524.1979,0.149717
3525.1298,0.148425
3526.0616,0.144239
3526.9934,0.142637
3527.9253,0.141114
3528.8571,0.140309
3529.7889,0.139676
3530.7208,0.139429
3531.6526,0.139942
3532.5844,0.138105
3533.5163,0.137328
3534.4481,0.137499
3535.3799,0.136571
3536.3118,0.135885
3537.2436,0.134345
3538.1754,0.131938
3539.1073,0.131426
3540.0391,0.132340
3540.9709,0.131154
3541.9028,0.130812
3542.8346,0.129837
3543.7664,0.127860
3544.6983,0.126378
3545.6301,0.125293
3546.5620,0.125879
3547.4938,0.126294
3548.4256,0.125360
3549.3575,0.123700
3550.2893,0.121630
3551.2211,0.120342
3552.1530,0.118740
3553.0848,0.117709
3554.0166,0.117276
3554.9485,0.117834
3555.8803,0.117909
3556.8121,0.115364
3557.7440,0.114653
3558.6758,0.114524
3559.6076,0.112563
3560.5395,0.113365
3561.4713,0.113018
3562.4031,0.112470
3563.3350,0.112038
3564.2668,0.111355
3565.1986,0.110971
3566.1305,0.110945
3567.0623,0.111809
3567.9941,0.112001
3568.9260,0.109849
3569.8578,0.108037
3570.7896,0.108562
3571.7215,0.107518
3572.6533,0.104748
3573.5852,0.102312
3574.5170,0.100108
3575.4488,0.099631
3576.3807,0.098911
3577.3125,0.098472
3578.2443,0.098556
3579.1762,0.097401
3580.1080,0.096396
3581.0398,0.097257
3581.9717,0.097195
3582.9035,0.096306
3583.8353,0.096425
3584.7672,0.094845
3585.6990,0.092199
3586.6308,0.092591
3587.5627,0.091888
3588.4945,0.091692
3589.4263,0.092872
3590.3582,0.094008
3591.2900,0.092706
3592.2218,0.090031
3593.1537,0.088212
3594.0855,0.087198
3595.0173,0.086827
3595.9492,0.085811
3596.8810,0.085576
3597.8128,0.087113
3598.7447,0.086490
3599.6765,0.083650
3600.6084,0.081860
3601.5402,0.081400
3602.4720,0.081189
3603.4039,0.080225
3604.3357,0.078329
3605.2675,0.077824
3606.1994,0.077595
3607.1312,0.077447
3608.0630,0.076990
3608.9949,0.076466
3609.9267,0.076484
3610.8585,0.075777
3611.7904,0.074885
3612.7222,0.075568
3613.6540,0.075530
3614.5859,0.073767
3615.5177,0.071844
3616.4495,0.072268
3617.3814,0.072107
3618.3132,0.071515
3619.2450,0.071472
3620.1769,0.070493
3621.1087,0.068477
3622.0405,0.068392
3622.9724,0.068088
3623.9042,0.066948
3624.8360,0.066572
3625.7679,0.065075
3626.6997,0.063572
3627.6316,0.063938
3628.5634,0.064708
3629.4952,0.064633
3630.4271,0.063461
3631.3589,0.061548
3632.2907,0.060730
3633.2226,0.059024
3634.1544,0.057420
3635.0862,0.056196
3636.0181,0.056459
3636.9499,0.056552
3637.8817,0.055850
3638.8136,0.055879
3639.7454,0.055040
3640.6772,0.053834
3641.6091,0.053581
3642.5409,0.053655
3643.4727,0.051555
3644.4046,0.050310
3645.3364,0.051686
3646.2682,0.051267
3647.2001,0.049945
3648.1319,0.049628
3649.0637,0.050281
3649.9956,0.050532
3650.9274,0.049365
3651.8592,0.048096
3652.7911,0.046133
3653.7229,0.043585
3654.6547,0.039918
3655.5866,0.039399
3656.5184,0.040327
3657.4503,0.039759
3658.3821,0.039814
3659.3139,0.040631
3660.2458,0.038608
3661.1776,0.036343
3662.1094,0.035420
3663.0413,0.035836
3663.9731,0.035113
3664.9049,0.033446
3665.8368,0.032634
3666.7686,0.033535
3667.7004,0.033197
3668.6323,0.032945
3669.5641,0.032843
3670.4959,0.032561
3671.4278,0.031790
3672.3596,0.030207
3673.2914,0.029230
3674.2233,0.027906
3675.1551,0.026454
3676.0869,0.026765
3677.0188,0.027149
3677.9506,0.026763
3678.8824,0.025451
3679.8143,0.024108
3680.7461,0.023234
3681.6779,0.022689
3682.6098,0.022307
3683.5416,0.021701
3684.4735,0.020833
3685.4053,0.020664
3686.3371,0.020897
3687.2690,0.020971
3688.2008,0.020281
3689.1326,0.020189
3690.0645,0.021100
3690.9963,0.019919
3691.9281,0.018282
3692.8600,0.017939
3693.7918,0.016877
3694.7236,0.015726
3695.6555,0.014582
3696.5873,0.015147
3697.5191,0.015808
3698.4510,0.015116
3699.3828,0.014813
3700.3146,0.014941
3701.2465,0.014227
3702.1783,0.014227
3703.1101,0.014074
3704.0420,0.012647
3704.9738,0.011817
3705.9056,0.012835
3706.8375,0.013194
3707.7693,0.012878
3708.7011,0.013073
3709.6330,0.013549
3710.5648,0.013039
3711.4967,0.013053
3712.4285,0.012799
3713.3603,0.012860
3714.2922,0.013536
3715.2240,0.012072
3716.1558,0.010392
3717.0877,0.010154
3718.0195,0.010191
3718.9513,0.010819
3719.8832,0.010615
3720.8150,0.010010
3721.7468,0.009783
3722.6787,0.009824
3723.6105,0.010636
3724.5423,0.011035
3725.4742,0.010453
3726.4060,0.010029
3727.3378,0.009602
3728.2697,0.009955
3729.2015,0.009273
3730.1333,0.008327
3731.0652,0.009338
3731.9970,0.010107
3732.9288,0.010362
3733.8607,0.010550
3734.7925,0.011357
3735.7243,0.012160
3736.6562,0.010699
3737.5880,0.009975
3738.5199,0.010795
3739.4517,0.009883
3740.3835,0.009525
3741.3154,0.008716
3742.2472,0.009049
3743.1790,0.010176
3744.1109,0.009736
3745.0427,0.008650
3745.9745,0.009648
3746.9064,0.011293
3747.8382,0.010827
3748.7700,0.008821
3749.7019,0.007419
3750.6337,0.007677
3751.5655,0.009010
3752.4974,0.010516
3753.4292,0.010892
3754.3610,0.009620
3755.2929,0.008547
3756.2247,0.007991
3757.1565,0.007339
3758.0884,0.007805
3759.0202,0.008031
3759.9520,0.008366
3760.8839,0.009172
3761.8157,0.009368
3762.7475,0.009047
3763.6794,0.008225
3764.6112,0.006788
3765.5431,0.006893
3766.4749,0.008011
3767.4067,0.008359
3768.3386,0.008847
3769.2704,0.008654
3770.2022,0.008308
3771.1341,0.008345
3772.0659,0.009174
3772.9977,0.009368
3773.9296,0.008440
3774.8614,0.006869
3775.7932,0.007105
3776.7251,0.007716
3777.6569,0.008225
3778.5887,0.007908
3779.5206,0.007719
3780.4524,0.007855
3781.3842,0.007958
3782.3161,0.007291
3783.2479,0.007144
3784.1797,0.007171
3785.1116,0.007628
3786.0434,0.007909
3786.9752,0.007527
3787.9071,0.008281
3788.8389,0.008272
3789.7707,0.006954
3790.7026,0.006740
3791.6344,0.006514
3792.5662,0.006833
3793.4981,0.007694
3794.4299,0.008140
3795.3618,0.007824
3796.2936,0.007949
3797.2254,0.008069
3798.1573,0.008535
3799.0891,0.008590
3800.0209,0.008853
3800.9528,0.008550
3801.8846,0.008674
3802.8164,0.009997
3803.7483,0.010582
3804.6801,0.009293
3805.6119,0.007740
3806.5438,0.006707
3807.4756,0.006304
3808.4074,0.006670
3809.3393,0.007439
3810.2711,0.007902
3811.2029,0.007824
3812.1348,0.006491
3813.0666,0.006418
3813.9984,0.006594
3814.9303,0.006887
3815.8621,0.007357
3816.7939,0.008597
3817.7258,0.008775
3818.6576,0.008279
3819.5894,0.008151
3820.5213,0.007172
3821.4531,0.007180
3822.3850,0.008940
3823.3168,0.008828
3824.2486,0.008001
3825.1805,0.006741
3826.1123,0.006700
3827.0441,0.006354
3827.9760,0.006900
3828.9078,0.006961
3829.8396,0.007226
3830.7715,0.007344
3831.7033,0.007025
3832.6351,0.007279
3833.5670,0.007944
3834.4988,0.007091
3835.4306,0.007150
3836.3625,0.006744
3837.2943,0.007200
3838.2261,0.007787
3839.1580,0.008573
3840.0898,0.008574
3841.0216,0.008976
3841.9535,0.008444
3842.8853,0.007267
3843.8171,0.006411
3844.7490,0.006766
3845.6808,0.006954
3846.6126,0.006715
3847.5445,0.006357
3848.4763,0.006514
3849.4082,0.006924
3850.3400,0.006804
3851.2718,0.006934
3852.2037,0.007893
3853.1355,0.008980
3854.0673,0.009862
3854.9992,0.010352
3855.9310,0.008792
3856.8628,0.006987
3857.7947,0.008296
3858.7265,0.006874
3859.6583,0.006742
3860.5902,0.007511
3861.5220,0.007495
3862.4538,0.007260
3863.3857,0.007975
3864.3175,0.007859
3865.2493,0.007921
3866.1812,0.007896
3867.1130,0.008039
3868.0448,0.008071
3868.9767,0.008003
3869.9085,0.007457
3870.8403,0.008126
3871.7722,0.008618
3872.7040,0.009096
3873.6358,0.008416
3874.5677,0.006524
3875.4995,0.006034
3876.4314,0.006871
3877.3632,0.007265
3878.2950,0.006250
3879.2269,0.005976
3880.1587,0.006930
3881.0905,0.006932
3882.0224,0.007686
3882.9542,0.007605
3883.8860,0.006792
3884.8179,0.006141
3885.7497,0.007449
3886.6815,0.008776
3887.6134,0.008645
3888.5452,0.007723
3889.4770,0.007166
3890.4089,0.006022
3891.3407,0.006789
3892.2725,0.007137
3893.2044,0.007146
3894.1362,0.008521
3895.0680,0.008665
3895.9999,0.007071
3896.9317,0.007993
3897.8635,0.007797
3898.7954,0.006879
3899.7272,0.006347
3900.6590,0.007009
3901.5909,0.008927
3902.5227,0.010569
3903.4546,0.008632
3904.3864,0.006765
3905.3182,0.006927
3906.2501,0.006920
3907.1819,0.007148
3908.1137,0.007232
3909.0456,0.006567
3909.9774,0.006455
3910.9092,0.006115
3911.8411,0.006766
3912.7729,0.006947
3913.7047,0.007152
3914.6366,0.007186
3915.5684,0.007406
3916.5002,0.007495
3917.4321,0.007698
3918.3639,0.007591
3919.2957,0.007968
3920.2276,0.007955
3921.1594,0.007822
3922.0912,0.007266
3923.0231,0.007667
3923.9549,0.007801
3924.8867,0.008070
3925.8186,0.008182
3926.7504,0.008010
3927.6822,0.007786
3928.6141,0.007969
3929.5459,0.006607
3930.4777,0.005712
3931.4096,0.005859
3932.3414,0.006779
3933.2733,0.007451
3934.2051,0.007754
3935.1369,0.007814
3936.0688,0.007317
3937.0006,0.005523
3937.9324,0.005680
3938.8643,0.006702
3939.7961,0.007065
3940.7279,0.007185
3941.6598,0.007595
3942.5916,0.007138
3943.5234,0.007583
3944.4553,0.007879
3945.3871,0.007879
3946.3189,0.008196
3947.2508,0.008354
3948.1826,0.007971
3949.1144,0.008316
3950.0463,0.008179
3950.9781,0.007558
3951.9099,0.007095
3952.8418,0.007804
3953.7736,0.007574
3954.7054,0.006793
3955.6373,0.006552
3956.5691,0.006993
3957.5009,0.007003
3958.4328,0.007154
3959.3646,0.006984
3960.2965,0.007042
3961.2283,0.007189
3962.1601,0.007503
3963.0920,0.007242
3964.0238,0.006773
3964.9556,0.006591
3965.8875,0.007323
3966.8193,0.007402
3967.7511,0.006958
3968.6830,0.006837
3969.6148,0.007640
3970.5466,0.007273
3971.4785,0.007492
3972.4103,0.007593
3973.3421,0.007058
3974.2740,0.006617
3975.2058,0.006931
3976.1376,0.006625
3977.0695,0.006494
3978.0013,0.006570
3978.9331,0.006183
3979.8650,0.006066
3980.7968,0.006695
3981.7286,0.006477
3982.6605,0.007072
3983.5923,0.007421
3984.5241,0.007598
3985.4560,0.007288
3986.3878,0.007208
3987.3197,0.007129
3988.2515,0.007027
3989.1833,0.006925
3990.1152,0.007295
3991.0470,0.007051
3991.9788,0.007034
3992.9107,0.006860
3993.8425,0.007761
3994.7743,0.008608
3995.7062,0.008592
3996.6380,0.007188
3997.5698,0.006472
3998.5017,0.006170
3999.4335,0.006409
4000.3653,0.006555
