Wavenumber,Intensity
650.4205,0.366414
651.3523,0.370205
652.2841,0.365095
653.2160,0.374435
654.1478,0.375661
655.0796,0.368760
656.0115,0.366571
656.9433,0.368497
657.8751,0.367909
658.8070,0.358310
659.7388,0.350133
660.6706,0.352123
661.6025,0.350548
662.5343,0.354124
663.4661,0.360541
664.3980,0.361303
665.3298,0.354105
666.2616,0.344088
667.1935,0.338002
668.1253,0.342409
669.0571,0.345593
669.9890,0.344399
670.9208,0.346322
671.8526,0.343774
672.7845,0.339022
673.7163,0.342185
674.6481,0.343287
675.5800,0.339799
676.5118,0.336261
677.4437,0.335974
678.3755,0.339286
679.3073,0.338434
680.2392,0.334506
681.1710,0.336967
682.1028,0.339993
683.0347,0.339121
683.9665,0.333411
684.8983,0.329492
685.8302,0.325407
686.7620,0.329892
687.6938,0.332462
688.6257,0.326614
689.5575,0.322292
690.4893,0.322933
691.4212,0.323549
692.3530,0.324372
693.2848,0.323257
694.2167,0.317711
695.1485,0.314023
696.0803,0.316057
697.0122,0.317262
697.9440,0.313680
698.8758,0.309595
699.8077,0.308656
700.7395,0.307283
701.6713,0.308843
702.6032,0.307913
703.5350,0.305737
704.4669,0.303006
705.3987,0.301624
706.3305,0.304992
707.2624,0.306001
708.1942,0.303139
709.1260,0.297975
710.0579,0.291928
710.9897,0.292326
711.9215,0.293936
712.8534,0.294570
713.7852,0.293519
714.7170,0.291932
715.6489,0.288361
716.5807,0.287724
717.5125,0.287959
718.4444,0.290159
719.3762,0.289435
720.3080,0.284639
721.2399,0.282528
722.1717,0.282874
723.1035,0.280859
724.0354,0.280618
724.9672,0.279126
725.8990,0.273792
726.8309,0.270072
727.7627,0.270599
728.6945,0.272892
729.6264,0.273537
730.5582,0.269355
731.4901,0.267522
732.4219,0.268138
733.3537,0.267569
734.2856,0.264276
735.2174,0.261538
736.1492,0.260776
737.0811,0.260350
738.0129,0.258401
738.9447,0.256118
739.8766,0.255238
740.8084,0.256416
741.7402,0.257715
742.6721,0.256812
743.6039,0.253899
744.5357,0.253527
745.4676,0.252532
746.3994,0.248604
747.3312,0.245792
748.2631,0.244529
749.1949,0.243370
750.1267,0.241925
751.0586,0.239627
751.9904,0.239995
752.9222,0.239529
753.8541,0.236838
754.7859,0.235781
755.7177,0.235359
756.6496,0.232623
757.5814,0.232440
758.5132,0.233355
759.4451,0.231773
760.3769,0.230506
761.3088,0.231732
762.2406,0.230083
763.1724,0.225920
764.1043,0.223375
765.0361,0.223012
765.9679,0.221504
766.8998,0.219769
767.8316,0.219244
768.7634,0.219454
769.6953,0.218321
770.6271,0.217194
771.5589,0.215580
772.4908,0.214727
773.4226,0.215163
774.3544,0.213804
775.2863,0.211373
776.2181,0.209715
777.1499,0.209324
778.0818,0.207989
779.0136,0.205275
779.9454,0.204177
780.8773,0.204819
781.8091,0.203152
782.7409,0.200085
783.6728,0.199705
784.6046,0.199246
785.5364,0.197292
786.4683,0.195721
787.4001,0.194994
788.3320,0.194285
789.2638,0.193749
790.1956,0.192183
791.1275,0.190965
792.0593,0.189202
792.9911,0.188392
793.9230,0.186912
794.8548,0.184290
795.7866,0.184262
796.7185,0.185051
797.6503,0.182853
798.5821,0.181860
799.5140,0.181409
800.4458,0.180595
801.3776,0.179207
802.3095,0.178167
803.2413,0.176948
804.1731,0.176427
805.1050,0.175509
806.0368,0.173869
806.9686,0.172352
807.9005,0.170883
808.8323,0.169261
809.7641,0.168412
810.6960,0.167793
811.6278,0.166453
812.5596,0.164283
813.4915,0.162261
814.4233,0.161682
815.3552,0.160336
816.2870,0.157597
817.2188,0.156891
818.1507,0.156767
819.0825,0.155724
820.0143,0.155119
820.9462,0.153889
821.8780,0.152535
822.8098,0.151515
823.7417,0.149923
824.6735,0.147895
825.6053,0.146346
826.5372,0.145586
827.4690,0.144738
828.4008,0.144463
829.3327,0.142940
830.2645,0.142349
831.1963,0.142233
832.1282,0.141450
833.0600,0.140108
833.9918,0.138596
834.9237,0.137536
835.8555,0.136602
836.7873,0.135514
837.7192,0.134674
838.6510,0.133604
839.5828,0.132711
840.5147,0.131685
841.4465,0.131219
842.3784,0.131005
843.3102,0.130016
844.2420,0.128533
845.1739,0.127806
846.1057,0.127388
847.0375,0.126463
847.9694,0.124633
848.9012,0.123081
849.8330,0.123176
850.7649,0.123096
851.6967,0.121737
852.6285,0.121092
853.5604,0.120744
854.4922,0.120130
855.4240,0.119846
856.3559,0.119358
857.2877,0.118311
858.2195,0.118227
859.1514,0.118020
860.0832,0.117525
861.0150,0.117093
861.9469,0.117351
862.8787,0.118577
863.8105,0.119080
864.7424,0.118977
865.6742,0.119618
866.6060,0.120822
867.5379,0.122961
868.4697,0.125301
869.4016,0.127915
870.3334,0.130574
871.2652,0.133848
872.1971,0.138864
873.1289,0.144462
874.0607,0.149775
874.9926,0.154987
875.9244,0.160303
876.8562,0.164548
877.7881,0.166102
878.7199,0.165729
879.6517,0.162769
880.5836,0.157277
881.5154,0.150077
882.4472,0.142142
883.3791,0.134167
884.3109,0.126994
885.2427,0.120330
886.1746,0.114214
887.1064,0.108746
888.0382,0.104063
888.9701,0.100035
889.9019,0.096532
890.8337,0.093751
891.7656,0.091524
892.6974,0.089287
893.6292,0.087607
894.5611,0.086369
895.4929,0.085120
896.4247,0.084168
897.3566,0.083006
898.2884,0.081444
899.2203,0.080117
900.1521,0.079325
901.0839,0.078813
902.0158,0.078022
902.9476,0.076891
903.8794,0.076321
904.8113,0.075945
905.7431,0.074783
906.6749,0.074312
907.6068,0.074116
908.5386,0.073611
909.4704,0.073081
910.4023,0.072411
911.3341,0.071722
912.2659,0.071355
913.1978,0.070956
914.1296,0.070190
915.0614,0.069776
915.9933,0.069445
916.9251,0.068749
917.8569,0.067919
918.7888,0.067502
919.7206,0.067769
920.6524,0.067466
921.5843,0.066914
922.5161,0.066616
923.4479,0.066140
924.3798,0.065339
925.3116,0.064908
926.2435,0.064397
927.1753,0.064117
928.1071,0.063987
929.0390,0.063730
929.9708,0.063406
930.9026,0.062829
931.8345,0.062488
932.7663,0.062371
933.6981,0.061658
934.6300,0.060907
935.5618,0.060824
936.4936,0.060738
937.4255,0.060291
938.3573,0.060086
939.2891,0.059747
940.2210,0.059559
941.1528,0.059543
942.0846,0.059434
943.0165,0.058944
943.9483,0.058645
944.8801,0.058534
945.8120,0.058219
946.7438,0.057872
947.6756,0.057509
948.6075,0.057666
949.5393,0.057530
950.4711,0.057152
951.4030,0.056968
952.3348,0.056502
953.2667,0.056000
954.1985,0.056127
955.1303,0.056130
956.0622,0.055793
956.9940,0.055719
957.9258,0.055751
958.8577,0.055638
959.7895,0.055534
960.7213,0.055109
961.6532,0.054635
962.5850,0.054750
963.5168,0.054673
964.4487,0.054391
965.3805,0.054256
966.3123,0.054203
967.2442,0.053839
968.1760,0.053711
969.1078,0.053644
970.0397,0.053539
970.9715,0.053662
971.9033,0.053588
972.8352,0.053454
973.7670,0.053162
974.6988,0.053351
975.6307,0.053728
976.5625,0.053833
977.4943,0.053598
978.4262,0.052976
979.3580,0.052916
980.2899,0.053206
981.2217,0.053026
982.1535,0.052872
983.0854,0.053078
984.0172,0.053276
984.9490,0.053571
985.8809,0.053481
986.8127,0.053280
987.7445,0.053266
988.6764,0.053235
989.6082,0.053058
990.5400,0.053337
991.4719,0.053505
992.4037,0.053517
993.3355,0.053649
994.2674,0.053863
995.1992,0.053971
996.1310,0.054038
997.0629,0.054247
997.9947,0.054477
998.9265,0.054674
999.8584,0.055127
1000.7902,0.055259
1001.7220,0.055205
1002.6539,0.055560
1003.5857,0.056207
1004.5175,0.056809
1005.4494,0.056785
1006.3812,0.057103
1007.3131,0.057785
1008.2449,0.058325
1009.1767,0.058595
1010.1086,0.059032
1011.0404,0.059822
1011.9722,0.060639
1012.9041,0.061348
1013.8359,0.062062
1014.7677,0.063028
1015.6996,0.063923
1016.6314,0.064796
1017.5632,0.066021
1018.4951,0.067514
1019.4269,0.068918
1020.3587,0.070506
1021.2906,0.072491
1022.2224,0.074788
1023.1542,0.077073
1024.0861,0.079283
1025.0179,0.081883
1025.9497,0.085007
1026.8816,0.088328
1027.8134,0.092240
1028.7452,0.096712
1029.6771,0.101391
1030.6089,0.106743
1031.5407,0.113335
1032.4726,0.121130
1033.4044,0.129786
1034.3362,0.139839
1035.2681,0.151196
1036.1999,0.163642
1037.1318,0.177457
1038.0636,0.192645
1038.9954,0.208652
1039.9273,0.224407
1040.8591,0.239077
1041.7909,0.252125
1042.7228,0.261660
1043.6546,0.267262
1044.5864,0.268398
1045.5183,0.263901
1046.4501,0.255188
1047.3819,0.243242
1048.3138,0.228628
1049.2456,0.212642
1050.1774,0.195741
1051.1093,0.178969
1052.0411,0.163131
1052.9729,0.148322
1053.9048,0.134525
1054.8366,0.122069
1055.7684,0.111262
1056.7003,0.102441
1057.6321,0.095139
1058.5639,0.089204
1059.4958,0.084469
1060.4276,0.080547
1061.3594,0.077518
1062.2913,0.075395
1063.2231,0.073969
1064.1550,0.073008
1065.0868,0.072172
1066.0186,0.071770
1066.9505,0.072077
1067.8823,0.072685
1068.8141,0.073579
1069.7460,0.074606
1070.6778,0.075708
1071.6096,0.077244
1072.5415,0.079211
1073.4733,0.081504
1074.4051,0.084146
1075.3370,0.086938
1076.2688,0.089839
1077.2006,0.092639
1078.1325,0.095497
1079.0643,0.098987
1079.9961,0.102481
1080.9280,0.105671
1081.8598,0.108602
1082.7916,0.110786
1083.7235,0.112639
1084.6553,0.114091
1085.5871,0.114422
1086.5190,0.113942
1087.4508,0.112263
1088.3826,0.109948
1089.3145,0.107051
1090.2463,0.103422
1091.1782,0.099150
1092.1100,0.094280
1093.0418,0.089389
1093.9737,0.084595
1094.9055,0.079999
1095.8373,0.075734
1096.7692,0.071919
1097.7010,0.068385
1098.6328,0.064961
1099.5647,0.061922
1100.4965,0.059536
1101.4283,0.057595
1102.3602,0.055893
1103.2920,0.054076
1104.2238,0.052428
1105.1557,0.051291
1106.0875,0.050591
1107.0193,0.049545
1107.9512,0.048283
1108.8830,0.047485
1109.8148,0.046986
1110.7467,0.046764
1111.6785,0.046357
1112.6103,0.045977
1113.5422,0.045768
1114.4740,0.045450
1115.4058,0.044968
1116.3377,0.044731
1117.2695,0.044713
1118.2014,0.044768
1119.1332,0.044805
1120.0650,0.044501
1120.9969,0.044280
1121.9287,0.044484
1122.8605,0.044528
1123.7924,0.044419
1124.7242,0.044272
1125.6560,0.044264
1126.5879,0.044133
1127.5197,0.043978
1128.4515,0.043876
1129.3834,0.043934
1130.3152,0.043857
1131.2470,0.043824
1132.1789,0.043713
1133.1107,0.043544
1134.0425,0.043268
1134.9744,0.042966
1135.9062,0.042830
1136.8380,0.042768
1137.7699,0.042539
1138.7017,0.042540
1139.6335,0.042380
1140.5654,0.042231
1141.4972,0.042228
1142.4290,0.042150
1143.3609,0.041962
1144.2927,0.041780
1145.2246,0.041844
1146.1564,0.041931
1147.0882,0.041610
1148.0201,0.041475
1148.9519,0.041489
1149.8837,0.041589
1150.8156,0.041822
1151.7474,0.041858
1152.6792,0.041647
1153.6111,0.041524
1154.5429,0.041421
1155.4747,0.041460
1156.4066,0.041701
1157.3384,0.041357
1158.2702,0.040848
1159.2021,0.040999
1160.1339,0.040951
1161.0657,0.040633
1161.9976,0.040367
1162.9294,0.040251
1163.8612,0.040102
1164.7931,0.039807
1165.7249,0.039699
1166.6567,0.039436
1167.5886,0.039375
1168.5204,0.039543
1169.4522,0.039444
1170.3841,0.039108
1171.3159,0.038792
1172.2477,0.038764
1173.1796,0.038792
1174.1114,0.038836
1175.0433,0.038710
1175.9751,0.038428
1176.9069,0.038541
1177.8388,0.038760
1178.7706,0.038450
1179.7024,0.038371
1180.6343,0.038611
1181.5661,0.038672
1182.4979,0.038673
1183.4298,0.038634
1184.3616,0.038474
1185.2934,0.038453
1186.2253,0.038335
1187.1571,0.038296
1188.0889,0.038443
1189.0208,0.038545
1189.9526,0.038748
1190.8844,0.038862
1191.8163,0.038813
1192.7481,0.038813
1193.6799,0.038753
1194.6118,0.038526
1195.5436,0.038461
1196.4754,0.038707
1197.4073,0.038795
1198.3391,0.038445
1199.2709,0.038504
1200.2028,0.038915
1201.1346,0.038928
1202.0665,0.038796
1202.9983,0.038968
1203.9301,0.038804
1204.8620,0.038575
1205.7938,0.038512
1206.7256,0.038649
1207.6575,0.038852
1208.5893,0.039116
1209.5211,0.039362
1210.4530,0.039367
1211.3848,0.039356
1212.3166,0.039360
1213.2485,0.039249
1214.1803,0.039236
1215.1121,0.039462
1216.0440,0.039401
1216.9758,0.039289
1217.9076,0.039224
1218.8395,0.039061
1219.7713,0.039349
1220.7031,0.039479
1221.6350,0.039504
1222.5668,0.039806
1223.4986,0.039891
1224.4305,0.039890
1225.3623,0.039953
1226.2941,0.040040
1227.2260,0.040114
1228.1578,0.040236
1229.0897,0.040393
1230.0215,0.040459
1230.9533,0.040406
1231.8852,0.040319
1232.8170,0.040358
1233.7488,0.040296
1234.6807,0.040342
1235.6125,0.040692
1236.5443,0.040894
1237.4762,0.040754
1238.4080,0.040821
1239.3398,0.040935
1240.2717,0.041306
1241.2035,0.041547
1242.1353,0.041409
1243.0672,0.041529
1243.9990,0.041935
1244.9308,0.042100
1245.8627,0.042189
1246.7945,0.042327
1247.7263,0.042348
1248.6582,0.042461
1249.5900,0.043097
1250.5218,0.043636
1251.4537,0.043749
1252.3855,0.043544
1253.3173,0.043501
1254.2492,0.043878
1255.1810,0.044388
1256.1129,0.044666
1257.0447,0.045049
1257.9765,0.045471
1258.9084,0.045745
1259.8402,0.046071
1260.7720,0.046437
1261.7039,0.047104
1262.6357,0.047636
1263.5675,0.048091
1264.4994,0.048705
1265.4312,0.049397
1266.3630,0.049776
1267.2949,0.050109
1268.2267,0.050800
1269.1585,0.051648
1270.0904,0.052292
1271.0222,0.052682
1271.9540,0.053094
1272.8859,0.053495
1273.8177,0.053523
1274.7495,0.053696
1275.6814,0.053855
1276.6132,0.053794
1277.5450,0.053462
1278.4769,0.052727
1279.4087,0.051951
1280.3405,0.051617
1281.2724,0.051393
1282.2042,0.050976
1283.1361,0.050502
1284.0679,0.050116
1284.9997,0.049851
1285.9316,0.049771
1286.8634,0.049404
1287.7952,0.049146
1288.7271,0.049210
1289.6589,0.049348
1290.5907,0.049341
1291.5226,0.049356
1292.4544,0.049521
1293.3862,0.049721
1294.3181,0.049788
1295.2499,0.049911
1296.1817,0.050100
1297.1136,0.050105
1298.0454,0.050311
1298.9772,0.050645
1299.9091,0.050685
1300.8409,0.050882
1301.7727,0.051346
1302.7046,0.051752
1303.6364,0.052149
1304.5682,0.052396
1305.5001,0.052662
1306.4319,0.053022
1307.3637,0.053288
1308.2956,0.053361
1309.2274,0.053669
1310.1592,0.053797
1311.0911,0.053937
1312.0229,0.054435
1312.9548,0.054743
1313.8866,0.055011
1314.8184,0.055329
1315.7503,0.055494
1316.6821,0.055587
1317.6139,0.055995
1318.5458,0.056104
1319.4776,0.056238
1320.4094,0.056528
1321.3413,0.056359
1322.2731,0.056319
1323.2049,0.056367
1324.1368,0.056627
1325.0686,0.056809
1326.0004,0.056648
1326.9323,0.056645
1327.8641,0.056512
1328.7959,0.056320
1329.7278,0.056302
1330.6596,0.056197
1331.5914,0.056015
1332.5233,0.055775
1333.4551,0.055564
1334.3869,0.055109
1335.3188,0.054588
1336.2506,0.054359
1337.1824,0.053990
1338.1143,0.053561
1339.0461,0.053759
1339.9780,0.054139
1340.9098,0.053978
1341.8416,0.053349
1342.7735,0.052646
1343.7053,0.052304
1344.6371,0.052005
1345.5690,0.051584
1346.5008,0.051131
1347.4326,0.050738
1348.3645,0.050472
1349.2963,0.050370
1350.2281,0.049951
1351.1600,0.049439
1352.0918,0.049410
1353.0236,0.049429
1353.9555,0.049199
1354.8873,0.049148
1355.8191,0.049329
1356.7510,0.049210
1357.6828,0.049132
1358.6146,0.049022
1359.5465,0.048763
1360.4783,0.048888
1361.4101,0.049531
1362.3420,0.050304
1363.2738,0.050792
1364.2056,0.051232
1365.1375,0.050549
1366.0693,0.050402
1367.0012,0.051057
1367.9330,0.051779
1368.8648,0.052706
1369.7967,0.053825
1370.7285,0.054230
1371.6603,0.054684
1372.5922,0.056005
1373.5240,0.057776
1374.4558,0.059989
1375.3877,0.061829
1376.3195,0.062605
1377.2513,0.063132
1378.1832,0.063753
1379.1150,0.064583
1380.0468,0.065244
1380.9787,0.065903
1381.9105,0.066341
1382.8423,0.066524
1383.7742,0.066577
1384.7060,0.066675
1385.6378,0.066496
1386.5697,0.066523
1387.5015,0.067351
1388.4333,0.067899
1389.3652,0.066439
1390.2970,0.064854
1391.2288,0.064159
1392.1607,0.063764
1393.0925,0.063156
1394.0244,0.062707
1394.9562,0.062981
1395.8880,0.063690
1396.8199,0.063516
1397.7517,0.062612
1398.6835,0.062784
1399.6154,0.064129
1400.5472,0.064389
1401.4790,0.063404
1402.4109,0.063039
1403.3427,0.063138
1404.2745,0.063490
1405.2064,0.064181
1406.1382,0.065160
1407.0700,0.065109
1408.0019,0.064598
1408.9337,0.064527
1409.8655,0.064769
1410.7974,0.065136
1411.7292,0.065326
1412.6610,0.065473
1413.5929,0.065283
1414.5247,0.064829
1415.4565,0.064641
1416.3884,0.064486
1417.3202,0.064357
1418.2520,0.064546
1419.1839,0.064864
1420.1157,0.066212
1421.0476,0.066048
1421.9794,0.064299
1422.9112,0.063696
1423.8431,0.063604
1424.7749,0.063842
1425.7067,0.062966
1426.6386,0.061876
1427.5704,0.061443
1428.5022,0.061418
1429.4341,0.060954
1430.3659,0.060669
1431.2977,0.060418
1432.2296,0.059118
1433.1614,0.058300
1434.0932,0.057973
1435.0251,0.057292
1435.9569,0.056735
1436.8887,0.057858
1437.8206,0.059355
1438.7524,0.057748
1439.6842,0.056436
1440.6161,0.056208
1441.5479,0.056126
1442.4797,0.055955
1443.4116,0.056301
1444.3434,0.056987
1445.2752,0.057232
1446.2071,0.057776
1447.1389,0.058782
1448.0707,0.059973
1449.0026,0.061384
1449.9344,0.061809
1450.8663,0.061711
1451.7981,0.061773
1452.7299,0.061958
1453.6618,0.061649
1454.5936,0.060755
1455.5254,0.060499
1456.4573,0.060884
1457.3891,0.062714
1458.3209,0.062189
1459.2528,0.059365
1460.1846,0.056657
1461.1164,0.053880
1462.0483,0.051984
1462.9801,0.050162
1463.9119,0.049118
1464.8438,0.049422
1465.7756,0.049603
1466.7074,0.047935
1467.6393,0.046406
1468.5711,0.045605
1469.5029,0.044951
1470.4348,0.044448
1471.3666,0.043864
1472.2984,0.044575
1473.2303,0.046002
1474.1621,0.045752
1475.0939,0.044672
1476.0258,0.043929
1476.9576,0.044558
1477.8895,0.044604
1478.8213,0.044241
1479.7531,0.044618
1480.6850,0.044921
1481.6168,0.045217
1482.5486,0.045392
1483.4805,0.044988
1484.4123,0.044643
1485.3441,0.044229
1486.2760,0.043663
1487.2078,0.043838
1488.1396,0.044427
1489.0715,0.043958
1490.0033,0.043538
1490.9351,0.043488
1491.8670,0.041950
1492.7988,0.040575
1493.7306,0.040363
1494.6625,0.040006
1495.5943,0.039599
1496.5261,0.040165
1497.4580,0.040594
1498.3898,0.039335
1499.3216,0.039368
1500.2535,0.039543
1501.1853,0.038645
1502.1171,0.038351
1503.0490,0.037961
1503.9808,0.037515
1504.9127,0.037798
1505.8445,0.038816
1506.7763,0.040663
1507.7082,0.040747
1508.6400,0.038791
1509.5718,0.038752
1510.5037,0.039024
1511.4355,0.038822
1512.3673,0.038538
1513.2992,0.038435
1514.2310,0.037813
1515.1628,0.037786
1516.0947,0.038359
1517.0265,0.038686
1517.9583,0.038765
1518.8902,0.038089
1519.8220,0.037458
1520.7538,0.038327
1521.6857,0.040004
1522.6175,0.039805
1523.5493,0.038998
1524.4812,0.038322
1525.4130,0.038171
1526.3448,0.038837
1527.2767,0.038819
1528.2085,0.039038
1529.1403,0.038793
1530.0722,0.038223
1531.0040,0.038252
1531.9359,0.038745
1532.8677,0.038950
1533.7995,0.039294
1534.7314,0.040056
1535.6632,0.038906
1536.5950,0.037760
1537.5269,0.037455
1538.4587,0.038028
1539.3905,0.039280
1540.3224,0.041089
1541.2542,0.041247
1542.1860,0.040116
1543.1179,0.040475
1544.0497,0.040360
1544.9815,0.040472
1545.9134,0.041176
1546.8452,0.040979
1547.7770,0.040303
1548.7089,0.040183
1549.6407,0.040764
1550.5725,0.041991
1551.5044,0.042068
1552.4362,0.041063
1553.3680,0.040824
1554.2999,0.041343
1555.2317,0.041839
1556.1635,0.040645
1557.0954,0.040465
1558.0272,0.042450
1558.9591,0.046332
1559.8909,0.048838
1560.8227,0.046801
1561.7546,0.044464
1562.6864,0.043271
1563.6182,0.043232
1564.5501,0.043798
1565.4819,0.044443
1566.4137,0.044925
1567.3456,0.045234
1568.2774,0.045226
1569.2092,0.045563
1570.1411,0.046951
1571.0729,0.047810
1572.0047,0.047136
1572.9366,0.046797
1573.8684,0.046892
1574.8002,0.047369
1575.7321,0.048079
1576.6639,0.050315
1577.5957,0.052506
1578.5276,0.051637
1579.4594,0.051142
1580.3912,0.051427
1581.3231,0.051721
1582.2549,0.052129
1583.1867,0.052971
1584.1186,0.053934
1585.0504,0.054799
1585.9822,0.055494
1586.9141,0.055819
1587.8459,0.056154
1588.7778,0.057002
1589.7096,0.057933
1590.6414,0.058324
1591.5733,0.058632
1592.5051,0.059599
1593.4369,0.061065
1594.3688,0.062146
1595.3006,0.063331
1596.2324,0.064683
1597.1643,0.065423
1598.0961,0.066246
1599.0279,0.067632
1599.9598,0.068746
1600.8916,0.069632
1601.8234,0.071143
1602.7553,0.072822
1603.6871,0.074178
1604.6189,0.075381
1605.5508,0.076629
1606.4826,0.078329
1607.4144,0.079823
1608.3463,0.081255
1609.2781,0.083138
1610.2099,0.085233
1611.1418,0.086748
1612.0736,0.087366
1613.0054,0.088208
1613.9373,0.089927
1614.8691,0.091287
1615.8010,0.093353
1616.7328,0.097869
1617.6646,0.104240
1618.5965,0.106961
1619.5283,0.105413
1620.4601,0.105517
1621.3920,0.107145
1622.3238,0.109220
1623.2556,0.112486
1624.1875,0.117279
1625.1193,0.120474
1626.0511,0.119523
1626.9830,0.118981
1627.9148,0.121068
1628.8466,0.124913
1629.7785,0.126429
1630.7103,0.125583
1631.6421,0.125402
1632.5740,0.125929
1633.5058,0.126708
1634.4376,0.128167
1635.3695,0.130635
1636.3013,0.136512
1637.2331,0.140887
1638.1650,0.139129
1639.0968,0.137405
1640.0286,0.135668
1640.9605,0.134444
1641.8923,0.134047
1642.8242,0.133574
1643.7560,0.132728
1644.6878,0.132162
1645.6197,0.132005
1646.5515,0.133055
1647.4833,0.134727
1648.4152,0.134470
1649.3470,0.132304
1650.2788,0.128995
1651.2107,0.126513
1652.1425,0.125675
1653.0743,0.128612
1654.0062,0.134994
1654.9380,0.134615
1655.8698,0.129053
1656.8017,0.123898
1657.7335,0.120564
1658.6653,0.118982
1659.5972,0.117245
1660.5290,0.115246
1661.4608,0.114138
1662.3927,0.113574
1663.3245,0.113216
1664.2563,0.111445
1665.1882,0.108119
1666.1200,0.105692
1667.0518,0.103965
1667.9837,0.103121
1668.9155,0.102539
1669.8474,0.101905
1670.7792,0.100433
1671.7110,0.097628
1672.6429,0.095606
1673.5747,0.093543
1674.5065,0.091378
1675.4384,0.090308
1676.3702,0.090510
1677.3020,0.088623
1678.2339,0.085781
1679.1657,0.083274
1680.0975,0.081219
1681.0294,0.080561
1681.9612,0.078906
1682.8930,0.076488
1683.8249,0.076107
1684.7567,0.077028
1685.6885,0.076389
1686.6204,0.072495
1687.5522,0.069474
1688.4840,0.067982
1689.4159,0.066791
1690.3477,0.065369
1691.2795,0.063902
1692.2114,0.062174
1693.1432,0.060715
1694.0750,0.059663
1695.0069,0.058346
1695.9387,0.057259
1696.8706,0.056324
1697.8024,0.053918
1698.7342,0.052657
1699.6661,0.052038
1700.5979,0.051786
1701.5297,0.050592
1702.4616,0.047455
1703.3934,0.046599
1704.3252,0.046643
1705.2571,0.046159
1706.1889,0.044760
1707.1207,0.043673
1708.0526,0.042347
1708.9844,0.041139
1709.9162,0.040409
1710.8481,0.039596
1711.7799,0.038669
1712.7117,0.037771
1713.6436,0.037098
1714.5754,0.036819
1715.5072,0.036867
1716.4391,0.036168
1717.3709,0.034607
1718.3027,0.033590
1719.2346,0.032458
1720.1664,0.031557
1721.0982,0.031110
1722.0301,0.030966
1722.9619,0.030568
1723.8937,0.030239
1724.8256,0.029601
1725.7574,0.028666
1726.6893,0.028469
1727.6211,0.028190
1728.5529,0.027543
1729.4848,0.027414
1730.4166,0.027486
1731.3484,0.026311
1732.2803,0.025019
1733.2121,0.025507
1734.1439,0.025791
1735.0758,0.024611
1736.0076,0.022861
1736.9394,0.022805
1737.8713,0.023136
1738.8031,0.023220
1739.7349,0.023120
1740.6668,0.023240
1741.5986,0.022588
1742.5304,0.021456
1743.4623,0.021613
1744.3941,0.021829
1745.3259,0.020884
1746.2578,0.020563
1747.1896,0.020841
1748.1214,0.020496
1749.0533,0.019568
1749.9851,0.019439
1750.9169,0.019382
1751.8488,0.019842
1752.7806,0.019620
1753.7125,0.018407
1754.6443,0.017985
1755.5761,0.018052
1756.5080,0.018234
1757.4398,0.018378
1758.3716,0.017806
1759.3035,0.017128
1760.2353,0.016649
1761.1671,0.016721
1762.0990,0.017295
1763.0308,0.016919
1763.9626,0.016117
1764.8945,0.016047
1765.8263,0.015977
1766.7581,0.015851
1767.6900,0.015971
1768.6218,0.016042
1769.5536,0.014971
1770.4855,0.014706
1771.4173,0.015938
1772.3491,0.016194
1773.2810,0.015130
1774.2128,0.013753
1775.1446,0.013412
1776.0765,0.013699
1777.0083,0.013511
1777.9401,0.013256
1778.8720,0.013642
1779.8038,0.014169
1780.7357,0.014484
1781.6675,0.014233
1782.5993,0.013219
1783.5312,0.012470
1784.4630,0.013021
1785.3948,0.013759
1786.3267,0.013410
1787.2585,0.013060
1788.1903,0.013045
1789.1222,0.012826
1790.0540,0.012534
1790.9858,0.012732
1791.9177,0.013117
1792.8495,0.013158
1793.7813,0.012808
1794.7132,0.012089
1795.6450,0.012033
1796.5768,0.011798
1797.5087,0.011220
1798.4405,0.011398
1799.3723,0.011692
1800.3042,0.011960
1801.2360,0.011664
1802.1678,0.011197
1803.0997,0.011098
1804.0315,0.011228
1804.9633,0.010971
1805.8952,0.011054
1806.8270,0.011251
1807.7589,0.010823
1808.6907,0.010618
1809.6225,0.010636
1810.5544,0.011198
1811.4862,0.011825
1812.4180,0.011251
1813.3499,0.010020
1814.2817,0.009460
1815.2135,0.009644
1816.1454,0.010210
1817.0772,0.010625
1818.0090,0.010901
1818.9409,0.010790
1819.8727,0.010097
1820.8045,0.009496
1821.7364,0.009252
1822.6682,0.009475
1823.6000,0.010140
1824.5319,0.010534
1825.4637,0.010872
1826.3955,0.010490
1827.3274,0.010203
1828.2592,0.010375
1829.1910,0.010366
1830.1229,0.010325
1831.0547,0.009728
1831.9865,0.009200
1832.9184,0.009317
1833.8502,0.009724
1834.7821,0.009400
1835.7139,0.008894
1836.6457,0.009709
1837.5776,0.009932
1838.5094,0.008985
1839.4412,0.008575
1840.3731,0.008948
1841.3049,0.009164
1842.2367,0.009260
1843.1686,0.009233
1844.1004,0.008937
1845.0322,0.009358
1845.9641,0.009341
1846.8959,0.008268
1847.8277,0.008773
1848.7596,0.009513
1849.6914,0.008819
1850.6232,0.008812
1851.5551,0.009387
1852.4869,0.009122
1853.4187,0.008469
1854.3506,0.008355
1855.2824,0.008813
1856.2142,0.008861
1857.1461,0.008672
1858.0779,0.009025
1859.0097,0.009178
1859.9416,0.008365
1860.8734,0.008286
1861.8052,0.008893
1862.7371,0.009259
1863.6689,0.008831
1864.6008,0.008145
1865.5326,0.008059
1866.4644,0.008308
1867.3963,0.007637
1868.3281,0.007598
1869.2599,0.007891
1870.1918,0.007781
1871.1236,0.008120
1872.0554,0.008110
1872.9873,0.007885
1873.9191,0.008102
1874.8509,0.008981
1875.7828,0.009396
1876.7146,0.008952
1877.6464,0.007954
1878.5783,0.008102
1879.5101,0.008893
1880.4419,0.008556
1881.3738,0.007479
1882.3056,0.007128
1883.2374,0.007579
1884.1693,0.007969
1885.1011,0.008117
1886.0329,0.008404
1886.9648,0.008809
1887.8966,0.008761
1888.8284,0.007752
1889.7603,0.006507
1890.6921,0.006451
1891.6240,0.007235
1892.5558,0.007568
1893.4876,0.007430
1894.4195,0.008487
1895.3513,0.009126
1896.2831,0.008511
1897.2150,0.007533
1898.1468,0.006627
1899.0786,0.007180
1900.0105,0.008324
1900.9423,0.008969
1901.8741,0.008903
1902.8060,0.008556
1903.7378,0.008569
1904.6696,0.008676
1905.6015,0.008597
1906.5333,0.008650
1907.4651,0.008384
1908.3970,0.007425
1909.3288,0.007374
1910.2606,0.008351
1911.1925,0.008190
1912.1243,0.006527
1913.0561,0.005922
1913.9880,0.006878
1914.9198,0.007924
1915.8516,0.009432
1916.7835,0.009898
1917.7153,0.009164
1918.6472,0.008694
1919.5790,0.007587
1920.5108,0.007606
1921.4427,0.009307
1922.3745,0.009857
1923.3063,0.008823
1924.2382,0.007740
1925.1700,0.008212
1926.1018,0.008597
1927.0337,0.008155
1927.9655,0.007494
1928.8973,0.006328
1929.8292,0.006869
1930.7610,0.008133
1931.6928,0.008193
1932.6247,0.007647
1933.5565,0.008258
1934.4883,0.007088
1935.4202,0.005868
1936.3520,0.008336
1937.2838,0.009196
1938.2157,0.008159
1939.1475,0.007694
1940.0793,0.007200
1941.0112,0.006392
1941.9430,0.007074
1942.8748,0.008270
1943.8067,0.006772
1944.7385,0.005717
1945.6704,0.005785
1946.6022,0.005200
1947.5340,0.006515
1948.4659,0.006803
1949.3977,0.005652
1950.3295,0.005394
1951.2614,0.004753
1952.1932,0.005083
1953.1250,0.005644
1954.0569,0.003804
1954.9887,0.004420
1955.9205,0.005779
1956.8524,0.004818
1957.7842,0.003984
1958.7160,0.004738
1959.6479,0.004878
1960.5797,0.002956
1961.5115,0.002508
1962.4434,0.003430
1963.3752,0.006111
1964.3070,0.006450
1965.2389,0.002035
1966.1707,0.002928
1967.1025,0.006367
1968.0344,0.008488
1968.9662,0.006185
1969.8980,0.000580
1970.8299,0.001837
1971.7617,0.003661
1972.6936,0.001897
1973.6254,0.000710
1974.5572,0.001460
1975.4891,0.001940
1976.4209,0.002463
1977.3527,0.001560
1978.2846,0.002977
1979.2164,0.005007
1980.1482,0.004496
1981.0801,0.003844
1982.0119,0.005483
1982.9437,0.007126
1983.8756,0.005493
1984.8074,0.003132
1985.7392,0.001767
1986.6711,0.000202
1987.6029,0.001374
1988.5347,0.003994
1989.4666,0.004802
1990.3984,0.004591
1991.3302,0.005982
1992.2621,0.006437
1993.1939,0.005141
1994.1257,0.006467
1995.0576,0.005260
1995.9894,0.004062
1996.9212,0.004337
1997.8531,0.007238
1998.7849,0.007993
1999.7167,0.006858
2000.6486,0.006145
2001.5804,0.006617
2002.5123,0.006896
2003.4441,0.007348
2004.3759,0.007533
2005.3078,0.005201
2006.2396,0.004618
2007.1714,0.004278
2008.1033,0.002780
2009.0351,0.003278
2009.9669,0.005064
2010.8988,0.003450
2011.8306,0.004232
2012.7624,0.005573
2013.6943,0.005029
2014.6261,0.004964
2015.5579,0.003507
2016.4898,0.003455
2017.4216,0.006647
2018.3534,0.008571
2019.2853,0.006577
2020.2171,0.006322
2021.1489,0.006472
2022.0808,0.003096
2023.0126,0.003085
2023.9444,0.005804
2024.8763,0.003588
2025.8081,0.003051
2026.7399,0.006111
2027.6718,0.008558
2028.6036,0.007980
2029.5355,0.005858
2030.4673,0.002047
2031.3991,0.004249
2032.3310,0.005651
2033.2628,0.007268
2034.1946,0.006233
2035.1265,0.003068
2036.0583,0.001134
2036.9901,0.001244
2037.9220,0.003497
2038.8538,0.005503
2039.7856,0.005614
2040.7175,0.003734
2041.6493,0.003003
2042.5811,0.004401
2043.5130,0.006557
2044.4448,0.007448
2045.3766,0.005822
2046.3085,0.004051
2047.2403,0.005363
2048.1721,0.008267
2049.1040,0.007864
2050.0358,0.005417
2050.9676,0.005444
2051.8995,0.006539
2052.8313,0.006815
2053.7631,0.006420
2054.6950,0.007351
2055.6268,0.009966
2056.5587,0.011162
2057.4905,0.010294
2058.4223,0.011265
2059.3542,0.010847
2060.2860,0.010054
2061.2178,0.009656
2062.1497,0.008907
2063.0815,0.008745
2064.0133,0.008802
2064.9452,0.010692
2065.8770,0.011950
2066.8088,0.008382
2067.7407,0.008071
2068.6725,0.012500
2069.6043,0.012645
2070.5362,0.010939
2071.4680,0.010972
2072.3998,0.011752
2073.3317,0.011464
2074.2635,0.012114
2075.1953,0.013110
2076.1272,0.011867
2077.0590,0.010553
2077.9908,0.009545
2078.9227,0.010051
2079.8545,0.011105
2080.7863,0.011609
2081.7182,0.011377
2082.6500,0.010248
2083.5819,0.010319
2084.5137,0.011828
2085.4455,0.011762
2086.3774,0.011359
2087.3092,0.011025
2088.2410,0.011365
2089.1729,0.012636
2090.1047,0.012400
2091.0365,0.011860
2091.9684,0.011924
2092.9002,0.012321
2093.8320,0.011937
2094.7639,0.011377
2095.6957,0.011922
2096.6275,0.012900
2097.5594,0.012894
2098.4912,0.011477
2099.4230,0.010402
2100.3549,0.010358
2101.2867,0.011747
2102.2185,0.012958
2103.1504,0.012702
2104.0822,0.012475
2105.0140,0.013070
2105.9459,0.011716
2106.8777,0.011203
2107.8095,0.011771
2108.7414,0.012452
2109.6732,0.012075
2110.6051,0.010770
2111.5369,0.012082
2112.4687,0.013042
2113.4006,0.013615
2114.3324,0.012839
2115.2642,0.012788
2116.1961,0.012608
2117.1279,0.011628
2118.0597,0.011304
2118.9916,0.011808
2119.9234,0.012352
2120.8552,0.012261
2121.7871,0.012318
2122.7189,0.012854
2123.6507,0.013172
2124.5826,0.012842
2125.5144,0.012410
2126.4462,0.011941
2127.3781,0.011431
2128.3099,0.010343
2129.2417,0.011843
2130.1736,0.012541
2131.1054,0.013242
2132.0372,0.013262
2132.9691,0.014479
2133.9009,0.014259
2134.8327,0.011926
2135.7646,0.011975
2136.6964,0.011695
2137.6282,0.010964
2138.5601,0.008244
2139.4919,0.009143
2140.4238,0.011458
2141.3556,0.010883
2142.2874,0.010826
2143.2193,0.010967
2144.1511,0.010379
2145.0829,0.010802
2146.0148,0.009796
2146.9466,0.008941
2147.8784,0.010538
2148.8103,0.008529
2149.7421,0.004899
2150.6739,0.003445
2151.6058,0.005122
2152.5376,0.011570
2153.4694,0.011744
2154.4013,0.007836
2155.3331,0.005374
2156.2649,0.005967
2157.1968,0.007717
2158.1286,0.008069
2159.0604,0.010624
2159.9923,0.006827
2160.9241,0.001213
2161.8559,0.002476
2162.7878,0.002125
2163.7196,0.000589
2164.6514,0.004582
2165.5833,0.006127
2166.5151,0.005123
2167.4470,0.007605
2168.3788,0.006176
2169.3106,0.003629
2170.2425,0.004616
2171.1743,0.008192
2172.1061,0.007814
2173.0380,0.004490
2173.9698,0.004827
2174.9016,0.004655
2175.8335,0.004347
2176.7653,0.003365
2177.6971,0.002798
2178.6290,0.004605
2179.5608,0.006475
2180.4926,0.005942
2181.4245,0.003950
2182.3563,0.004261
2183.2881,0.004504
2184.2200,0.006612
2185.1518,0.008406
2186.0836,0.005898
2187.0155,0.003831
2187.9473,0.004830
2188.8791,0.007472
2189.8110,0.007708
2190.7428,0.005508
2191.6746,0.004843
2192.6065,0.006797
2193.5383,0.007299
2194.4702,0.006786
2195.4020,0.008614
2196.3338,0.008601
2197.2657,0.007822
2198.1975,0.007514
2199.1293,0.009353
2200.0612,0.010946
2200.9930,0.010077
2201.9248,0.008649
2202.8567,0.005426
2203.7885,0.007405
2204.7203,0.012851
2205.6522,0.012017
2206.5840,0.008547
2207.5158,0.006457
2208.4477,0.006143
2209.3795,0.006979
2210.3113,0.007804
2211.2432,0.007578
2212.1750,0.008663
2213.1068,0.009200
2214.0387,0.008534
2214.9705,0.009251
2215.9023,0.009074
2216.8342,0.008161
2217.7660,0.008976
2218.6978,0.010030
2219.6297,0.007850
2220.5615,0.007390
2221.4934,0.007032
2222.4252,0.006563
2223.3570,0.011024
2224.2889,0.012353
2225.2207,0.009424
2226.1525,0.007851
2227.0844,0.008036
2228.0162,0.008959
2228.9480,0.010141
2229.8799,0.009854
2230.8117,0.009445
2231.7435,0.008523
2232.6754,0.005943
2233.6072,0.006307
2234.5390,0.008387
2235.4709,0.010632
2236.4027,0.009640
2237.3345,0.008081
2238.2664,0.009809
2239.1982,0.008975
2240.1300,0.007394
2241.0619,0.007898
2241.9937,0.009683
2242.9255,0.009078
2243.8574,0.007778
2244.7892,0.007144
2245.7210,0.007802
2246.6529,0.006653
2247.5847,0.005505
2248.5166,0.007031
2249.4484,0.007864
2250.3802,0.008255
2251.3121,0.008684
2252.2439,0.009062
2253.1757,0.009261
2254.1076,0.008704
2255.0394,0.008353
2255.9712,0.008192
2256.9031,0.008673
2257.8349,0.009049
2258.7667,0.009557
2259.6986,0.009671
2260.6304,0.008396
2261.5622,0.008305
2262.4941,0.008308
2263.4259,0.008496
2264.3577,0.009276
2265.2896,0.009468
2266.2214,0.009412
2267.1532,0.009142
2268.0851,0.010008
2269.0169,0.009668
2269.9487,0.009568
2270.8806,0.009233
2271.8124,0.008160
2272.7442,0.008550
2273.6761,0.009080
2274.6079,0.008547
2275.5397,0.008247
2276.4716,0.009043
2277.4034,0.009013
2278.3353,0.007801
2279.2671,0.007780
2280.1989,0.008790
2281.1308,0.009994
2282.0626,0.010156
2282.9944,0.009440
2283.9263,0.008768
2284.8581,0.008898
2285.7899,0.008848
2286.7218,0.008587
2287.6536,0.009419
2288.5854,0.008796
2289.5173,0.008461
2290.4491,0.009019
2291.3809,0.008556
2292.3128,0.008218
2293.2446,0.008756
2294.1764,0.009383
2295.1083,0.009473
2296.0401,0.008204
2296.9719,0.007785
2297.9038,0.008095
2298.8356,0.008166
2299.7674,0.008491
2300.6993,0.008641
2301.6311,0.008943
2302.5629,0.009119
2303.4948,0.008562
2304.4266,0.008519
2305.3585,0.008839
2306.2903,0.008984
2307.2221,0.009208
2308.1540,0.009092
2309.0858,0.008056
2310.0176,0.007619
2310.9495,0.007756
2311.8813,0.007570
2312.8131,0.008008
2313.7450,0.008747
2314.6768,0.008550
2315.6086,0.008930
2316.5405,0.009689
2317.4723,0.009706
2318.4041,0.009003
2319.3360,0.008533
2320.2678,0.007746
2321.1996,0.007660
2322.1315,0.009054
2323.0633,0.009502
2323.9951,0.008808
2324.9270,0.009125
2325.8588,0.009207
2326.7906,0.008728
2327.7225,0.008217
2328.6543,0.007943
2329.5861,0.008386
2330.5180,0.008095
2331.4498,0.007840
2332.3817,0.008440
2333.3135,0.008326
2334.2453,0.008108
2335.1772,0.008028
2336.1090,0.007372
2337.0408,0.007209
2337.9727,0.008558
2338.9045,0.009241
2339.8363,0.008673
2340.7682,0.008094
2341.7000,0.007650
2342.6318,0.007276
2343.5637,0.007596
2344.4955,0.008058
2345.4273,0.008308
2346.3592,0.008072
2347.2910,0.007828
2348.2228,0.007855
2349.1547,0.007853
2350.0865,0.008255
2351.0183,0.007986
2351.9502,0.007897
2352.8820,0.008307
2353.8138,0.008167
2354.7457,0.007367
2355.6775,0.007933
2356.6093,0.007916
2357.5412,0.007893
2358.4730,0.008607
2359.4049,0.007801
2360.3367,0.006312
2361.2685,0.006536
2362.2004,0.007012
2363.1322,0.006021
2364.0640,0.006589
2364.9959,0.007167
2365.9277,0.006922
2366.8595,0.006632
2367.7914,0.007234
2368.7232,0.007561
2369.6550,0.005954
2370.5869,0.005502
2371.5187,0.007007
2372.4505,0.007514
2373.3824,0.006736
2374.3142,0.006635
2375.2460,0.006583
2376.1779,0.006913
2377.1097,0.007790
2378.0415,0.007620
2378.9734,0.007033
2379.9052,0.006783
2380.8370,0.006434
2381.7689,0.007079
2382.7007,0.007180
2383.6325,0.006751
2384.5644,0.007177
2385.4962,0.007142
2386.4281,0.006498
2387.3599,0.006193
2388.2917,0.006346
2389.2236,0.006650
2390.1554,0.006462
2391.0872,0.006580
2392.0191,0.007311
2392.9509,0.007313
2393.8827,0.006737
2394.8146,0.006070
2395.7464,0.006312
2396.6782,0.006871
2397.6101,0.007158
2398.5419,0.006805
2399.4737,0.006188
2400.4056,0.005921
2401.3374,0.006130
2402.2692,0.006502
2403.2011,0.006220
2404.1329,0.005974
2405.0647,0.006442
2405.9966,0.005952
2406.9284,0.005503
2407.8602,0.006824
2408.7921,0.007515
2409.7239,0.006410
2410.6557,0.006020
2411.5876,0.006280
2412.5194,0.006301
2413.4512,0.006671
2414.3831,0.006780
2415.3149,0.006395
2416.2468,0.005689
2417.1786,0.005578
2418.1104,0.005060
2419.0423,0.005016
2419.9741,0.006206
2420.9059,0.006323
2421.8378,0.006109
2422.7696,0.006505
2423.7014,0.006399
2424.6333,0.006078
2425.5651,0.005510
2426.4969,0.004775
2427.4288,0.005425
2428.3606,0.005768
2429.2924,0.005285
2430.2243,0.005475
2431.1561,0.006035
2432.0879,0.005819
2433.0198,0.004932
2433.9516,0.004468
2434.8834,0.004702
2435.8153,0.005411
2436.7471,0.005403
2437.6789,0.005358
2438.6108,0.005445
2439.5426,0.005143
2440.4744,0.005553
2441.4063,0.006069
2442.3381,0.005736
2443.2700,0.004834
2444.2018,0.004783
2445.1336,0.004959
2446.0655,0.004480
2446.9973,0.004770
2447.9291,0.005852
2448.8610,0.006083
2449.7928,0.005209
2450.7246,0.004482
2451.6565,0.004973
2452.5883,0.005474
2453.5201,0.005467
2454.4520,0.005264
2455.3838,0.004968
2456.3156,0.004229
2457.2475,0.003957
2458.1793,0.004718
2459.1111,0.004699
2460.0430,0.003849
2460.9748,0.004776
2461.9066,0.005593
2462.8385,0.004944
2463.7703,0.005178
2464.7021,0.005974
2465.6340,0.006054
2466.5658,0.005935
2467.4976,0.005036
2468.4295,0.004477
2469.3613,0.005225
2470.2932,0.006037
2471.2250,0.005415
2472.1568,0.004989
2473.0887,0.005127
2474.0205,0.004501
2474.9523,0.003847
2475.8842,0.004532
2476.8160,0.005433
2477.7478,0.005139
2478.6797,0.004304
2479.6115,0.004458
2480.5433,0.005308
2481.4752,0.005576
2482.4070,0.005208
2483.3388,0.004990
2484.2707,0.005877
2485.2025,0.005854
2486.1343,0.005501
2487.0662,0.005492
2487.9980,0.005248
2488.9298,0.005663
2489.8617,0.005535
2490.7935,0.005058
2491.7253,0.004825
2492.6572,0.004158
2493.5890,0.004030
2494.5208,0.004490
2495.4527,0.003949
2496.3845,0.003930
2497.3164,0.004774
2498.2482,0.005411
2499.1800,0.005712
2500.1119,0.005449
2501.0437,0.004834
2501.9755,0.004430
2502.9074,0.005307
2503.8392,0.005742
2504.7710,0.005783
2505.7029,0.005311
2506.6347,0.004641
2507.5665,0.005150
2508.4984,0.005541
2509.4302,0.005414
2510.3620,0.005637
2511.2939,0.005689
2512.2257,0.005205
2513.1575,0.005323
2514.0894,0.005431
2515.0212,0.004834
2515.9530,0.005030
2516.8849,0.004994
2517.8167,0.003875
2518.7485,0.003511
2519.6804,0.004040
2520.6122,0.004589
2521.5440,0.004313
2522.4759,0.004298
2523.4077,0.005052
2524.3396,0.005762
2525.2714,0.005739
2526.2032,0.005423
2527.1351,0.005641
2528.0669,0.005755
2528.9987,0.005212
2529.9306,0.004756
2530.8624,0.005114
2531.7942,0.004746
2532.7261,0.003992
2533.6579,0.004498
2534.5897,0.005839
2535.5216,0.006453
2536.4534,0.005751
2537.3852,0.005135
2538.3171,0.004695
2539.2489,0.004553
2540.1807,0.004662
2541.1126,0.005078
2542.0444,0.005821
2542.9762,0.005765
2543.9081,0.005701
2544.8399,0.005840
2545.7717,0.005374
2546.7036,0.005089
2547.6354,0.005405
2548.5672,0.005110
2549.4991,0.005057
2550.4309,0.005417
2551.3627,0.004832
2552.2946,0.003774
2553.2264,0.003611
2554.1583,0.003776
2555.0901,0.003760
2556.0219,0.004505
2556.9538,0.004983
2557.8856,0.004798
2558.8174,0.004922
2559.7493,0.004881
2560.6811,0.004505
2561.6129,0.004244
2562.5448,0.004288
2563.4766,0.004573
2564.4084,0.004439
2565.3403,0.004716
2566.2721,0.005810
2567.2039,0.005893
2568.1358,0.005305
2569.0676,0.004882
2569.9994,0.003819
2570.9313,0.003587
2571.8631,0.004984
2572.7949,0.005311
2573.7268,0.004174
2574.6586,0.003960
2575.5904,0.004512
2576.5223,0.004339
2577.4541,0.003993
2578.3859,0.004052
2579.3178,0.003725
2580.2496,0.004173
2581.1815,0.004596
2582.1133,0.003775
2583.0451,0.003693
2583.9770,0.004341
2584.9088,0.004679
2585.8406,0.004799
2586.7725,0.004767
2587.7043,0.004739
2588.6361,0.005124
2589.5680,0.005531
2590.4998,0.005564
2591.4316,0.005383
2592.3635,0.005117
2593.2953,0.005365
2594.2271,0.005216
2595.1590,0.004778
2596.0908,0.005104
2597.0226,0.005221
2597.9545,0.004581
2598.8863,0.003855
2599.8181,0.003738
2600.7500,0.003555
2601.6818,0.004312
2602.6136,0.005315
2603.5455,0.005004
2604.4773,0.004965
2605.4091,0.005253
2606.3410,0.005437
2607.2728,0.005279
2608.2047,0.005462
2609.1365,0.005932
2610.0683,0.005170
2611.0002,0.004270
2611.9320,0.004956
2612.8638,0.005639
2613.7957,0.005610
2614.7275,0.005417
2615.6593,0.005349
2616.5912,0.005120
2617.5230,0.004769
2618.4548,0.004979
2619.3867,0.005223
2620.3185,0.004923
2621.2503,0.005172
2622.1822,0.005820
2623.1140,0.006080
2624.0458,0.006069
2624.9777,0.006084
2625.9095,0.006064
2626.8413,0.005841
2627.7732,0.005627
2628.7050,0.005742
2629.6368,0.005892
2630.5687,0.006233
2631.5005,0.006116
2632.4323,0.005489
2633.3642,0.005653
2634.2960,0.006086
2635.2279,0.005974
2636.1597,0.006079
2637.0915,0.006066
2638.0234,0.005904
2638.9552,0.005777
2639.8870,0.005682
2640.8189,0.005956
2641.7507,0.006585
2642.6825,0.006408
2643.6144,0.006092
2644.5462,0.006411
2645.4780,0.006279
2646.4099,0.005912
2647.3417,0.005974
2648.2735,0.005910
2649.2054,0.005731
2650.1372,0.006124
2651.0690,0.006569
2652.0009,0.006440
2652.9327,0.006399
2653.8645,0.006679
2654.7964,0.006597
2655.7282,0.006146
2656.6600,0.006155
2657.5919,0.006201
2658.5237,0.006223
2659.4555,0.006550
2660.3874,0.007016
2661.3192,0.007227
2662.2511,0.007090
2663.1829,0.006776
2664.1147,0.006694
2665.0466,0.007104
2665.9784,0.007198
2666.9102,0.007242
2667.8421,0.007245
2668.7739,0.006797
2669.7057,0.006842
2670.6376,0.007295
2671.5694,0.007366
2672.5012,0.006919
2673.4331,0.006593
2674.3649,0.006706
2675.2967,0.007174
2676.2286,0.007316
2677.1604,0.007083
2678.0922,0.007143
2679.0241,0.007146
2679.9559,0.007048
2680.8877,0.007384
2681.8196,0.007722
2682.7514,0.007844
2683.6832,0.007783
2684.6151,0.007769
2685.5469,0.008187
2686.4787,0.008498
2687.4106,0.008403
2688.3424,0.007915
2689.2742,0.007538
2690.2061,0.007859
2691.1379,0.008127
2692.0698,0.007967
2693.0016,0.007740
2693.9334,0.007941
2694.8653,0.008121
2695.7971,0.008199
2696.7289,0.008247
2697.6608,0.008238
2698.5926,0.008321
2699.5244,0.008854
2700.4563,0.009094
2701.3881,0.008699
2702.3199,0.008507
2703.2518,0.008777
2704.1836,0.009207
2705.1154,0.009073
2706.0473,0.008614
2706.9791,0.008613
2707.9109,0.008712
2708.8428,0.008965
2709.7746,0.009184
2710.7064,0.009041
2711.6383,0.009079
2712.5701,0.009626
2713.5019,0.009617
2714.4338,0.009187
2715.3656,0.009230
2716.2974,0.009412
2717.2293,0.009590
2718.1611,0.009671
2719.0930,0.009674
2720.0248,0.010073
2720.9566,0.010117
2721.8885,0.009839
2722.8203,0.009774
2723.7521,0.010294
2724.6840,0.010807
2725.6158,0.010753
2726.5476,0.010799
2727.4795,0.010907
2728.4113,0.010833
2729.3431,0.010879
2730.2750,0.011063
2731.2068,0.011161
2732.1386,0.010868
2733.0705,0.010557
2734.0023,0.010554
2734.9341,0.010559
2735.8660,0.011111
2736.7978,0.011605
2737.7296,0.011124
2738.6615,0.011247
2739.5933,0.011438
2740.5251,0.010874
2741.4570,0.010862
2742.3888,0.011523
2743.3206,0.011585
2744.2525,0.011485
2745.1843,0.011621
2746.1162,0.011781
2747.0480,0.012001
2747.9798,0.011844
2748.9117,0.011364
2749.8435,0.011146
2750.7753,0.011387
2751.7072,0.011847
2752.6390,0.011880
2753.5708,0.011753
2754.5027,0.011726
2755.4345,0.011851
2756.3663,0.012035
2757.2982,0.012316
2758.2300,0.012314
2759.1618,0.011856
2760.0937,0.011765
2761.0255,0.011909
2761.9573,0.011710
2762.8892,0.011812
2763.8210,0.012129
2764.7528,0.012765
2765.6847,0.013165
2766.6165,0.012671
2767.5483,0.012187
2768.4802,0.012593
2769.4120,0.013004
2770.3438,0.012747
2771.2757,0.012511
2772.2075,0.012657
2773.1394,0.012813
2774.0712,0.012727
2775.0030,0.012410
2775.9349,0.012478
2776.8667,0.012776
2777.7985,0.012566
2778.7304,0.012570
2779.6622,0.013241
2780.5940,0.013484
2781.5259,0.013166
2782.4577,0.012863
2783.3895,0.012994
2784.3214,0.013223
2785.2532,0.013463
2786.1850,0.013760
2787.1169,0.013882
2788.0487,0.014031
2788.9805,0.013841
2789.9124,0.013614
2790.8442,0.014065
2791.7760,0.014492
2792.7079,0.014723
2793.6397,0.014799
2794.5715,0.015050
2795.5034,0.015222
2796.4352,0.015092
2797.3670,0.015301
2798.2989,0.015666
2799.2307,0.015592
2800.1626,0.015636
2801.0944,0.016100
2802.0262,0.016029
2802.9581,0.015801
2803.8899,0.016067
2804.8217,0.016205
2805.7536,0.016418
2806.6854,0.017052
2807.6172,0.017513
2808.5491,0.017564
2809.4809,0.017475
2810.4127,0.017313
2811.3446,0.017810
2812.2764,0.018574
2813.2082,0.019049
2814.1401,0.019018
2815.0719,0.018450
2816.0037,0.018751
2816.9356,0.019438
2817.8674,0.019294
2818.7992,0.018918
2819.7311,0.019397
2820.6629,0.020188
2821.5947,0.019946
2822.5266,0.019775
2823.4584,0.020504
2824.3902,0.020945
2825.3221,0.020808
2826.2539,0.020795
2827.1857,0.020677
2828.1176,0.020729
2829.0494,0.021148
2829.9813,0.021569
2830.9131,0.021775
2831.8449,0.021760
2832.7768,0.021566
2833.7086,0.021758
2834.6404,0.022735
2835.5723,0.023246
2836.5041,0.023191
2837.4359,0.023184
2838.3678,0.023370
2839.2996,0.023809
2840.2314,0.023876
2841.1633,0.023917
2842.0951,0.024127
2843.0269,0.024633
2843.9588,0.024920
2844.8906,0.024795
2845.8224,0.025014
2846.7543,0.025546
2847.6861,0.025452
2848.6179,0.025392
2849.5498,0.025867
2850.4816,0.026294
2851.4134,0.026664
2852.3453,0.026998
2853.2771,0.026832
2854.2089,0.026280
2855.1408,0.026132
2856.0726,0.026904
2857.0045,0.027763
2857.9363,0.028170
2858.8681,0.028483
2859.8000,0.029022
2860.7318,0.029201
2861.6636,0.029564
2862.5955,0.030496
2863.5273,0.031757
2864.4591,0.031638
2865.3910,0.031091
2866.3228,0.031653
2867.2546,0.032501
2868.1865,0.033308
2869.1183,0.034022
2870.0501,0.034502
2870.9820,0.034884
2871.9138,0.035712
2872.8456,0.036847
2873.7775,0.037394
2874.7093,0.038192
2875.6411,0.039211
2876.5730,0.039968
2877.5048,0.040566
2878.4366,0.040807
2879.3685,0.041127
2880.3003,0.042292
2881.2321,0.042839
2882.1640,0.043080
2883.0958,0.043522
2884.0277,0.043582
2884.9595,0.043844
2885.8913,0.044419
2886.8232,0.045003
2887.7550,0.045480
2888.6868,0.046001
2889.6187,0.046602
2890.5505,0.047305
2891.4823,0.047243
2892.4142,0.047121
2893.3460,0.047752
2894.2778,0.048559
2895.2097,0.048982
2896.1415,0.049696
2897.0733,0.050671
2898.0052,0.049869
2898.9370,0.049329
2899.8688,0.050118
2900.8007,0.050874
2901.7325,0.051071
2902.6643,0.050757
2903.5962,0.050341
2904.5280,0.050747
2905.4598,0.050617
2906.3917,0.050460
2907.3235,0.050819
2908.2553,0.050151
2909.1872,0.049224
2910.1190,0.049169
2911.0509,0.049520
2911.9827,0.049558
2912.9145,0.048513
2913.8464,0.047211
2914.7782,0.046588
2915.7100,0.046513
2916.6419,0.046793
2917.5737,0.046900
2918.5055,0.046387
2919.4374,0.045979
2920.3692,0.045816
2921.3010,0.046089
2922.2329,0.046876
2923.1647,0.047342
2924.0965,0.047179
2925.0284,0.047714
2925.9602,0.048139
2926.8920,0.047886
2927.8239,0.048086
2928.7557,0.048182
2929.6875,0.048962
2930.6194,0.049045
2931.5512,0.048628
2932.4830,0.049220
2933.4149,0.049351
2934.3467,0.049689
2935.2785,0.050110
2936.2104,0.050370
2937.1422,0.050742
2938.0741,0.050839
2939.0059,0.050786
2939.9377,0.050746
2940.8696,0.050456
2941.8014,0.050154
2942.7332,0.050377
2943.6651,0.050525
2944.5969,0.050668
2945.5287,0.050637
2946.4606,0.050378
2947.3924,0.050198
2948.3242,0.049305
2949.2561,0.049230
2950.1879,0.050334
2951.1197,0.050785
2952.0516,0.051109
2952.9834,0.051258
2953.9152,0.051133
2954.8471,0.051114
2955.7789,0.051989
2956.7107,0.052884
2957.6426,0.052918
2958.5744,0.053087
2959.5062,0.053736
2960.4381,0.054244
2961.3699,0.054782
2962.3017,0.056342
2963.2336,0.058081
2964.1654,0.060518
2965.0972,0.062601
2966.0291,0.064093
2966.9609,0.065746
2967.8928,0.067620
2968.8246,0.069722
2969.7564,0.071808
2970.6883,0.074829
2971.6201,0.077970
2972.5519,0.080493
2973.4838,0.083480
2974.4156,0.086899
2975.3474,0.090081
2976.2793,0.092234
2977.2111,0.093831
2978.1429,0.094737
2979.0748,0.095308
2980.0066,0.096455
2980.9384,0.097637
2981.8703,0.097102
2982.8021,0.095696
2983.7339,0.093855
2984.6658,0.090252
2985.5976,0.087344
2986.5294,0.085329
2987.4613,0.082082
2988.3931,0.079062
2989.3249,0.076970
2990.2568,0.074600
2991.1886,0.072102
2992.1204,0.070434
2993.0523,0.068293
2993.9841,0.065125
2994.9160,0.063101
2995.8478,0.061591
2996.7796,0.060331
2997.7115,0.059505
2998.6433,0.058072
2999.5751,0.057170
3000.5070,0.056514
3001.4388,0.056231
3002.3706,0.055866
3003.3025,0.055075
3004.2343,0.054548
3005.1661,0.054005
3006.0980,0.054400
3007.0298,0.055270
3007.9616,0.055420
3008.8935,0.055040
3009.8253,0.055094
3010.7571,0.055080
3011.6890,0.055351
3012.6208,0.055554
3013.5526,0.055689
3014.4845,0.055697
3015.4163,0.056003
3016.3481,0.055750
3017.2800,0.055302
3018.2118,0.055676
3019.1436,0.055815
3020.0755,0.055248
3021.0073,0.055546
3021.9392,0.056529
3022.8710,0.056746
3023.8028,0.056564
3024.7347,0.057018
3025.6665,0.058244
3026.5983,0.059028
3027.5302,0.059454
3028.4620,0.060044
3029.3938,0.059870
3030.3257,0.060781
3031.2575,0.061421
3032.1893,0.061474
3033.1212,0.062110
3034.0530,0.062885
3034.9848,0.063493
3035.9167,0.063995
3036.8485,0.064596
3037.7803,0.065260
3038.7122,0.065258
3039.6440,0.065501
3040.5758,0.066291
3041.5077,0.066991
3042.4395,0.067164
3043.3713,0.067380
3044.3032,0.068260
3045.2350,0.068910
3046.1668,0.069077
3047.0987,0.069137
3048.0305,0.069937
3048.9624,0.071194
3049.8942,0.071925
3050.8260,0.072631
3051.7579,0.073285
3052.6897,0.073442
3053.6215,0.073712
3054.5534,0.074136
3055.4852,0.074939
3056.4170,0.075959
3057.3489,0.077045
3058.2807,0.077956
3059.2125,0.077542
3060.1444,0.077211
3061.0762,0.078838
3062.0080,0.080683
3062.9399,0.081506
3063.8717,0.081482
3064.8035,0.081666
3065.7354,0.082522
3066.6672,0.083569
3067.5990,0.084370
3068.5309,0.085295
3069.4627,0.086084
3070.3945,0.086153
3071.3264,0.086841
3072.2582,0.087341
3073.1900,0.088095
3074.1219,0.089675
3075.0537,0.091218
3075.9856,0.091505
3076.9174,0.092568
3077.8492,0.093015
3078.7811,0.093365
3079.7129,0.094811
3080.6447,0.096070
3081.5766,0.097273
3082.5084,0.097225
3083.4402,0.096511
3084.3721,0.097284
3085.3039,0.099224
3086.2357,0.100464
3087.1676,0.099867
3088.0994,0.101022
3089.0312,0.102637
3089.9631,0.102985
3090.8949,0.103993
3091.8267,0.105691
3092.7586,0.105703
3093.6904,0.106318
3094.6222,0.108310
3095.5541,0.109543
3096.4859,0.110116
3097.4177,0.110869
3098.3496,0.111430
3099.2814,0.113453
3100.2132,0.114519
3101.1451,0.114585
3102.0769,0.114871
3103.0087,0.116042
3103.9406,0.117683
3104.8724,0.119479
3105.8043,0.120671
3106.7361,0.119985
3107.6679,0.120129
3108.5998,0.122622
3109.5316,0.123538
3110.4634,0.124483
3111.3953,0.124945
3112.3271,0.125818
3113.2589,0.126460
3114.1908,0.127384
3115.1226,0.129650
3116.0544,0.132319
3116.9863,0.133524
3117.9181,0.133354
3118.8499,0.133113
3119.7818,0.133271
3120.7136,0.135412
3121.6454,0.137326
3122.5773,0.136777
3123.5091,0.137181
3124.4409,0.138972
3125.3728,0.140251
3126.3046,0.141942
3127.2364,0.143886
3128.1683,0.144529
3129.1001,0.145355
3130.0319,0.146845
3130.9638,0.148113
3131.8956,0.148739
3132.8275,0.150289
3133.7593,0.152410
3134.6911,0.153795
3135.6230,0.154325
3136.5548,0.155332
3137.4866,0.156090
3138.4185,0.156965
3139.3503,0.158085
3140.2821,0.159318
3141.2140,0.161410
3142.1458,0.163546
3143.0776,0.163464
3144.0095,0.163177
3144.9413,0.164061
3145.8731,0.165494
3146.8050,0.167139
3147.7368,0.168324
3148.6686,0.169717
3149.6005,0.171614
3150.5323,0.173270
3151.4641,0.174965
3152.3960,0.175239
3153.3278,0.176038
3154.2596,0.177241
3155.1915,0.178108
3156.1233,0.177869
3157.0551,0.178603
3157.9870,0.180731
3158.9188,0.181390
3159.8507,0.181591
3160.7825,0.183088
3161.7143,0.183611
3162.6462,0.186438
3163.5780,0.189459
3164.5098,0.190710
3165.4417,0.191728
3166.3735,0.193117
3167.3053,0.194412
3168.2372,0.196883
3169.1690,0.199056
3170.1008,0.199886
3171.0327,0.199943
3171.9645,0.201402
3172.8963,0.202258
3173.8282,0.202366
3174.7600,0.203236
3175.6918,0.205019
3176.6237,0.205505
3177.5555,0.206339
3178.4873,0.207163
3179.4192,0.209973
3180.3510,0.212390
3181.2828,0.211716
3182.2147,0.212174
3183.1465,0.214157
3184.0783,0.214928
3185.0102,0.216305
3185.9420,0.217435
3186.8739,0.218886
3187.8057,0.220764
3188.7375,0.222747
3189.6694,0.223366
3190.6012,0.223949
3191.5330,0.224713
3192.4649,0.226735
3193.3967,0.227429
3194.3285,0.228423
3195.2604,0.230586
3196.1922,0.232511
3197.1240,0.234303
3198.0559,0.234851
3198.9877,0.233980
3199.9195,0.234505
3200.8514,0.235286
3201.7832,0.236720
3202.7150,0.238069
3203.6469,0.240632
3204.5787,0.241160
3205.5105,0.240450
3206.4424,0.241469
3207.3742,0.243289
3208.3060,0.243329
3209.2379,0.243706
3210.1697,0.245561
3211.1015,0.246945
3212.0334,0.247863
3212.9652,0.249587
3213.8971,0.249912
3214.8289,0.249985
3215.7607,0.250036
3216.6926,0.251915
3217.6244,0.250533
3218.5562,0.251141
3219.4881,0.253075
3220.4199,0.255303
3221.3517,0.256164
3222.2836,0.257152
3223.2154,0.258240
3224.1472,0.257525
3225.0791,0.257557
3226.0109,0.260832
3226.9427,0.260637
3227.8746,0.261040
3228.8064,0.262219
3229.7382,0.262462
3230.6701,0.263247
3231.6019,0.263989
3232.5337,0.263247
3233.4656,0.264681
3234.3974,0.265081
3235.3292,0.264414
3236.2611,0.263446
3237.1929,0.263314
3238.1247,0.262940
3239.0566,0.264956
3239.9884,0.264798
3240.9202,0.265719
3241.8521,0.268470
3242.7839,0.269920
3243.7158,0.269562
3244.6476,0.269445
3245.5794,0.268852
3246.5113,0.270126
3247.4431,0.269459
3248.3749,0.272138
3249.3068,0.274225
3250.2386,0.272405
3251.1704,0.269571
3252.1023,0.270698
3253.0341,0.273674
3253.9659,0.274424
3254.8978,0.273804
3255.8296,0.273774
3256.7614,0.274118
3257.6933,0.274511
3258.6251,0.274149
3259.5569,0.273268
3260.4888,0.272453
3261.4206,0.275591
3262.3524,0.276234
3263.2843,0.275225
3264.2161,0.274829
3265.1479,0.276899
3266.0798,0.277686
3267.0116,0.277692
3267.9434,0.275641
3268.8753,0.275636
3269.8071,0.277072
3270.7390,0.276971
3271.6708,0.274869
3272.6026,0.275567
3273.5345,0.275876
3274.4663,0.276230
3275.3981,0.275421
3276.3300,0.276617
3277.2618,0.276768
3278.1936,0.277881
3279.1255,0.278720
3280.0573,0.278514
3280.9891,0.276986
3281.9210,0.277793
3282.8528,0.278943
3283.7846,0.278477
3284.7165,0.277153
3285.6483,0.277456
3286.5801,0.276719
3287.5120,0.278296
3288.4438,0.278463
3289.3756,0.279654
3290.3075,0.281039
3291.2393,0.280143
3292.1711,0.278783
3293.1030,0.279106
3294.0348,0.278453
3294.9666,0.279093
3295.8985,0.280419
3296.8303,0.280817
3297.7622,0.277999
3298.6940,0.278233
3299.6258,0.279032
3300.5577,0.279310
3301.4895,0.279697
3302.4213,0.281185
3303.3532,0.280958
3304.2850,0.279874
3305.2168,0.279492
3306.1487,0.280470
3307.0805,0.279710
3308.0123,0.280216
3308.9442,0.279125
3309.8760,0.279904
3310.8078,0.280032
3311.7397,0.280545
3312.6715,0.280166
3313.6033,0.281163
3314.5352,0.283033
3315.4670,0.281680
3316.3988,0.278906
3317.3307,0.281430
3318.2625,0.283263
3319.1943,0.284984
3320.1262,0.283912
3321.0580,0.281497
3321.9898,0.281278
3322.9217,0.283896
3323.8535,0.283873
3324.7854,0.281796
3325.7172,0.279914
3326.6490,0.282575
3327.5809,0.284447
3328.5127,0.284123
3329.4445,0.282229
3330.3764,0.282332
3331.3082,0.282415
3332.2400,0.284327
3333.1719,0.284670
3334.1037,0.284518
3335.0355,0.281669
3335.9674,0.281374
3336.8992,0.284768
3337.8310,0.287654
3338.7629,0.286039
3339.6947,0.283145
3340.6265,0.282334
3341.5584,0.284747
3342.4902,0.282722
3343.4220,0.282106
3344.3539,0.282513
3345.2857,0.283897
3346.2175,0.284141
3347.1494,0.283002
3348.0812,0.284234
3349.0130,0.286006
3349.9449,0.284005
3350.8767,0.283609
3351.8086,0.282451
3352.7404,0.282822
3353.6722,0.281769
3354.6041,0.282801
3355.5359,0.283459
3356.4677,0.283557
3357.3996,0.284916
3358.3314,0.285397
3359.2632,0.287422
3360.1951,0.288231
3361.1269,0.284291
3362.0587,0.282561
3362.9906,0.283016
3363.9224,0.282283
3364.8542,0.280766
3365.7861,0.282194
3366.7179,0.282681
3367.6497,0.283362
3368.5816,0.283210
3369.5134,0.283558
3370.4452,0.283345
3371.3771,0.280813
3372.3089,0.278545
3373.2407,0.278295
3374.1726,0.275884
3375.1044,0.276227
3376.0362,0.277694
3376.9681,0.277984
3377.8999,0.276931
3378.8317,0.276433
3379.7636,0.274096
3380.6954,0.273243
3381.6273,0.274567
3382.5591,0.277005
3383.4909,0.276152
3384.4228,0.276190
3385.3546,0.278166
3386.2864,0.279163
3387.2183,0.276097
3388.1501,0.274426
3389.0819,0.274029
3390.0138,0.275209
3390.9456,0.274792
3391.8774,0.274133
3392.8093,0.273901
3393.7411,0.272562
3394.6729,0.268210
3395.6048,0.268817
3396.5366,0.269463
3397.4684,0.270100
3398.4003,0.269717
3399.3321,0.269141
3400.2639,0.267461
3401.1958,0.267223
3402.1276,0.266038
3403.0594,0.262946
3403.9913,0.259207
3404.9231,0.257196
3405.8549,0.255806
3406.7868,0.257877
3407.7186,0.259860
3408.6505,0.260391
3409.5823,0.258044
3410.5141,0.258100
3411.4460,0.257013
3412.3778,0.259142
3413.3096,0.257611
3414.2415,0.255037
3415.1733,0.256167
3416.1051,0.255925
3417.0370,0.250797
3417.9688,0.249218
3418.9006,0.250232
3419.8325,0.251232
3420.7643,0.251193
3421.6961,0.250703
3422.6280,0.246111
3423.5598,0.246649
3424.4916,0.249956
3425.4235,0.249379
3426.3553,0.244311
3427.2871,0.243178
3428.2190,0.245553
3429.1508,0.244603
3430.0826,0.241204
3431.0145,0.240448
3431.9463,0.238260
3432.8781,0.237468
3433.8100,0.235490
3434.7418,0.234889
3435.6737,0.236660
3436.6055,0.238556
3437.5373,0.236587
3438.4692,0.233578
3439.4010,0.229527
3440.3328,0.226548
3441.2647,0.222522
3442.1965,0.222317
3443.1283,0.224137
3444.0602,0.226469
3444.9920,0.226237
3445.9238,0.224602
3446.8557,0.224245
3447.7875,0.224728
3448.7193,0.223740
3449.6512,0.219873
3450.5830,0.216299
3451.5148,0.216141
3452.4467,0.216843
3453.3785,0.217050
3454.3103,0.215007
3455.2422,0.214299
3456.1740,0.212189
3457.1058,0.210388
3458.0377,0.208758
3458.9695,0.208194
3459.9013,0.208144
3460.8332,0.208011
3461.7650,0.207856
3462.6969,0.208887
3463.6287,0.208455
3464.5605,0.207742
3465.4924,0.203617
3466.4242,0.201473
3467.3560,0.200095
3468.2879,0.199745
3469.2197,0.200772
3470.1515,0.198766
3471.0834,0.195121
3472.0152,0.195317
3472.9470,0.195739
3473.8789,0.196113
3474.8107,0.193032
3475.7425,0.190658
3476.6744,0.189556
3477.6062,0.191006
3478.5380,0.189923
3479.4699,0.189468
3480.4017,0.189083
3481.3335,0.187589
3482.2654,0.184882
3483.1972,0.183948
3484.1290,0.183106
3485.0609,0.182547
3485.9927,0.182067
3486.9245,0.183794
3487.8564,0.182485
3488.7882,0.178853
3489.7201,0.176833
3490.6519,0.175101
3491.5837,0.172875
3492.5156,0.173268
3493.4474,0.172322
3494.3792,0.171243
3495.3111,0.171467
3496.2429,0.173567
3497.1747,0.173465
3498.1066,0.170297
3499.0384,0.165754
3499.9702,0.162932
3500.9021,0.163962
3501.8339,0.166046
3502.7657,0.165469
3503.6976,0.165346
3504.6294,0.164754
3505.5612,0.163131
3506.4931,0.159894
3507.4249,0.157756
3508.3567,0.155108
3509.2886,0.153067
3510.2204,0.154413
3511.1522,0.156926
3512.0841,0.153982
3513.0159,0.153822
3513.9477,0.153784
3514.8796,0.152080
3515.8114,0.149950
3516.7432,0.149639
3517.6751,0.149726
3518.6069,0.150243
3519.5388,0.147858
3520.4706,0.146096
3521.4024,0.146526
3522.3343,0.146073
3523.2661,0.142546
3524.1979,0.142061
3525.1298,0.143088
3526.0616,0.140496
3526.9934,0.137989
3527.9253,0.140288
3528.8571,0.141159
3529.7889,0.138344
3530.7208,0.136988
3531.6526,0.136837
3532.5844,0.133960
3533.5163,0.133057
3534.4481,0.132276
3535.3799,0.132196
3536.3118,0.130448
3537.2436,0.128642
3538.1754,0.129300
3539.1073,0.128184
3540.0391,0.126214
3540.9709,0.127415
3541.9028,0.123595
3542.8346,0.119783
3543.7664,0.119738
3544.6983,0.119844
3545.6301,0.119919
3546.5620,0.122132
3547.4938,0.122352
3548.4256,0.117745
3549.3575,0.113939
3550.2893,0.114433
3551.2211,0.114676
3552.1530,0.114417
3553.0848,0.113535
3554.0166,0.115008
3554.9485,0.113976
3555.8803,0.111953
3556.8121,0.111098
3557.7440,0.110781
3558.6758,0.109791
3559.6076,0.106844
3560.5395,0.104379
3561.4713,0.104757
3562.4031,0.103476
3563.3350,0.103329
3564.2668,0.102418
3565.1986,0.101244
3566.1305,0.102714
3567.0623,0.102964
3567.9941,0.102643
3568.9260,0.103448
3569.8578,0.101067
3570.7896,0.097536
3571.7215,0.093153
3572.6533,0.092150
3573.5852,0.092363
3574.5170,0.093048
3575.4488,0.093211
3576.3807,0.091726
3577.3125,0.090331
3578.2443,0.090541
3579.1762,0.089856
3580.1080,0.088928
3581.0398,0.087986
3581.9717,0.086549
3582.9035,0.083907
3583.8353,0.084433
3584.7672,0.085138
3585.6990,0.082973
3586.6308,0.082668
3587.5627,0.083008
3588.4945,0.081630
3589.4263,0.081430
3590.3582,0.081251
3591.2900,0.079585
3592.2218,0.075777
3593.1537,0.074502
3594.0855,0.074573
3595.0173,0.075024
3595.9492,0.074512
3596.8810,0.073686
3597.8128,0.073079
3598.7447,0.071366
3599.6765,0.070697
3600.6084,0.071122
3601.5402,0.070347
3602.4720,0.071295
3603.4039,0.070303
3604.3357,0.067733
3605.2675,0.066785
3606.1994,0.065363
3607.1312,0.064730
3608.0630,0.065781
3608.9949,0.066252
3609.9267,0.066002
3610.8585,0.064805
3611.7904,0.064365
3612.7222,0.063921
3613.6540,0.063784
3614.5859,0.061775
3615.5177,0.060805
3616.4495,0.060689
3617.3814,0.060598
3618.3132,0.059388
3619.2450,0.058786
3620.1769,0.059627
3621.1087,0.058458
3622.0405,0.057188
3622.9724,0.056052
3623.9042,0.054135
3624.8360,0.053867
3625.7679,0.053400
3626.6997,0.052787
3627.6316,0.051775
3628.5634,0.052076
3629.4952,0.052614
3630.4271,0.051831
3631.3589,0.050668
3632.2907,0.048555
3633.2226,0.046941
3634.1544,0.047305
3635.0862,0.047236
3636.0181,0.046899
3636.9499,0.046297
3637.8817,0.047121
3638.8136,0.047762
3639.7454,0.045768
3640.6772,0.044737
3641.6091,0.044967
3642.5409,0.043492
3643.4727,0.042056
3644.4046,0.041437
3645.3364,0.040070
3646.2682,0.040453
3647.2001,0.040727
3648.1319,0.038013
3649.0637,0.037002
3649.9956,0.036803
3650.9274,0.034563
3651.8592,0.034417
3652.7911,0.034929
3653.7229,0.034028
3654.6547,0.032826
3655.5866,0.032154
3656.5184,0.033681
3657.4503,0.034166
3658.3821,0.033410
3659.3139,0.031131
3660.2458,0.029461
3661.1776,0.029915
3662.1094,0.030752
3663.0413,0.030475
3663.9731,0.029003
3664.9049,0.027027
3665.8368,0.026357
3666.7686,0.026613
3667.7004,0.026759
3668.6323,0.026329
3669.5641,0.025677
3670.4959,0.024219
3671.4278,0.023261
3672.3596,0.022602
3673.2914,0.021781
3674.2233,0.018682
3675.1551,0.016451
3676.0869,0.018232
3677.0188,0.020786
3677.9506,0.019707
3678.8824,0.016259
3679.8143,0.014496
3680.7461,0.015214
3681.6779,0.015691
3682.6098,0.015549
3683.5416,0.014877
3684.4735,0.014355
3685.4053,0.013591
3686.3371,0.013885
3687.2690,0.014225
3688.2008,0.013177
3689.1326,0.012409
3690.0645,0.012041
3690.9963,0.011625
3691.9281,0.010659
3692.8600,0.008606
3693.7918,0.007981
3694.7236,0.009065
3695.6555,0.009878
3696.5873,0.009849
3697.5191,0.009337
3698.4510,0.008518
3699.3828,0.008776
3700.3146,0.008602
3701.2465,0.008525
3702.1783,0.007909
3703.1101,0.006649
3704.0420,0.006740
3704.9738,0.006673
3705.9056,0.005375
3706.8375,0.005630
3707.7693,0.005568
3708.7011,0.005325
3709.6330,0.005572
3710.5648,0.005749
3711.4967,0.005926
3712.4285,0.006328
3713.3603,0.006611
3714.2922,0.007654
3715.2240,0.006510
3716.1558,0.003596
3717.0877,0.002917
3718.0195,0.003861
3718.9513,0.005163
3719.8832,0.004802
3720.8150,0.003454
3721.7468,0.003940
3722.6787,0.004175
3723.6105,0.004172
3724.5423,0.003874
3725.4742,0.003259
3726.4060,0.002978
3727.3378,0.002947
3728.2697,0.002180
3729.2015,0.002075
3730.1333,0.002885
3731.0652,0.003500
3731.9970,0.003142
3732.9288,0.003305
3733.8607,0.004637
3734.7925,0.004801
3735.7243,0.002349
3736.6562,0.001151
3737.5880,0.002471
3738.5199,0.003511
3739.4517,0.003059
3740.3835,0.001419
3741.3154,-0.000135
3742.2472,0.001030
3743.1790,0.002835
3744.1109,0.002539
3745.0427,0.001894
3745.9745,0.003030
3746.9064,0.003148
3747.8382,0.000630
3748.7700,-0.000984
3749.7019,-0.000234
3750.6337,0.000377
3751.5655,0.001185
3752.4974,-0.000016
3753.4292,-0.001441
3754.3610,-0.000023
3755.2929,0.000114
3756.2247,-0.000203
3757.1565,0.001023
3758.0884,0.001639
3759.0202,0.002195
3759.9520,0.002542
3760.8839,0.002264
3761.8157,0.001834
3762.7475,0.001437
3763.6794,0.001927
3764.6112,0.001976
3765.5431,0.000887
3766.4749,0.001002
3767.4067,0.000962
3768.3386,0.000900
3769.2704,0.002079
3770.2022,0.002017
3771.1341,0.001446
3772.0659,0.002278
3772.9977,0.002589
3773.9296,0.001275
3774.8614,0.000853
3775.7932,0.001788
3776.7251,0.002884
3777.6569,0.003212
3778.5887,0.002562
3779.5206,0.002658
3780.4524,0.003577
3781.3842,0.002975
3782.3161,0.001405
3783.2479,0.001062
3784.1797,0.000857
3785.1116,0.000488
3786.0434,0.000837
3786.9752,0.001805
3787.9071,0.001676
3788.8389,0.000351
3789.7707,-0.000210
3790.7026,0.000759
3791.6344,0.001855
3792.5662,0.002925
3793.4981,0.002718
3794.4299,0.002160
3795.3618,0.002646
3796.2936,0.002148
3797.2254,0.001197
3798.1573,0.000871
3799.0891,0.000512
3800.0209,0.000628
3800.9528,0.001336
3801.8846,0.002860
3802.8164,0.002626
3803.7483,0.001253
3804.6801,0.000249
3805.6119,0.000567
3806.5438,0.000870
3807.4756,0.000440
3808.4074,0.001286
3809.3393,0.002209
3810.2711,0.001022
3811.2029,-0.000052
3812.1348,0.000885
3813.0666,0.001254
3813.9984,0.001587
3814.9303,0.003221
3815.8621,0.002909
3816.7939,0.001360
3817.7258,0.001156
3818.6576,0.002363
3819.5894,0.002356
3820.5213,0.000689
3821.4531,-0.000056
3822.3850,0.000434
3823.3168,0.000908
3824.2486,0.000152
3825.1805,-0.000148
3826.1123,0.001495
3827.0441,0.002370
3827.9760,0.001725
3828.9078,0.001067
3829.8396,0.001101
3830.7715,0.000863
3831.7033,0.001013
3832.6351,0.001689
3833.5670,0.001364
3834.4988,0.001119
3835.4306,0.000940
3836.3625,0.000019
3837.2943,0.000834
3838.2261,0.002252
3839.1580,0.001851
3840.0898,0.001346
3841.0216,0.000891
3841.9535,-0.000247
3842.8853,-0.000709
3843.8171,-0.000960
3844.7490,-0.001305
3845.6808,-0.000755
3846.6126,0.000573
3847.5445,0.000013
3848.4763,-0.000111
3849.4082,0.000685
3850.3400,0.001398
3851.2718,0.001897
3852.2037,0.002505
3853.1355,0.002317
3854.0673,0.001405
3854.9992,-0.000457
3855.9310,-0.000946
3856.8628,0.000201
3857.7947,-0.000802
3858.7265,-0.000785
3859.6583,0.000593
3860.5902,0.000182
3861.5220,-0.000125
3862.4538,0.000580
3863.3857,0.001407
3864.3175,0.001562
3865.2493,0.000809
3866.1812,-0.000135
3867.1130,0.000454
3868.0448,-0.000077
3868.9767,-0.001250
3869.9085,0.000136
3870.8403,0.001579
3871.7722,0.002344
3872.7040,0.003152
3873.6358,0.002391
3874.5677,0.000792
3875.4995,-0.000856
3876.4314,-0.000350
3877.3632,0.001573
3878.2950,0.001194
3879.2269,0.000339
3880.1587,0.001352
3881.0905,0.001553
3882.0224,0.000180
3882.9542,0.000693
3883.8860,0.001231
3884.8179,0.000223
3885.7497,0.000658
3886.6815,0.000960
3887.6134,0.000576
3888.5452,0.001026
3889.4770,0.000881
3890.4089,-0.000234
3891.3407,-0.000169
3892.2725,0.000958
3893.2044,0.002356
3894.1362,0.002364
3895.0680,0.001313
3895.9999,0.001263
3896.9317,0.002194
3897.8635,0.001993
3898.7954,0.001646
3899.7272,0.001747
3900.6590,0.001808
3901.5909,0.001144
3902.5227,0.000114
3903.4546,-0.000354
3904.3864,0.001200
3905.3182,0.000906
3906.2501,-0.000134
3907.1819,-0.000073
3908.1137,0.000359
3909.0456,0.000921
3909.9774,0.000899
3910.9092,0.000544
3911.8411,0.000529
3912.7729,0.000614
3913.7047,0.000775
3914.6366,0.001193
3915.5684,0.001913
3916.5002,0.002028
3917.4321,0.002507
3918.3639,0.003154
3919.2957,0.002479
3920.2276,0.000995
3921.1594,0.000760
3922.0912,0.000857
3923.0231,0.001291
3923.9549,0.001122
3924.8867,0.001105
3925.8186,0.001320
3926.7504,0.001695
3927.6822,0.002123
3928.6141,0.001847
3929.5459,0.001152
3930.4777,0.001203
3931.4096,0.001489
3932.3414,0.001686
3933.2733,0.002196
3934.2051,0.002634
3935.1369,0.002177
3936.0688,0.000638
3937.0006,0.000125
3937.9324,0.000753
3938.8643,0.000926
3939.7961,0.001807
3940.7279,0.002949
3941.6598,0.002039
3942.5916,0.000562
3943.5234,0.000958
3944.4553,0.001200
3945.3871,0.001411
3946.3189,0.001587
3947.2508,0.001465
3948.1826,0.001294
3949.1144,0.002162
3950.0463,0.002633
3950.9781,0.001872
3951.9099,0.001076
3952.8418,0.000843
3953.7736,0.000666
3954.7054,0.000308
3955.6373,0.000286
3956.5691,0.000291
3957.5009,0.000248
3958.4328,0.001336
3959.3646,0.002074
3960.2965,0.001706
3961.2283,0.001358
3962.1601,0.001466
3963.0920,0.001823
3964.0238,0.001672
3964.9556,0.001085
3965.8875,0.002322
3966.8193,0.002814
3967.7511,0.001205
3968.6830,0.000383
3969.6148,0.000812
3970.5466,0.001549
3971.4785,0.001314
3972.4103,0.000629
3973.3421,0.000477
3974.2740,0.000566
3975.2058,0.000942
3976.1376,0.001660
3977.0695,0.002613
3978.0013,0.003026
3978.9331,0.002628
3979.8650,0.001838
3980.7968,0.001532
3981.7286,0.001806
3982.6605,0.001817
3983.5923,0.002318
3984.5241,0.002888
3985.4560,0.002064
3986.3878,0.001630
3987.3197,0.001553
3988.2515,0.000727
3989.1833,0.000674
3990.1152,0.000701
3991.0470,0.000373
3991.9788,0.000966
3992.9107,0.001493
3993.8425,0.002527
3994.7743,0.003493
3995.7062,0.003422
3996.6380,0.001498
3997.5698,0.000793
3998.5017,0.000939
3999.4335,0.001377
4000.3653,0.001483
