Wavenumber,Intensity
650.4205,0.390577
651.3523,0.403687
652.2841,0.409121
653.2160,0.389923
654.1478,0.380234
655.0796,0.385040
656.0115,0.396179
656.9433,0.397823
657.8751,0.384566
658.8070,0.371760
659.7388,0.369316
660.6706,0.375020
661.6025,0.374310
662.5343,0.369328
663.4661,0.365582
664.3980,0.364408
665.3298,0.362740
666.2616,0.367465
667.1935,0.375103
668.1253,0.386088
669.0571,0.399277
669.9890,0.391860
670.9208,0.379353
671.8526,0.372398
672.7845,0.371295
673.7163,0.364323
674.6481,0.354324
675.5800,0.351452
676.5118,0.355444
677.4437,0.364679
678.3755,0.363699
679.3073,0.354113
680.2392,0.347088
681.1710,0.349457
682.1028,0.352520
683.0347,0.347597
683.9665,0.347394
684.8983,0.352168
685.8302,0.352082
686.7620,0.350298
687.6938,0.347797
688.6257,0.344113
689.5575,0.344079
690.4893,0.345617
691.4212,0.340001
692.3530,0.337006
693.2848,0.335444
694.2167,0.335865
695.1485,0.337637
696.0803,0.338083
697.0122,0.335514
697.9440,0.330610
698.8758,0.327224
699.8077,0.326357
700.7395,0.327673
701.6713,0.327296
702.6032,0.324575
703.5350,0.324043
704.4669,0.324568
705.3987,0.323438
706.3305,0.321459
707.2624,0.322571
708.1942,0.319609
709.1260,0.314355
710.0579,0.313358
710.9897,0.311936
711.9215,0.308875
712.8534,0.309497
713.7852,0.309509
714.7170,0.306658
715.6489,0.304606
716.5807,0.305026
717.5125,0.303772
718.4444,0.301791
719.3762,0.301842
720.3080,0.301732
721.2399,0.298293
722.1717,0.296952
723.1035,0.296741
724.0354,0.296863
724.9672,0.293081
725.8990,0.289643
726.8309,0.290759
727.7627,0.291024
728.6945,0.287816
729.6264,0.286267
730.5582,0.288175
731.4901,0.289346
732.4219,0.285141
733.3537,0.279673
734.2856,0.277683
735.2174,0.278717
736.1492,0.276749
737.0811,0.275310
738.0129,0.276389
738.9447,0.276582
739.8766,0.273543
740.8084,0.272717
741.7402,0.271412
742.6721,0.266674
743.6039,0.263732
744.5357,0.265051
745.4676,0.264780
746.3994,0.261193
747.3312,0.260775
748.2631,0.261840
749.1949,0.259640
750.1267,0.256419
751.0586,0.254354
751.9904,0.254492
752.9222,0.254854
753.8541,0.253763
754.7859,0.252191
755.7177,0.250443
756.6496,0.247369
757.5814,0.246535
758.5132,0.245829
759.4451,0.244610
760.3769,0.242578
761.3088,0.240461
762.2406,0.240382
763.1724,0.240283
764.1043,0.238875
765.0361,0.237188
765.9679,0.236562
766.8998,0.235503
767.8316,0.233789
768.7634,0.232087
769.6953,0.231588
770.6271,0.230966
771.5589,0.228973
772.4908,0.227640
773.4226,0.227838
774.3544,0.226420
775.2863,0.223413
776.2181,0.222061
777.1499,0.220673
778.0818,0.219339
779.0136,0.217493
779.9454,0.216190
780.8773,0.215368
781.8091,0.213835
782.7409,0.212523
783.6728,0.212291
784.6046,0.211162
785.5364,0.209496
786.4683,0.208533
787.4001,0.208330
788.3320,0.207073
789.2638,0.205381
790.1956,0.204107
791.1275,0.202706
792.0593,0.200739
792.9911,0.199344
793.9230,0.197265
794.8548,0.196188
795.7866,0.196030
796.7185,0.195663
797.6503,0.195206
798.5821,0.193896
799.5140,0.191613
800.4458,0.189765
801.3776,0.188858
802.3095,0.188728
803.2413,0.188134
804.1731,0.186821
805.1050,0.185052
806.0368,0.183669
806.9686,0.182650
807.9005,0.181719
808.8323,0.179849
809.7641,0.177982
810.6960,0.175751
811.6278,0.174453
812.5596,0.173823
813.4915,0.173199
814.4233,0.172278
815.3552,0.171190
816.2870,0.169688
817.2188,0.168709
818.1507,0.168036
819.0825,0.166515
820.0143,0.164355
820.9462,0.163598
821.8780,0.162780
822.8098,0.161791
823.7417,0.160921
824.6735,0.159535
825.6053,0.158327
826.5372,0.157425
827.4690,0.156583
828.4008,0.155713
829.3327,0.154580
830.2645,0.153141
831.1963,0.151309
832.1282,0.151267
833.0600,0.150854
833.9918,0.149436
834.9237,0.148030
835.8555,0.146418
836.7873,0.145126
837.7192,0.144552
838.6510,0.144003
839.5828,0.142834
840.5147,0.141390
841.4465,0.139865
842.3784,0.138433
843.3102,0.137962
844.2420,0.137652
845.1739,0.136348
846.1057,0.135887
847.0375,0.135162
847.9694,0.133723
848.9012,0.133092
849.8330,0.131905
850.7649,0.131731
851.6967,0.131454
852.6285,0.130149
853.5604,0.129298
854.4922,0.128740
855.4240,0.127405
856.3559,0.126391
857.2877,0.126218
858.2195,0.125381
859.1514,0.124470
860.0832,0.124533
861.0150,0.123693
861.9469,0.123168
862.8787,0.123596
863.8105,0.123218
864.7424,0.122166
865.6742,0.121745
866.6060,0.122337
867.5379,0.123284
868.4697,0.123882
869.4016,0.125441
870.3334,0.127521
871.2652,0.129089
872.1971,0.130834
873.1289,0.132942
874.0607,0.135379
874.9926,0.137336
875.9244,0.139360
876.8562,0.141537
877.7881,0.142538
878.7199,0.141257
879.6517,0.138680
880.5836,0.135653
881.5154,0.131194
882.4472,0.126128
883.3791,0.121452
884.3109,0.116491
885.2427,0.111936
886.1746,0.108550
887.1064,0.105671
888.0382,0.103184
888.9701,0.100866
889.9019,0.098881
890.8337,0.096694
891.7656,0.094894
892.6974,0.093580
893.6292,0.092446
894.5611,0.091091
895.4929,0.090132
896.4247,0.089588
897.3566,0.089447
898.2884,0.087942
899.2203,0.085813
900.1521,0.085258
901.0839,0.085339
902.0158,0.084839
902.9476,0.084070
903.8794,0.083171
904.8113,0.082327
905.7431,0.081880
906.6749,0.081457
907.6068,0.080804
908.5386,0.080266
909.4704,0.079500
910.4023,0.078898
911.3341,0.078266
912.2659,0.077334
913.1978,0.076740
914.1296,0.076399
915.0614,0.075893
915.9933,0.075396
916.9251,0.075134
917.8569,0.075321
918.7888,0.074798
919.7206,0.073663
920.6524,0.072924
921.5843,0.072550
922.5161,0.072108
923.4479,0.071637
924.3798,0.071073
925.3116,0.070187
926.2435,0.069829
927.1753,0.070062
928.1071,0.069745
929.0390,0.069120
929.9708,0.068639
930.9026,0.068421
931.8345,0.068249
932.7663,0.068186
933.6981,0.067760
934.6300,0.066985
935.5618,0.066498
936.4936,0.066274
937.4255,0.066189
938.3573,0.065727
939.2891,0.065185
940.2210,0.064594
941.1528,0.064071
942.0846,0.063848
943.0165,0.064014
943.9483,0.064230
944.8801,0.063662
945.8120,0.063001
946.7438,0.062744
947.6756,0.062321
948.6075,0.061961
949.5393,0.061983
950.4711,0.062071
951.4030,0.061663
952.3348,0.061208
953.2667,0.060734
954.1985,0.060446
955.1303,0.060270
956.0622,0.060037
956.9940,0.059702
957.9258,0.059606
958.8577,0.059773
959.7895,0.059412
960.7213,0.058564
961.6532,0.058334
962.5850,0.058615
963.5168,0.058539
964.4487,0.058315
965.3805,0.058265
966.3123,0.057721
967.2442,0.057534
968.1760,0.057680
969.1078,0.057555
970.0397,0.057300
970.9715,0.056804
971.9033,0.056693
972.8352,0.056714
973.7670,0.056469
974.6988,0.056441
975.6307,0.056685
976.5625,0.056395
977.4943,0.056011
978.4262,0.056108
979.3580,0.056062
980.2899,0.055758
981.2217,0.055463
982.1535,0.055429
983.0854,0.055634
984.0172,0.055790
984.9490,0.055510
985.8809,0.055093
986.8127,0.055095
987.7445,0.055223
988.6764,0.055349
989.6082,0.055254
990.5400,0.054997
991.4719,0.054944
992.4037,0.054765
993.3355,0.054530
994.2674,0.054820
995.1992,0.055156
996.1310,0.055026
997.0629,0.054848
997.9947,0.055192
998.9265,0.055251
999.8584,0.055003
1000.7902,0.055259
1001.7220,0.055411
1002.6539,0.055397
1003.5857,0.055507
1004.5175,0.055763
1005.4494,0.056032
1006.3812,0.055975
1007.3131,0.055818
1008.2449,0.056229
1009.1767,0.056644
1010.1086,0.056747
1011.0404,0.056832
1011.9722,0.056907
1012.9041,0.057365
1013.8359,0.058115
1014.7677,0.058725
1015.6996,0.059161
1016.6314,0.059688
1017.5632,0.060188
1018.4951,0.060823
1019.4269,0.061647
1020.3587,0.062372
1021.2906,0.063298
1022.2224,0.064461
1023.1542,0.065581
1024.0861,0.067033
1025.0179,0.068685
1025.9497,0.070125
1026.8816,0.071617
1027.8134,0.073667
1028.7452,0.076126
1029.6771,0.078682
1030.6089,0.081480
1031.5407,0.084701
1032.4726,0.088486
1033.4044,0.092787
1034.3362,0.098179
1035.2681,0.104703
1036.1999,0.111644
1037.1318,0.119231
1038.0636,0.127971
1038.9954,0.137176
1039.9273,0.146730
1040.8591,0.156602
1041.7909,0.165667
1042.7228,0.172595
1043.6546,0.177037
1044.5864,0.178895
1045.5183,0.177641
1046.4501,0.172790
1047.3819,0.165390
1048.3138,0.155744
1049.2456,0.144605
1050.1774,0.133438
1051.1093,0.122906
1052.0411,0.112829
1052.9729,0.103493
1053.9048,0.095286
1054.8366,0.088232
1055.7684,0.082365
1056.7003,0.077627
1057.6321,0.073634
1058.5639,0.070506
1059.4958,0.067917
1060.4276,0.065670
1061.3594,0.063998
1062.2913,0.063050
1063.2231,0.062402
1064.1550,0.061825
1065.0868,0.061217
1066.0186,0.060959
1066.9505,0.061112
1067.8823,0.061466
1068.8141,0.062006
1069.7460,0.062428
1070.6778,0.063135
1071.6096,0.064428
1072.5415,0.065676
1073.4733,0.066750
1074.4051,0.067834
1075.3370,0.069188
1076.2688,0.070974
1077.2006,0.072817
1078.1325,0.074571
1079.0643,0.076278
1079.9961,0.078153
1080.9280,0.079908
1081.8598,0.081437
1082.7916,0.082708
1083.7235,0.083760
1084.6553,0.084607
1085.5871,0.084849
1086.5190,0.084392
1087.4508,0.083419
1088.3826,0.081799
1089.3145,0.079825
1090.2463,0.077777
1091.1782,0.075124
1092.1100,0.072270
1093.0418,0.069509
1093.9737,0.067105
1094.9055,0.064695
1095.8373,0.062174
1096.7692,0.059810
1097.7010,0.057860
1098.6328,0.056313
1099.5647,0.054830
1100.4965,0.053477
1101.4283,0.052398
1102.3602,0.051511
1103.2920,0.050663
1104.2238,0.049768
1105.1557,0.049218
1106.0875,0.048495
1107.0193,0.047880
1107.9512,0.047774
1108.8830,0.047522
1109.8148,0.047024
1110.7467,0.046555
1111.6785,0.046498
1112.6103,0.046471
1113.5422,0.046319
1114.4740,0.046204
1115.4058,0.045981
1116.3377,0.045916
1117.2695,0.045877
1118.2014,0.045938
1119.1332,0.045772
1120.0650,0.045483
1120.9969,0.045417
1121.9287,0.045490
1122.8605,0.045702
1123.7924,0.045818
1124.7242,0.045765
1125.6560,0.045648
1126.5879,0.045435
1127.5197,0.045300
1128.4515,0.045287
1129.3834,0.045544
1130.3152,0.045430
1131.2470,0.045330
1132.1789,0.045203
1133.1107,0.045004
1134.0425,0.044853
1134.9744,0.044766
1135.9062,0.044726
1136.8380,0.044721
1137.7699,0.044673
1138.7017,0.044490
1139.6335,0.044243
1140.5654,0.044317
1141.4972,0.044289
1142.4290,0.044147
1143.3609,0.044131
1144.2927,0.044215
1145.2246,0.044214
1146.1564,0.044100
1147.0882,0.044236
1148.0201,0.044281
1148.9519,0.044102
1149.8837,0.043953
1150.8156,0.043973
1151.7474,0.044188
1152.6792,0.044127
1153.6111,0.043822
1154.5429,0.043749
1155.4747,0.043936
1156.4066,0.043968
1157.3384,0.043880
1158.2702,0.043833
1159.2021,0.043750
1160.1339,0.043786
1161.0657,0.043803
1161.9976,0.043531
1162.9294,0.043308
1163.8612,0.043216
1164.7931,0.043040
1165.7249,0.042692
1166.6567,0.042473
1167.5886,0.042692
1168.5204,0.042856
1169.4522,0.042730
1170.3841,0.042514
1171.3159,0.042488
1172.2477,0.042462
1173.1796,0.042335
1174.1114,0.042338
1175.0433,0.042489
1175.9751,0.042584
1176.9069,0.042531
1177.8388,0.042434
1178.7706,0.042425
1179.7024,0.042469
1180.6343,0.042300
1181.5661,0.042098
1182.4979,0.042239
1183.4298,0.042292
1184.3616,0.042193
1185.2934,0.042089
1186.2253,0.042086
1187.1571,0.042386
1188.0889,0.042662
1189.0208,0.042580
1189.9526,0.042280
1190.8844,0.042174
1191.8163,0.042544
1192.7481,0.042670
1193.6799,0.042538
1194.6118,0.042519
1195.5436,0.042400
1196.4754,0.042300
1197.4073,0.042374
1198.3391,0.042610
1199.2709,0.042721
1200.2028,0.042869
1201.1346,0.042746
1202.0665,0.042485
1202.9983,0.042626
1203.9301,0.042824
1204.8620,0.042693
1205.7938,0.042675
1206.7256,0.042748
1207.6575,0.042639
1208.5893,0.042740
1209.5211,0.042963
1210.4530,0.042883
1211.3848,0.042656
1212.3166,0.042910
1213.2485,0.043216
1214.1803,0.043177
1215.1121,0.042963
1216.0440,0.042934
1216.9758,0.042914
1217.9076,0.042941
1218.8395,0.042877
1219.7713,0.042909
1220.7031,0.043126
1221.6350,0.043014
1222.5668,0.042843
1223.4986,0.042904
1224.4305,0.043027
1225.3623,0.043135
1226.2941,0.043313
1227.2260,0.043230
1228.1578,0.043166
1229.0897,0.043408
1230.0215,0.043762
1230.9533,0.043764
1231.8852,0.043609
1232.8170,0.043773
1233.7488,0.043694
1234.6807,0.043589
1235.6125,0.043785
1236.5443,0.043955
1237.4762,0.044107
1238.4080,0.044164
1239.3398,0.044087
1240.2717,0.044108
1241.2035,0.044151
1242.1353,0.044095
1243.0672,0.044171
1243.9990,0.044344
1244.9308,0.044581
1245.8627,0.044866
1246.7945,0.044701
1247.7263,0.044575
1248.6582,0.044766
1249.5900,0.044820
1250.5218,0.044957
1251.4537,0.045082
1252.3855,0.045273
1253.3173,0.045601
1254.2492,0.045548
1255.1810,0.045486
1256.1129,0.045897
1257.0447,0.046208
1257.9765,0.046348
1258.9084,0.046731
1259.8402,0.046989
1260.7720,0.047176
1261.7039,0.047506
1262.6357,0.047903
1263.5675,0.048224
1264.4994,0.048489
1265.4312,0.048856
1266.3630,0.048955
1267.2949,0.049151
1268.2267,0.049623
1269.1585,0.049900
1270.0904,0.050215
1271.0222,0.050672
1271.9540,0.050824
1272.8859,0.050987
1273.8177,0.051213
1274.7495,0.051299
1275.6814,0.051332
1276.6132,0.051264
1277.5450,0.051092
1278.4769,0.050773
1279.4087,0.050378
1280.3405,0.050095
1281.2724,0.050032
1282.2042,0.049854
1283.1361,0.049424
1284.0679,0.049007
1284.9997,0.048989
1285.9316,0.049006
1286.8634,0.048805
1287.7952,0.048625
1288.7271,0.048458
1289.6589,0.048474
1290.5907,0.048622
1291.5226,0.048711
1292.4544,0.048672
1293.3862,0.048660
1294.3181,0.048882
1295.2499,0.049218
1296.1817,0.049311
1297.1136,0.049378
1298.0454,0.049439
1298.9772,0.049572
1299.9091,0.049670
1300.8409,0.049764
1301.7727,0.049863
1302.7046,0.049839
1303.6364,0.049936
1304.5682,0.049928
1305.5001,0.050136
1306.4319,0.050593
1307.3637,0.050840
1308.2956,0.050988
1309.2274,0.051058
1310.1592,0.051147
1311.0911,0.051470
1312.0229,0.051502
1312.9548,0.051448
1313.8866,0.051588
1314.8184,0.051736
1315.7503,0.052102
1316.6821,0.052271
1317.6139,0.052409
1318.5458,0.052497
1319.4776,0.052661
1320.4094,0.052834
1321.3413,0.052406
1322.2731,0.052073
1323.2049,0.052170
1324.1368,0.052390
1325.0686,0.052228
1326.0004,0.052163
1326.9323,0.052409
1327.8641,0.052408
1328.7959,0.052407
1329.7278,0.052655
1330.6596,0.052642
1331.5914,0.052374
1332.5233,0.052144
1333.4551,0.051891
1334.3869,0.051701
1335.3188,0.051206
1336.2506,0.050675
1337.1824,0.050758
1338.1143,0.051195
1339.0461,0.051034
1339.9780,0.050954
1340.9098,0.050806
1341.8416,0.050487
1342.7735,0.050058
1343.7053,0.049761
1344.6371,0.049589
1345.5690,0.049535
1346.5008,0.049373
1347.4326,0.049064
1348.3645,0.048872
1349.2963,0.048787
1350.2281,0.048585
1351.1600,0.048453
1352.0918,0.048300
1353.0236,0.048269
1353.9555,0.048569
1354.8873,0.048728
1355.8191,0.048641
1356.7510,0.048411
1357.6828,0.048092
1358.6146,0.047976
1359.5465,0.047786
1360.4783,0.047875
1361.4101,0.048301
1362.3420,0.048495
1363.2738,0.048968
1364.2056,0.049587
1365.1375,0.049113
1366.0693,0.048603
1367.0012,0.048872
1367.9330,0.049275
1368.8648,0.049866
1369.7967,0.050613
1370.7285,0.050736
1371.6603,0.050707
1372.5922,0.051017
1373.5240,0.052187
1374.4558,0.054225
1375.3877,0.055540
1376.3195,0.055637
1377.2513,0.055588
1378.1832,0.056013
1379.1150,0.056824
1380.0468,0.057605
1380.9787,0.057906
1381.9105,0.057787
1382.8423,0.058107
1383.7742,0.058494
1384.7060,0.058415
1385.6378,0.058317
1386.5697,0.058500
1387.5015,0.058993
1388.4333,0.059757
1389.3652,0.058965
1390.2970,0.057686
1391.2288,0.057252
1392.1607,0.057011
1393.0925,0.056802
1394.0244,0.056898
1394.9562,0.057581
1395.8880,0.057728
1396.8199,0.056699
1397.7517,0.056374
1398.6835,0.057098
1399.6154,0.057943
1400.5472,0.057634
1401.4790,0.056791
1402.4109,0.056572
1403.3427,0.056835
1404.2745,0.057097
1405.2064,0.057910
1406.1382,0.058841
1407.0700,0.058270
1408.0019,0.057633
1408.9337,0.057789
1409.8655,0.058215
1410.7974,0.058471
1411.7292,0.058514
1412.6610,0.058515
1413.5929,0.058219
1414.5247,0.057815
1415.4565,0.057343
1416.3884,0.057332
1417.3202,0.057882
1418.2520,0.058443
1419.1839,0.058751
1420.1157,0.059797
1421.0476,0.058935
1421.9794,0.057330
1422.9112,0.057004
1423.8431,0.057116
1424.7749,0.057710
1425.7067,0.057075
1426.6386,0.056234
1427.5704,0.056014
1428.5022,0.055620
1429.4341,0.055345
1430.3659,0.055619
1431.2977,0.055521
1432.2296,0.054281
1433.1614,0.053656
1434.0932,0.053493
1435.0251,0.052934
1435.9569,0.052540
1436.8887,0.053600
1437.8206,0.054702
1438.7524,0.053261
1439.6842,0.052678
1440.6161,0.052716
1441.5479,0.052763
1442.4797,0.052888
1443.4116,0.052777
1444.3434,0.052744
1445.2752,0.052833
1446.2071,0.053374
1447.1389,0.054100
1448.0707,0.055012
1449.0026,0.056325
1449.9344,0.056389
1450.8663,0.056056
1451.7981,0.056170
1452.7299,0.056586
1453.6618,0.056229
1454.5936,0.055373
1455.5254,0.055429
1456.4573,0.055737
1457.3891,0.056983
1458.3209,0.057796
1459.2528,0.056043
1460.1846,0.053970
1461.1164,0.051918
1462.0483,0.050675
1462.9801,0.049721
1463.9119,0.048988
1464.8438,0.049061
1465.7756,0.049168
1466.7074,0.047909
1467.6393,0.046937
1468.5711,0.046790
1469.5029,0.046250
1470.4348,0.045690
1471.3666,0.045790
1472.2984,0.046971
1473.2303,0.047981
1474.1621,0.047111
1475.0939,0.046287
1476.0258,0.046113
1476.9576,0.046996
1477.8895,0.047223
1478.8213,0.046788
1479.7531,0.046965
1480.6850,0.047016
1481.6168,0.047146
1482.5486,0.047235
1483.4805,0.046674
1484.4123,0.046640
1485.3441,0.046579
1486.2760,0.046248
1487.2078,0.046397
1488.1396,0.046803
1489.0715,0.046407
1490.0033,0.046688
1490.9351,0.047230
1491.8670,0.046186
1492.7988,0.044934
1493.7306,0.044339
1494.6625,0.044279
1495.5943,0.044373
1496.5261,0.045231
1497.4580,0.046064
1498.3898,0.044933
1499.3216,0.045011
1500.2535,0.045485
1501.1853,0.044700
1502.1171,0.044153
1503.0490,0.043767
1503.9808,0.043277
1504.9127,0.043008
1505.8445,0.044209
1506.7763,0.046991
1507.7082,0.048168
1508.6400,0.046520
1509.5718,0.045533
1510.5037,0.045050
1511.4355,0.044394
1512.3673,0.043997
1513.2992,0.044372
1514.2310,0.043970
1515.1628,0.044025
1516.0947,0.044783
1517.0265,0.045331
1517.9583,0.045955
1518.8902,0.044594
1519.8220,0.043391
1520.7538,0.044508
1521.6857,0.046485
1522.6175,0.047111
1523.5493,0.046130
1524.4812,0.044781
1525.4130,0.044793
1526.3448,0.046338
1527.2767,0.046341
1528.2085,0.046061
1529.1403,0.046367
1530.0722,0.045865
1531.0040,0.045478
1531.9359,0.045998
1532.8677,0.046979
1533.7995,0.048091
1534.7314,0.048735
1535.6632,0.047297
1536.5950,0.046315
1537.5269,0.046282
1538.4587,0.046282
1539.3905,0.047576
1540.3224,0.050840
1541.2542,0.050370
1542.1860,0.048220
1543.1179,0.048821
1544.0497,0.048498
1544.9815,0.048556
1545.9134,0.049625
1546.8452,0.049611
1547.7770,0.048792
1548.7089,0.049047
1549.6407,0.049994
1550.5725,0.051464
1551.5044,0.051613
1552.4362,0.050359
1553.3680,0.050127
1554.2999,0.050556
1555.2317,0.051204
1556.1635,0.050453
1557.0954,0.050225
1558.0272,0.052097
1558.9591,0.056191
1559.8909,0.059705
1560.8227,0.058044
1561.7546,0.055369
1562.6864,0.053844
1563.6182,0.053630
1564.5501,0.054066
1565.4819,0.055354
1566.4137,0.055719
1567.3456,0.055484
1568.2774,0.056223
1569.2092,0.057459
1570.1411,0.059305
1571.0729,0.059939
1572.0047,0.058533
1572.9366,0.058504
1573.8684,0.059284
1574.8002,0.059973
1575.7321,0.060976
1576.6639,0.063614
1577.5957,0.065752
1578.5276,0.064804
1579.4594,0.064493
1580.3912,0.065185
1581.3231,0.065978
1582.2549,0.066372
1583.1867,0.066945
1584.1186,0.067964
1585.0504,0.068715
1585.9822,0.069327
1586.9141,0.070236
1587.8459,0.071652
1588.7778,0.072779
1589.7096,0.073734
1590.6414,0.074787
1591.5733,0.075644
1592.5051,0.076566
1593.4369,0.077883
1594.3688,0.079535
1595.3006,0.081404
1596.2324,0.082796
1597.1643,0.083681
1598.0961,0.084919
1599.0279,0.086310
1599.9598,0.087213
1600.8916,0.088813
1601.8234,0.091328
1602.7553,0.093373
1603.6871,0.094920
1604.6189,0.096474
1605.5508,0.097533
1606.4826,0.099178
1607.4144,0.101634
1608.3463,0.104182
1609.2781,0.106236
1610.2099,0.108444
1611.1418,0.110612
1612.0736,0.111780
1613.0054,0.112662
1613.9373,0.114094
1614.8691,0.116228
1615.8010,0.118881
1616.7328,0.123090
1617.6646,0.130899
1618.5965,0.133276
1619.5283,0.130396
1620.4601,0.130448
1621.3920,0.132011
1622.3238,0.133817
1623.2556,0.136955
1624.1875,0.142453
1625.1193,0.146235
1626.0511,0.145844
1626.9830,0.146591
1627.9148,0.149168
1628.8466,0.152975
1629.7785,0.153861
1630.7103,0.152330
1631.6421,0.151738
1632.5740,0.152139
1633.5058,0.152682
1634.4376,0.153428
1635.3695,0.155886
1636.3013,0.162888
1637.2331,0.166767
1638.1650,0.163869
1639.0968,0.161513
1640.0286,0.159938
1640.9605,0.158672
1641.8923,0.157259
1642.8242,0.155717
1643.7560,0.154737
1644.6878,0.153811
1645.6197,0.153012
1646.5515,0.154407
1647.4833,0.156477
1648.4152,0.154848
1649.3470,0.151704
1650.2788,0.147326
1651.2107,0.144386
1652.1425,0.142956
1653.0743,0.144955
1654.0062,0.152662
1654.9380,0.154276
1655.8698,0.147639
1656.8017,0.141735
1657.7335,0.138368
1658.6653,0.135938
1659.5972,0.133078
1660.5290,0.130666
1661.4608,0.129345
1662.3927,0.128705
1663.3245,0.128147
1664.2563,0.126401
1665.1882,0.122814
1666.1200,0.120039
1667.0518,0.118126
1667.9837,0.116527
1668.9155,0.115134
1669.8474,0.114184
1670.7792,0.112459
1671.7110,0.109969
1672.6429,0.108257
1673.5747,0.105850
1674.5065,0.103470
1675.4384,0.103087
1676.3702,0.102938
1677.3020,0.099047
1678.2339,0.095571
1679.1657,0.093756
1680.0975,0.092487
1681.0294,0.091182
1681.9612,0.088292
1682.8930,0.086067
1683.8249,0.086521
1684.7567,0.087495
1685.6885,0.084767
1686.6204,0.080439
1687.5522,0.078134
1688.4840,0.076895
1689.4159,0.075778
1690.3477,0.074472
1691.2795,0.073047
1692.2114,0.071232
1693.1432,0.069563
1694.0750,0.068268
1695.0069,0.066834
1695.9387,0.065712
1696.8706,0.064852
1697.8024,0.061996
1698.7342,0.059758
1699.6661,0.058754
1700.5979,0.058237
1701.5297,0.057615
1702.4616,0.053746
1703.3934,0.052458
1704.3252,0.052589
1705.2571,0.052272
1706.1889,0.050903
1707.1207,0.049491
1708.0526,0.047733
1708.9844,0.046305
1709.9162,0.046335
1710.8481,0.046140
1711.7799,0.044555
1712.7117,0.043155
1713.6436,0.042830
1714.5754,0.042291
1715.5072,0.041385
1716.4391,0.040105
1717.3709,0.039025
1718.3027,0.039428
1719.2346,0.038401
1720.1664,0.036095
1721.0982,0.035173
1722.0301,0.034886
1722.9619,0.034645
1723.8937,0.034872
1724.8256,0.034457
1725.7574,0.033134
1726.6893,0.032539
1727.6211,0.032206
1728.5529,0.031788
1729.4848,0.031467
1730.4166,0.031201
1731.3484,0.030307
1732.2803,0.028522
1733.2121,0.028560
1734.1439,0.029707
1735.0758,0.028900
1736.0076,0.026175
1736.9394,0.026076
1737.8713,0.026542
1738.8031,0.026517
1739.7349,0.026584
1740.6668,0.026432
1741.5986,0.025113
1742.5304,0.024643
1743.4623,0.025011
1744.3941,0.025237
1745.3259,0.024735
1746.2578,0.024159
1747.1896,0.024057
1748.1214,0.023674
1749.0533,0.022716
1749.9851,0.022211
1750.9169,0.022299
1751.8488,0.022616
1752.7806,0.021535
1753.7125,0.020292
1754.6443,0.020688
1755.5761,0.021150
1756.5080,0.021146
1757.4398,0.021219
1758.3716,0.020426
1759.3035,0.019338
1760.2353,0.019550
1761.1671,0.019845
1762.0990,0.020182
1763.0308,0.019890
1763.9626,0.018683
1764.8945,0.018582
1765.8263,0.018793
1766.7581,0.018607
1767.6900,0.018430
1768.6218,0.018351
1769.5536,0.017817
1770.4855,0.016976
1771.4173,0.017277
1772.3491,0.018072
1773.2810,0.017771
1774.2128,0.016385
1775.1446,0.015630
1776.0765,0.016070
1777.0083,0.016426
1777.9401,0.016148
1778.8720,0.016229
1779.8038,0.016607
1780.7357,0.016492
1781.6675,0.016157
1782.5993,0.015591
1783.5312,0.015310
1784.4630,0.015703
1785.3948,0.016183
1786.3267,0.016110
1787.2585,0.015318
1788.1903,0.014752
1789.1222,0.014321
1790.0540,0.014677
1790.9858,0.015601
1791.9177,0.015408
1792.8495,0.014602
1793.7813,0.014543
1794.7132,0.013793
1795.6450,0.013493
1796.5768,0.014156
1797.5087,0.014439
1798.4405,0.014213
1799.3723,0.013855
1800.3042,0.013618
1801.2360,0.013726
1802.1678,0.014014
1803.0997,0.013730
1804.0315,0.012886
1804.9633,0.012970
1805.8952,0.013179
1806.8270,0.013001
1807.7589,0.013319
1808.6907,0.013930
1809.6225,0.013903
1810.5544,0.013428
1811.4862,0.013166
1812.4180,0.012550
1813.3499,0.012197
1814.2817,0.012402
1815.2135,0.012536
1816.1454,0.012652
1817.0772,0.012524
1818.0090,0.011969
1818.9409,0.012070
1819.8727,0.012578
1820.8045,0.012279
1821.7364,0.012076
1822.6682,0.012531
1823.6000,0.012738
1824.5319,0.012601
1825.4637,0.012556
1826.3955,0.012446
1827.3274,0.011241
1828.2592,0.010812
1829.1910,0.011533
1830.1229,0.011976
1831.0547,0.011785
1831.9865,0.011599
1832.9184,0.011405
1833.8502,0.011145
1834.7821,0.011345
1835.7139,0.011289
1836.6457,0.010935
1837.5776,0.010962
1838.5094,0.010875
1839.4412,0.010788
1840.3731,0.010887
1841.3049,0.010585
1842.2367,0.010680
1843.1686,0.011729
1844.1004,0.012580
1845.0322,0.012663
1845.9641,0.010675
1846.8959,0.009590
1847.8277,0.010210
1848.7596,0.010396
1849.6914,0.010634
1850.6232,0.010720
1851.5551,0.010040
1852.4869,0.009941
1853.4187,0.010593
1854.3506,0.010473
1855.2824,0.010059
1856.2142,0.010670
1857.1461,0.010764
1858.0779,0.010012
1859.0097,0.009948
1859.9416,0.010236
1860.8734,0.010915
1861.8052,0.011129
1862.7371,0.010025
1863.6689,0.009736
1864.6008,0.010407
1865.5326,0.010884
1866.4644,0.011004
1867.3963,0.010929
1868.3281,0.011091
1869.2599,0.010470
1870.1918,0.008641
1871.1236,0.008243
1872.0554,0.008684
1872.9873,0.009035
1873.9191,0.010254
1874.8509,0.010969
1875.7828,0.010198
1876.7146,0.009631
1877.6464,0.009413
1878.5783,0.010208
1879.5101,0.011592
1880.4419,0.011517
1881.3738,0.010679
1882.3056,0.010189
1883.2374,0.009816
1884.1693,0.010138
1885.1011,0.010827
1886.0329,0.010844
1886.9648,0.009879
1887.8966,0.009561
1888.8284,0.009297
1889.7603,0.008880
1890.6921,0.009140
1891.6240,0.009451
1892.5558,0.010002
1893.4876,0.010582
1894.4195,0.010692
1895.3513,0.010057
1896.2831,0.009013
1897.2150,0.007769
1898.1468,0.008230
1899.0786,0.009509
1900.0105,0.009911
1900.9423,0.009605
1901.8741,0.010352
1902.8060,0.011097
1903.7378,0.010837
1904.6696,0.010470
1905.6015,0.010479
1906.5333,0.010946
1907.4651,0.010532
1908.3970,0.009357
1909.3288,0.009264
1910.2606,0.009835
1911.1925,0.009035
1912.1243,0.008359
1913.0561,0.009887
1913.9880,0.011365
1914.9198,0.011476
1915.8516,0.011297
1916.7835,0.011216
1917.7153,0.011172
1918.6472,0.011239
1919.5790,0.009533
1920.5108,0.007459
1921.4427,0.008479
1922.3745,0.009833
1923.3063,0.010197
1924.2382,0.009663
1925.1700,0.008224
1926.1018,0.008080
1927.0337,0.009394
1927.9655,0.010251
1928.8973,0.009621
1929.8292,0.009468
1930.7610,0.010948
1931.6928,0.011212
1932.6247,0.008634
1933.5565,0.006828
1934.4883,0.008134
1935.4202,0.009813
1936.3520,0.010311
1937.2838,0.009411
1938.2157,0.007092
1939.1475,0.006452
1940.0793,0.008420
1941.0112,0.009434
1941.9430,0.008959
1942.8748,0.008442
1943.8067,0.008076
1944.7385,0.008628
1945.6704,0.008395
1946.6022,0.007204
1947.5340,0.007747
1948.4659,0.008777
1949.3977,0.007519
1950.3295,0.007196
1951.2614,0.008919
1952.1932,0.010237
1953.1250,0.010166
1954.0569,0.006818
1954.9887,0.004978
1955.9205,0.007240
1956.8524,0.008687
1957.7842,0.009169
1958.7160,0.008041
1959.6479,0.007351
1960.5797,0.008523
1961.5115,0.009175
1962.4434,0.007700
1963.3752,0.005209
1964.3070,0.006328
1965.2389,0.008912
1966.1707,0.005928
1967.1025,0.001744
1968.0344,0.004374
1968.9662,0.007288
1969.8980,0.005952
1970.8299,0.006215
1971.7617,0.005809
1972.6936,0.005360
1973.6254,0.007775
1974.5572,0.007284
1975.4891,0.003063
1976.4209,0.001154
1977.3527,0.002649
1978.2846,0.003683
1979.2164,0.005758
1980.1482,0.006401
1981.0801,0.004941
1982.0119,0.003693
1982.9437,0.005859
1983.8756,0.008264
1984.8074,0.008632
1985.7392,0.006787
1986.6711,0.006138
1987.6029,0.006248
1988.5347,0.006368
1989.4666,0.007432
1990.3984,0.006328
1991.3302,0.005390
1992.2621,0.005151
1993.1939,0.003074
1994.1257,0.003486
1995.0576,0.006387
1995.9894,0.006859
1996.9212,0.006720
1997.8531,0.007559
1998.7849,0.008682
1999.7167,0.009144
2000.6486,0.008439
2001.5804,0.007632
2002.5123,0.007272
2003.4441,0.008789
2004.3759,0.008541
2005.3078,0.009380
2006.2396,0.010262
2007.1714,0.007504
2008.1033,0.006491
2009.0351,0.008015
2009.9669,0.007249
2010.8988,0.005145
2011.8306,0.004645
2012.7624,0.005224
2013.6943,0.005805
2014.6261,0.008295
2015.5579,0.011440
2016.4898,0.009984
2017.4216,0.003003
2018.3534,-0.000294
2019.2853,0.002036
2020.2171,0.005622
2021.1489,0.006723
2022.0808,0.005529
2023.0126,0.005839
2023.9444,0.007881
2024.8763,0.009341
2025.8081,0.007785
2026.7399,0.005883
2027.6718,0.007007
2028.6036,0.007583
2029.5355,0.006130
2030.4673,0.006869
2031.3991,0.010396
2032.3310,0.013331
2033.2628,0.009133
2034.1946,0.006110
2035.1265,0.008229
2036.0583,0.008835
2036.9901,0.008999
2037.9220,0.007616
2038.8538,0.005839
2039.7856,0.006384
2040.7175,0.007530
2041.6493,0.007307
2042.5811,0.008817
2043.5130,0.010879
2044.4448,0.009893
2045.3766,0.008055
2046.3085,0.008507
2047.2403,0.007849
2048.1721,0.007863
2049.1040,0.010399
2050.0358,0.011103
2050.9676,0.011414
2051.8995,0.013114
2052.8313,0.012086
2053.7631,0.009656
2054.6950,0.010241
2055.6268,0.012372
2056.5587,0.012645
2057.4905,0.013421
2058.4223,0.013761
2059.3542,0.014385
2060.2860,0.015217
2061.2178,0.014623
2062.1497,0.013916
2063.0815,0.013289
2064.0133,0.013305
2064.9452,0.014045
2065.8770,0.015482
2066.8088,0.015377
2067.7407,0.012996
2068.6725,0.011638
2069.6043,0.012775
2070.5362,0.015014
2071.4680,0.015449
2072.3998,0.013946
2073.3317,0.013559
2074.2635,0.015699
2075.1953,0.017059
2076.1272,0.015500
2077.0590,0.012909
2077.9908,0.011087
2078.9227,0.012302
2079.8545,0.014077
2080.7863,0.013844
2081.7182,0.014480
2082.6500,0.016212
2083.5819,0.016512
2084.5137,0.015173
2085.4455,0.015701
2086.3774,0.016162
2087.3092,0.015968
2088.2410,0.015140
2089.1729,0.015792
2090.1047,0.016496
2091.0365,0.016437
2091.9684,0.015832
2092.9002,0.014051
2093.8320,0.013918
2094.7639,0.014534
2095.6957,0.014885
2096.6275,0.015101
2097.5594,0.014013
2098.4912,0.013768
2099.4230,0.013666
2100.3549,0.013342
2101.2867,0.013066
2102.2185,0.013926
2103.1504,0.015536
2104.0822,0.015784
2105.0140,0.015600
2105.9459,0.014509
2106.8777,0.013912
2107.8095,0.013848
2108.7414,0.014916
2109.6732,0.017539
2110.6051,0.018066
2111.5369,0.016530
2112.4687,0.016141
2113.4006,0.015460
2114.3324,0.015719
2115.2642,0.016460
2116.1961,0.015961
2117.1279,0.015186
2118.0597,0.015330
2118.9916,0.016105
2119.9234,0.016981
2120.8552,0.016588
2121.7871,0.017067
2122.7189,0.016989
2123.6507,0.015656
2124.5826,0.016461
2125.5144,0.017742
2126.4462,0.016129
2127.3781,0.015679
2128.3099,0.016602
2129.2417,0.016296
2130.1736,0.016395
2131.1054,0.016428
2132.0372,0.014870
2132.9691,0.013163
2133.9009,0.012319
2134.8327,0.013246
2135.7646,0.012623
2136.6964,0.012651
2137.6282,0.013069
2138.5601,0.014911
2139.4919,0.015929
2140.4238,0.015045
2141.3556,0.012355
2142.2874,0.010529
2143.2193,0.011688
2144.1511,0.011347
2145.0829,0.012803
2146.0148,0.013676
2146.9466,0.013851
2147.8784,0.014617
2148.8103,0.012943
2149.7421,0.013187
2150.6739,0.013705
2151.6058,0.012283
2152.5376,0.010646
2153.4694,0.009020
2154.4013,0.008835
2155.3331,0.008098
2156.2649,0.009523
2157.1968,0.009639
2158.1286,0.007776
2159.0604,0.006800
2159.9923,0.004304
2160.9241,0.006500
2161.8559,0.009679
2162.7878,0.007879
2163.7196,0.007113
2164.6514,0.008741
2165.5833,0.008250
2166.5151,0.005343
2167.4470,0.006930
2168.3788,0.010011
2169.3106,0.008512
2170.2425,0.008039
2171.1743,0.009983
2172.1061,0.008782
2173.0380,0.007413
2173.9698,0.010364
2174.9016,0.011186
2175.8335,0.008188
2176.7653,0.009035
2177.6971,0.009191
2178.6290,0.007579
2179.5608,0.005748
2180.4926,0.006309
2181.4245,0.008241
2182.3563,0.008856
2183.2881,0.007326
2184.2200,0.005663
2185.1518,0.005245
2186.0836,0.006788
2187.0155,0.009815
2187.9473,0.010531
2188.8791,0.007828
2189.8110,0.008287
2190.7428,0.009920
2191.6746,0.008143
2192.6065,0.008004
2193.5383,0.010806
2194.4702,0.011306
2195.4020,0.009137
2196.3338,0.009361
2197.2657,0.011639
2198.1975,0.011731
2199.1293,0.012147
2200.0612,0.012309
2200.9930,0.010973
2201.9248,0.008644
2202.8567,0.007240
2203.7885,0.009197
2204.7203,0.010302
2205.6522,0.010574
2206.5840,0.008683
2207.5158,0.007292
2208.4477,0.008931
2209.3795,0.009440
2210.3113,0.010799
2211.2432,0.010184
2212.1750,0.007977
2213.1068,0.008242
2214.0387,0.009815
2214.9705,0.012362
2215.9023,0.012823
2216.8342,0.010831
2217.7660,0.010458
2218.6978,0.011164
2219.6297,0.011044
2220.5615,0.012408
2221.4934,0.011943
2222.4252,0.009458
2223.3570,0.009613
2224.2889,0.010813
2225.2207,0.009970
2226.1525,0.008351
2227.0844,0.008850
2228.0162,0.008414
2228.9480,0.008196
2229.8799,0.008635
2230.8117,0.009710
2231.7435,0.011145
2232.6754,0.010543
2233.6072,0.009663
2234.5390,0.010489
2235.4709,0.010199
2236.4027,0.011412
2237.3345,0.012221
2238.2664,0.010664
2239.1982,0.011097
2240.1300,0.011700
2241.0619,0.011092
2241.9937,0.011034
2242.9255,0.011471
2243.8574,0.011583
2244.7892,0.010195
2245.7210,0.010355
2246.6529,0.010540
2247.5847,0.009869
2248.5166,0.010032
2249.4484,0.010716
2250.3802,0.010781
2251.3121,0.011556
2252.2439,0.011250
2253.1757,0.010490
2254.1076,0.009910
2255.0394,0.009200
2255.9712,0.009619
2256.9031,0.010910
2257.8349,0.010798
2258.7667,0.011529
2259.6986,0.011946
2260.6304,0.011670
2261.5622,0.011358
2262.4941,0.010410
2263.4259,0.009511
2264.3577,0.010034
2265.2896,0.011374
2266.2214,0.011683
2267.1532,0.011395
2268.0851,0.011453
2269.0169,0.010591
2269.9487,0.009819
2270.8806,0.009233
2271.8124,0.008994
2272.7442,0.009316
2273.6761,0.010158
2274.6079,0.010606
2275.5397,0.011252
2276.4716,0.010810
2277.4034,0.010720
2278.3353,0.010785
2279.2671,0.009458
2280.1989,0.008860
2281.1308,0.009574
2282.0626,0.009016
2282.9944,0.008245
2283.9263,0.009055
2284.8581,0.010741
2285.7899,0.010689
2286.7218,0.009745
2287.6536,0.009554
2288.5854,0.008882
2289.5173,0.008533
2290.4491,0.008746
2291.3809,0.009382
2292.3128,0.010242
2293.2446,0.010442
2294.1764,0.010697
2295.1083,0.010062
2296.0401,0.010242
2296.9719,0.010192
2297.9038,0.009894
2298.8356,0.010494
2299.7674,0.010577
2300.6993,0.009859
2301.6311,0.009867
2302.5629,0.009680
2303.4948,0.009947
2304.4266,0.009831
2305.3585,0.009759
2306.2903,0.010202
2307.2221,0.011239
2308.1540,0.010980
2309.0858,0.009809
2310.0176,0.009583
2310.9495,0.010742
2311.8813,0.011268
2312.8131,0.009999
2313.7450,0.009040
2314.6768,0.009689
2315.6086,0.010651
2316.5405,0.010879
2317.4723,0.010697
2318.4041,0.010491
2319.3360,0.010129
2320.2678,0.010179
2321.1996,0.011098
2322.1315,0.010786
2323.0633,0.010043
2323.9951,0.009925
2324.9270,0.010033
2325.8588,0.010446
2326.7906,0.010195
2327.7225,0.010350
2328.6543,0.009773
2329.5861,0.008648
2330.5180,0.008983
2331.4498,0.009510
2332.3817,0.009341
2333.3135,0.009332
2334.2453,0.009422
2335.1772,0.009718
2336.1090,0.009657
2337.0408,0.009558
2337.9727,0.009214
2338.9045,0.008946
2339.8363,0.009149
2340.7682,0.009090
2341.7000,0.008994
2342.6318,0.009933
2343.5637,0.009976
2344.4955,0.008905
2345.4273,0.008795
2346.3592,0.008917
2347.2910,0.008856
2348.2228,0.009567
2349.1547,0.009899
2350.0865,0.009534
2351.0183,0.009182
2351.9502,0.009677
2352.8820,0.009222
2353.8138,0.008739
2354.7457,0.008751
2355.6775,0.008196
2356.6093,0.008428
2357.5412,0.009097
2358.4730,0.010010
2359.4049,0.009932
2360.3367,0.008494
2361.2685,0.007960
2362.2004,0.007838
2363.1322,0.008265
2364.0640,0.008417
2364.9959,0.007530
2365.9277,0.007933
2366.8595,0.009480
2367.7914,0.009327
2368.7232,0.007909
2369.6550,0.008008
2370.5869,0.008457
2371.5187,0.007868
2372.4505,0.006615
2373.3824,0.005748
2374.3142,0.006040
2375.2460,0.007314
2376.1779,0.007895
2377.1097,0.007275
2378.0415,0.007179
2378.9734,0.007743
2379.9052,0.007850
2380.8370,0.007381
2381.7689,0.008102
2382.7007,0.007264
2383.6325,0.006567
2384.5644,0.007927
2385.4962,0.008588
2386.4281,0.008650
2387.3599,0.008632
2388.2917,0.008601
2389.2236,0.008139
2390.1554,0.007644
2391.0872,0.007552
2392.0191,0.007344
2392.9509,0.006993
2393.8827,0.007393
2394.8146,0.007344
2395.7464,0.007471
2396.6782,0.007545
2397.6101,0.006772
2398.5419,0.006812
2399.4737,0.007077
2400.4056,0.007372
2401.3374,0.007390
2402.2692,0.006819
2403.2011,0.007121
2404.1329,0.008031
2405.0647,0.007357
2405.9966,0.006851
2406.9284,0.007511
2407.8602,0.007809
2408.7921,0.008318
2409.7239,0.008219
2410.6557,0.007764
2411.5876,0.007171
2412.5194,0.006804
2413.4512,0.006913
2414.3831,0.006703
2415.3149,0.006516
2416.2468,0.006612
2417.1786,0.006874
2418.1104,0.006794
2419.0423,0.006917
2419.9741,0.006463
2420.9059,0.005057
2421.8378,0.004446
2422.7696,0.006011
2423.7014,0.007235
2424.6333,0.007364
2425.5651,0.007333
2426.4969,0.007540
2427.4288,0.007231
2428.3606,0.005854
2429.2924,0.005514
2430.2243,0.006455
2431.1561,0.006537
2432.0879,0.006078
2433.0198,0.006543
2433.9516,0.006365
2434.8834,0.006297
2435.8153,0.006459
2436.7471,0.006149
2437.6789,0.006240
2438.6108,0.006072
2439.5426,0.005909
2440.4744,0.006454
2441.4063,0.006309
2442.3381,0.005546
2443.2700,0.006154
2444.2018,0.006774
2445.1336,0.006406
2446.0655,0.006001
2446.9973,0.005580
2447.9291,0.005228
2448.8610,0.005072
2449.7928,0.006677
2450.7246,0.007298
2451.6565,0.006072
2452.5883,0.005524
2453.5201,0.006298
2454.4520,0.006229
2455.3838,0.005732
2456.3156,0.004899
2457.2475,0.004953
2458.1793,0.005431
2459.1111,0.004632
2460.0430,0.004877
2460.9748,0.005558
2461.9066,0.006180
2462.8385,0.006957
2463.7703,0.006146
2464.7021,0.005125
2465.6340,0.005253
2466.5658,0.005295
2467.4976,0.005009
2468.4295,0.004891
2469.3613,0.005235
2470.2932,0.006330
2471.2250,0.006710
2472.1568,0.005960
2473.0887,0.005801
2474.0205,0.006287
2474.9523,0.007031
2475.8842,0.006520
2476.8160,0.005314
2477.7478,0.004474
2478.6797,0.004086
2479.6115,0.004902
2480.5433,0.005288
2481.4752,0.005544
2482.4070,0.005947
2483.3388,0.006392
2484.2707,0.005304
2485.2025,0.005463
2486.1343,0.005832
2487.0662,0.005178
2487.9980,0.005554
2488.9298,0.005813
2489.8617,0.005449
2490.7935,0.006007
2491.7253,0.006117
2492.6572,0.004704
2493.5890,0.003938
2494.5208,0.004681
2495.4527,0.004783
2496.3845,0.004809
2497.3164,0.004933
2498.2482,0.005493
2499.1800,0.005424
2500.1119,0.004481
2501.0437,0.004506
2501.9755,0.005040
2502.9074,0.005714
2503.8392,0.006214
2504.7710,0.006337
2505.7029,0.006452
2506.6347,0.006139
2507.5665,0.005761
2508.4984,0.004597
2509.4302,0.003977
2510.3620,0.004035
2511.2939,0.004160
2512.2257,0.004670
2513.1575,0.005495
2514.0894,0.005571
2515.0212,0.005223
2515.9530,0.004550
2516.8849,0.004822
2517.8167,0.005665
2518.7485,0.005923
2519.6804,0.005616
2520.6122,0.005074
2521.5440,0.005638
2522.4759,0.006882
2523.4077,0.006137
2524.3396,0.004310
2525.2714,0.004165
2526.2032,0.005052
2527.1351,0.005335
2528.0669,0.004430
2528.9987,0.003712
2529.9306,0.004898
2530.8624,0.005344
2531.7942,0.004200
2532.7261,0.004111
2533.6579,0.004788
2534.5897,0.005688
2535.5216,0.005819
2536.4534,0.004876
2537.3852,0.004967
2538.3171,0.005416
2539.2489,0.005070
2540.1807,0.005475
2541.1126,0.004706
2542.0444,0.004244
2542.9762,0.004448
2543.9081,0.003658
2544.8399,0.003917
2545.7717,0.003972
2546.7036,0.004087
2547.6354,0.005044
2548.5672,0.005827
2549.4991,0.005515
2550.4309,0.004479
2551.3627,0.004970
2552.2946,0.005138
2553.2264,0.004231
2554.1583,0.004620
2555.0901,0.005257
2556.0219,0.004248
2556.9538,0.003782
2557.8856,0.004613
2558.8174,0.004356
2559.7493,0.003935
2560.6811,0.004152
2561.6129,0.004810
2562.5448,0.004907
2563.4766,0.005150
2564.4084,0.005741
2565.3403,0.005429
2566.2721,0.004467
2567.2039,0.004544
2568.1358,0.005224
2569.0676,0.004773
2569.9994,0.005062
2570.9313,0.005735
2571.8631,0.004980
2572.7949,0.004549
2573.7268,0.004510
2574.6586,0.004416
2575.5904,0.004629
2576.5223,0.004978
2577.4541,0.005422
2578.3859,0.004859
2579.3178,0.004036
2580.2496,0.004510
2581.1815,0.005212
2582.1133,0.004978
2583.0451,0.004683
2583.9770,0.004514
2584.9088,0.004179
2585.8406,0.004104
2586.7725,0.004351
2587.7043,0.004350
2588.6361,0.004400
2589.5680,0.004674
2590.4998,0.004749
2591.4316,0.003934
2592.3635,0.003785
2593.2953,0.004366
2594.2271,0.003934
2595.1590,0.003279
2596.0908,0.004220
2597.0226,0.005088
2597.9545,0.004687
2598.8863,0.004714
2599.8181,0.004908
2600.7500,0.004783
2601.6818,0.004352
2602.6136,0.004456
2603.5455,0.004708
2604.4773,0.004445
2605.4091,0.004663
2606.3410,0.004257
2607.2728,0.004129
2608.2047,0.005046
2609.1365,0.005527
2610.0683,0.005180
2611.0002,0.005099
2611.9320,0.005092
2612.8638,0.004445
2613.7957,0.004250
2614.7275,0.004859
2615.6593,0.004928
2616.5912,0.004706
2617.5230,0.004920
2618.4548,0.005308
2619.3867,0.005291
2620.3185,0.005013
2621.2503,0.004136
2622.1822,0.004153
2623.1140,0.005290
2624.0458,0.005421
2624.9777,0.004982
2625.9095,0.005348
2626.8413,0.005620
2627.7732,0.005147
2628.7050,0.005611
2629.6368,0.005633
2630.5687,0.004950
2631.5005,0.004743
2632.4323,0.005161
2633.3642,0.005644
2634.2960,0.005592
2635.2279,0.005294
2636.1597,0.005417
2637.0915,0.005616
2638.0234,0.005653
2638.9552,0.004854
2639.8870,0.004764
2640.8189,0.005732
2641.7507,0.006109
2642.6825,0.005725
2643.6144,0.005762
2644.5462,0.005423
2645.4780,0.005093
2646.4099,0.005489
2647.3417,0.006014
2648.2735,0.006095
2649.2054,0.005999
2650.1372,0.005709
2651.0690,0.005340
2652.0009,0.005737
2652.9327,0.006201
2653.8645,0.005956
2654.7964,0.005907
2655.7282,0.005620
2656.6600,0.005611
2657.5919,0.005708
2658.5237,0.005956
2659.4555,0.005945
2660.3874,0.005875
2661.3192,0.006011
2662.2511,0.006122
2663.1829,0.006409
2664.1147,0.006614
2665.0466,0.006305
2665.9784,0.006088
2666.9102,0.006304
2667.8421,0.006340
2668.7739,0.006482
2669.7057,0.006561
2670.6376,0.006377
2671.5694,0.006613
2672.5012,0.006723
2673.4331,0.006509
2674.3649,0.006293
2675.2967,0.006139
2676.2286,0.006606
2677.1604,0.006815
2678.0922,0.006451
2679.0241,0.006573
2679.9559,0.006907
2680.8877,0.007131
2681.8196,0.007146
2682.7514,0.006679
2683.6832,0.006640
2684.6151,0.006974
2685.5469,0.006896
2686.4787,0.006730
2687.4106,0.006587
2688.3424,0.007026
2689.2742,0.007473
2690.2061,0.007535
2691.1379,0.007555
2692.0698,0.007522
2693.0016,0.007149
2693.9334,0.007138
2694.8653,0.007625
2695.7971,0.007661
2696.7289,0.007545
2697.6608,0.007617
2698.5926,0.007545
2699.5244,0.007653
2700.4563,0.007692
2701.3881,0.007712
2702.3199,0.007741
2703.2518,0.007525
2704.1836,0.007410
2705.1154,0.007736
2706.0473,0.007999
2706.9791,0.008279
2707.9109,0.008010
2708.8428,0.007502
2709.7746,0.007334
2710.7064,0.007831
2711.6383,0.007810
2712.5701,0.007462
2713.5019,0.007743
2714.4338,0.008260
2715.3656,0.008188
2716.2974,0.008018
2717.2293,0.008289
2718.1611,0.008512
2719.0930,0.008289
2720.0248,0.008112
2720.9566,0.008207
2721.8885,0.008620
2722.8203,0.008715
2723.7521,0.008442
2724.6840,0.008512
2725.6158,0.008697
2726.5476,0.008797
2727.4795,0.008907
2728.4113,0.008985
2729.3431,0.008986
2730.2750,0.008874
2731.2068,0.008829
2732.1386,0.008865
2733.0705,0.009192
2734.0023,0.009298
2734.9341,0.009259
2735.8660,0.009572
2736.7978,0.009540
2737.7296,0.009005
2738.6615,0.009216
2739.5933,0.009507
2740.5251,0.009724
2741.4570,0.009571
2742.3888,0.009246
2743.3206,0.009429
2744.2525,0.009877
2745.1843,0.009960
2746.1162,0.009973
2747.0480,0.010220
2747.9798,0.010482
2748.9117,0.010134
2749.8435,0.009746
2750.7753,0.009969
2751.7072,0.010228
2752.6390,0.010141
2753.5708,0.010061
2754.5027,0.009825
2755.4345,0.009994
2756.3663,0.010163
2757.2982,0.010321
2758.2300,0.010470
2759.1618,0.010528
2760.0937,0.010460
2761.0255,0.010302
2761.9573,0.010083
2762.8892,0.010282
2763.8210,0.010467
2764.7528,0.010321
2765.6847,0.010143
2766.6165,0.010591
2767.5483,0.011238
2768.4802,0.010977
2769.4120,0.010222
2770.3438,0.010183
2771.2757,0.010541
2772.2075,0.010656
2773.1394,0.010664
2774.0712,0.011016
2775.0030,0.011378
2775.9349,0.011288
2776.8667,0.011252
2777.7985,0.011247
2778.7304,0.011184
2779.6622,0.011443
2780.5940,0.011702
2781.5259,0.011727
2782.4577,0.011600
2783.3895,0.011380
2784.3214,0.011311
2785.2532,0.011850
2786.1850,0.012286
2787.1169,0.012183
2788.0487,0.011939
2788.9805,0.011801
2789.9124,0.012086
2790.8442,0.012476
2791.7760,0.012313
2792.7079,0.012359
2793.6397,0.012650
2794.5715,0.013078
2795.5034,0.013097
2796.4352,0.013003
2797.3670,0.013335
2798.2989,0.013534
2799.2307,0.013392
2800.1626,0.013319
2801.0944,0.013298
2802.0262,0.013373
2802.9581,0.013839
2803.8899,0.014252
2804.8217,0.014575
2805.7536,0.015328
2806.6854,0.015096
2807.6172,0.014375
2808.5491,0.014584
2809.4809,0.015046
2810.4127,0.014903
2811.3446,0.014981
2812.2764,0.014891
2813.2082,0.014449
2814.1401,0.014577
2815.0719,0.015441
2816.0037,0.016271
2816.9356,0.016305
2817.8674,0.016015
2818.7992,0.016073
2819.7311,0.016484
2820.6629,0.016827
2821.5947,0.016747
2822.5266,0.016777
2823.4584,0.016560
2824.3902,0.016415
2825.3221,0.016496
2826.2539,0.016831
2827.1857,0.017583
2828.1176,0.018012
2829.0494,0.017805
2829.9813,0.017913
2830.9131,0.017928
2831.8449,0.017809
2832.7768,0.018179
2833.7086,0.018826
2834.6404,0.019082
2835.5723,0.018530
2836.5041,0.017935
2837.4359,0.018436
2838.3678,0.018986
2839.2996,0.018979
2840.2314,0.019465
2841.1633,0.020339
2842.0951,0.020678
2843.0269,0.020047
2843.9588,0.019560
2844.8906,0.019918
2845.8224,0.020189
2846.7543,0.019975
2847.6861,0.019893
2848.6179,0.020324
2849.5498,0.020984
2850.4816,0.021515
2851.4134,0.021364
2852.3453,0.021325
2853.2771,0.021604
2854.2089,0.022263
2855.1408,0.022880
2856.0726,0.022713
2857.0045,0.022212
2857.9363,0.022163
2858.8681,0.022579
2859.8000,0.023463
2860.7318,0.023973
2861.6636,0.024333
2862.5955,0.024837
2863.5273,0.024799
2864.4591,0.024661
2865.3910,0.025252
2866.3228,0.025958
2867.2546,0.026258
2868.1865,0.026191
2869.1183,0.026424
2870.0501,0.027126
2870.9820,0.027946
2871.9138,0.028286
2872.8456,0.028157
2873.7775,0.028502
2874.7093,0.029361
2875.6411,0.029973
2876.5730,0.030097
2877.5048,0.030062
2878.4366,0.030815
2879.3685,0.031239
2880.3003,0.031180
2881.2321,0.031419
2882.1640,0.031185
2883.0958,0.030984
2884.0277,0.032023
2884.9595,0.033118
2885.8913,0.033760
2886.8232,0.033708
2887.7550,0.033428
2888.6868,0.034134
2889.6187,0.035077
2890.5505,0.035141
2891.4823,0.035387
2892.4142,0.036052
2893.3460,0.036540
2894.2778,0.036636
2895.2097,0.037135
2896.1415,0.037576
2897.0733,0.037584
2898.0052,0.038063
2898.9370,0.038908
2899.8688,0.039344
2900.8007,0.039518
2901.7325,0.040122
2902.6643,0.040695
2903.5962,0.040445
2904.5280,0.040329
2905.4598,0.040428
2906.3917,0.040819
2907.3235,0.040559
2908.2553,0.040372
2909.1872,0.041285
2910.1190,0.041673
2911.0509,0.040961
2911.9827,0.040087
2912.9145,0.039764
2913.8464,0.039436
2914.7782,0.038890
2915.7100,0.038948
2916.6419,0.039351
2917.5737,0.038936
2918.5055,0.038788
2919.4374,0.039124
2920.3692,0.038731
2921.3010,0.038848
2922.2329,0.039135
2923.1647,0.039512
2924.0965,0.039918
2925.0284,0.039812
2925.9602,0.040153
2926.8920,0.040846
2927.8239,0.040854
2928.7557,0.041490
2929.6875,0.042166
2930.6194,0.041939
2931.5512,0.041997
2932.4830,0.042658
2933.4149,0.043195
2934.3467,0.042940
2935.2785,0.042676
2936.2104,0.043152
2937.1422,0.043542
2938.0741,0.043740
2939.0059,0.044242
2939.9377,0.044507
2940.8696,0.044292
2941.8014,0.044406
2942.7332,0.044833
2943.6651,0.044934
2944.5969,0.044670
2945.5287,0.045052
2946.4606,0.045961
2947.3924,0.046584
2948.3242,0.045938
2949.2561,0.045024
2950.1879,0.045492
2951.1197,0.046720
2952.0516,0.047373
2952.9834,0.047452
2953.9152,0.047331
2954.8471,0.046906
2955.7789,0.046697
2956.7107,0.047637
2957.6426,0.048702
2958.5744,0.049033
2959.5062,0.049143
2960.4381,0.049367
2961.3699,0.049622
2962.3017,0.050760
2963.2336,0.051953
2964.1654,0.053249
2965.0972,0.054506
2966.0291,0.054968
2966.9609,0.056470
2967.8928,0.058603
2968.8246,0.059321
2969.7564,0.060138
2970.6883,0.062091
2971.6201,0.063998
2972.5519,0.065471
2973.4838,0.067342
2974.4156,0.068962
2975.3474,0.070217
2976.2793,0.072312
2977.2111,0.074210
2978.1429,0.075269
2979.0748,0.076707
2980.0066,0.078286
2980.9384,0.079029
2981.8703,0.079575
2982.8021,0.080220
2983.7339,0.079644
2984.6658,0.078421
2985.5976,0.077437
2986.5294,0.076941
2987.4613,0.075861
2988.3931,0.074533
2989.3249,0.073428
2990.2568,0.071523
2991.1886,0.069609
2992.1204,0.068511
2993.0523,0.068078
2993.9841,0.067108
2994.9160,0.065191
2995.8478,0.064074
2996.7796,0.063698
2997.7115,0.062931
2998.6433,0.062082
2999.5751,0.061525
3000.5070,0.061570
3001.4388,0.061823
3002.3706,0.061151
3003.3025,0.060386
3004.2343,0.060958
3005.1661,0.061718
3006.0980,0.061282
3007.0298,0.061054
3007.9616,0.061847
3008.8935,0.062718
3009.8253,0.062584
3010.7571,0.062635
3011.6890,0.062550
3012.6208,0.062176
3013.5526,0.062968
3014.4845,0.064010
3015.4163,0.064459
3016.3481,0.064231
3017.2800,0.064486
3018.2118,0.065207
3019.1436,0.065343
3020.0755,0.066334
3021.0073,0.067618
3021.9392,0.067787
3022.8710,0.068070
3023.8028,0.068584
3024.7347,0.068802
3025.6665,0.068848
3026.5983,0.069096
3027.5302,0.069394
3028.4620,0.070003
3029.3938,0.071095
3030.3257,0.071618
3031.2575,0.071479
3032.1893,0.072184
3033.1212,0.074101
3034.0530,0.075578
3034.9848,0.076502
3035.9167,0.076810
3036.8485,0.076640
3037.7803,0.077322
3038.7122,0.078053
3039.6440,0.078762
3040.5758,0.079679
3041.5077,0.080626
3042.4395,0.081165
3043.3713,0.080531
3044.3032,0.080521
3045.2350,0.081667
3046.1668,0.082913
3047.0987,0.084128
3048.0305,0.085069
3048.9624,0.085344
3049.8942,0.085340
3050.8260,0.086045
3051.7579,0.087541
3052.6897,0.088442
3053.6215,0.088957
3054.5534,0.089618
3055.4852,0.090293
3056.4170,0.090792
3057.3489,0.091524
3058.2807,0.092911
3059.2125,0.094189
3060.1444,0.094597
3061.0762,0.095055
3062.0080,0.095908
3062.9399,0.097113
3063.8717,0.097882
3064.8035,0.098506
3065.7354,0.099559
3066.6672,0.100755
3067.5990,0.102013
3068.5309,0.102634
3069.4627,0.103182
3070.3945,0.104948
3071.3264,0.106343
3072.2582,0.106655
3073.1900,0.106931
3074.1219,0.107731
3075.0537,0.108767
3075.9856,0.109581
3076.9174,0.110002
3077.8492,0.110597
3078.7811,0.112074
3079.7129,0.113460
3080.6447,0.114224
3081.5766,0.115355
3082.5084,0.116638
3083.4402,0.117511
3084.3721,0.118671
3085.3039,0.120325
3086.2357,0.120735
3087.1676,0.120799
3088.0994,0.122258
3089.0312,0.123788
3089.9631,0.124918
3090.8949,0.125191
3091.8267,0.125346
3092.7586,0.127543
3093.6904,0.129270
3094.6222,0.129970
3095.5541,0.131395
3096.4859,0.132495
3097.4177,0.133292
3098.3496,0.134659
3099.2814,0.136105
3100.2132,0.136961
3101.1451,0.138655
3102.0769,0.140073
3103.0087,0.139827
3103.9406,0.140318
3104.8724,0.142532
3105.8043,0.144890
3106.7361,0.146340
3107.6679,0.146643
3108.5998,0.147357
3109.5316,0.149073
3110.4634,0.150285
3111.3953,0.150224
3112.3271,0.150984
3113.2589,0.152743
3114.1908,0.154596
3115.1226,0.155318
3116.0544,0.155617
3116.9863,0.157086
3117.9181,0.159645
3118.8499,0.160630
3119.7818,0.160812
3120.7136,0.162581
3121.6454,0.164486
3122.5773,0.165581
3123.5091,0.166562
3124.4409,0.167891
3125.3728,0.170138
3126.3046,0.172059
3127.2364,0.172334
3128.1683,0.172749
3129.1001,0.175197
3130.0319,0.177966
3130.9638,0.177871
3131.8956,0.177496
3132.8275,0.179199
3133.7593,0.181129
3134.6911,0.183413
3135.6230,0.185458
3136.5548,0.186981
3137.4866,0.186934
3138.4185,0.186331
3139.3503,0.187536
3140.2821,0.189835
3141.2140,0.191799
3142.1458,0.192867
3143.0776,0.193014
3144.0095,0.194606
3144.9413,0.197403
3145.8731,0.198861
3146.8050,0.200523
3147.7368,0.202815
3148.6686,0.202962
3149.6005,0.203220
3150.5323,0.204806
3151.4641,0.207808
3152.3960,0.209984
3153.3278,0.209570
3154.2596,0.210263
3155.1915,0.212621
3156.1233,0.212838
3157.0551,0.213616
3157.9870,0.216401
3158.9188,0.219064
3159.8507,0.220871
3160.7825,0.222552
3161.7143,0.223047
3162.6462,0.223541
3163.5780,0.224243
3164.5098,0.226596
3165.4417,0.228681
3166.3735,0.228631
3167.3053,0.229004
3168.2372,0.232145
3169.1690,0.234648
3170.1008,0.235057
3171.0327,0.236320
3171.9645,0.237870
3172.8963,0.238468
3173.8282,0.240581
3174.7600,0.242496
3175.6918,0.242554
3176.6237,0.242684
3177.5555,0.244408
3178.4873,0.246488
3179.4192,0.248426
3180.3510,0.249019
3181.2828,0.249250
3182.2147,0.250120
3183.1465,0.252304
3184.0783,0.255172
3185.0102,0.258151
3185.9420,0.259721
3186.8739,0.259247
3187.8057,0.258701
3188.7375,0.260554
3189.6694,0.263749
3190.6012,0.266174
3191.5330,0.266116
3192.4649,0.266905
3193.3967,0.267397
3194.3285,0.267966
3195.2604,0.267906
3196.1922,0.268490
3197.1240,0.269838
3198.0559,0.272549
3198.9877,0.274432
3199.9195,0.275973
3200.8514,0.278023
3201.7832,0.279518
3202.7150,0.277913
3203.6469,0.277685
3204.5787,0.279402
3205.5105,0.281670
3206.4424,0.282452
3207.3742,0.283284
3208.3060,0.284154
3209.2379,0.285768
3210.1697,0.286708
3211.1015,0.286966
3212.0334,0.287805
3212.9652,0.289877
3213.8971,0.291190
3214.8289,0.292695
3215.7607,0.293176
3216.6926,0.292152
3217.6244,0.291318
3218.5562,0.292194
3219.4881,0.293358
3220.4199,0.295393
3221.3517,0.295634
3222.2836,0.296561
3223.2154,0.298378
3224.1472,0.299143
3225.0791,0.298425
3226.0109,0.300228
3226.9427,0.301853
3227.8746,0.301778
3228.8064,0.301451
3229.7382,0.303797
3230.6701,0.305576
3231.6019,0.306182
3232.5337,0.304448
3233.4656,0.304374
3234.3974,0.305190
3235.3292,0.306004
3236.2611,0.305988
3237.1929,0.306988
3238.1247,0.306750
3239.0566,0.306696
3239.9884,0.306857
3240.9202,0.307524
3241.8521,0.307817
3242.7839,0.308983
3243.7158,0.309691
3244.6476,0.309789
3245.5794,0.309907
3246.5113,0.312324
3247.4431,0.312728
3248.3749,0.311744
3249.3068,0.311348
3250.2386,0.312396
3251.1704,0.312313
3252.1023,0.311328
3253.0341,0.312125
3253.9659,0.313160
3254.8978,0.313001
3255.8296,0.314747
3256.7614,0.315837
3257.6933,0.316097
3258.6251,0.314830
3259.5569,0.314007
3260.4888,0.315238
3261.4206,0.314740
3262.3524,0.312919
3263.2843,0.314655
3264.2161,0.315530
3265.1479,0.316682
3266.0798,0.317056
3267.0116,0.315458
3267.9434,0.314699
3268.8753,0.315483
3269.8071,0.315308
3270.7390,0.314612
3271.6708,0.313834
3272.6026,0.315371
3273.5345,0.317089
3274.4663,0.317535
3275.3981,0.316746
3276.3300,0.317270
3277.2618,0.316429
3278.1936,0.317039
3279.1255,0.318840
3280.0573,0.318249
3280.9891,0.316128
3281.9210,0.315846
3282.8528,0.316263
3283.7846,0.314742
3284.7165,0.313125
3285.6483,0.315874
3286.5801,0.317335
3287.5120,0.318546
3288.4438,0.319428
3289.3756,0.320723
3290.3075,0.319095
3291.2393,0.317857
3292.1711,0.316705
3293.1030,0.315594
3294.0348,0.316760
3294.9666,0.316802
3295.8985,0.314777
3296.8303,0.316935
3297.7622,0.318915
3298.6940,0.317782
3299.6258,0.314770
3300.5577,0.315294
3301.4895,0.318914
3302.4213,0.320618
3303.3532,0.320149
3304.2850,0.319276
3305.2168,0.317643
3306.1487,0.318259
3307.0805,0.318089
3308.0123,0.316736
3308.9442,0.316141
3309.8760,0.316888
3310.8078,0.316803
3311.7397,0.317510
3312.6715,0.317339
3313.6033,0.317784
3314.5352,0.318010
3315.4670,0.319688
3316.3988,0.320173
3317.3307,0.317517
3318.2625,0.315154
3319.1943,0.318206
3320.1262,0.320864
3321.0580,0.322002
3321.9898,0.321056
3322.9217,0.322271
3323.8535,0.324736
3324.7854,0.323586
3325.7172,0.319027
3326.6490,0.317085
3327.5809,0.318281
3328.5127,0.320211
3329.4445,0.318437
3330.3764,0.320212
3331.3082,0.320217
3332.2400,0.319907
3333.1719,0.321984
3334.1037,0.324844
3335.0355,0.322494
3335.9674,0.320704
3336.8992,0.319485
3337.8310,0.318903
3338.7629,0.321413
3339.6947,0.324694
3340.6265,0.323095
3341.5584,0.321259
3342.4902,0.319549
3343.4220,0.319940
3344.3539,0.319446
3345.2857,0.319038
3346.2175,0.320730
3347.1494,0.322196
3348.0812,0.319198
3349.0130,0.318912
3349.9449,0.320595
3350.8767,0.321721
3351.8086,0.319286
3352.7404,0.320060
3353.6722,0.319374
3354.6041,0.318693
3355.5359,0.318125
3356.4677,0.318384
3357.3996,0.319605
3358.3314,0.319124
3359.2632,0.319025
3360.1951,0.320833
3361.1269,0.320398
3362.0587,0.321576
3362.9906,0.318646
3363.9224,0.316440
3364.8542,0.317396
3365.7861,0.319401
3366.7179,0.317364
3367.6497,0.315625
3368.5816,0.313996
3369.5134,0.313508
3370.4452,0.313517
3371.3771,0.314944
3372.3089,0.314958
3373.2407,0.314744
3374.1726,0.313933
3375.1044,0.315080
3376.0362,0.313644
3376.9681,0.312395
3377.8999,0.311595
3378.8317,0.312148
3379.7636,0.313185
3380.6954,0.310033
3381.6273,0.305475
3382.5591,0.307694
3383.4909,0.310011
3384.4228,0.311042
3385.3546,0.307786
3386.2864,0.306494
3387.2183,0.307283
3388.1501,0.307523
3389.0819,0.305053
3390.0138,0.302333
3390.9456,0.303072
3391.8774,0.304441
3392.8093,0.305874
3393.7411,0.305646
3394.6729,0.301498
3395.6048,0.300376
3396.5366,0.301080
3397.4684,0.300762
3398.4003,0.297860
3399.3321,0.298325
3400.2639,0.298109
3401.1958,0.297307
3402.1276,0.296291
3403.0594,0.295539
3403.9913,0.294104
3404.9231,0.292589
3405.8549,0.293177
3406.7868,0.293746
3407.7186,0.291160
3408.6505,0.289289
3409.5823,0.288670
3410.5141,0.289336
3411.4460,0.287661
3412.3778,0.286236
3413.3096,0.285788
3414.2415,0.284896
3415.1733,0.282565
3416.1051,0.282045
3417.0370,0.279270
3417.9688,0.277503
3418.9006,0.276880
3419.8325,0.276313
3420.7643,0.273475
3421.6961,0.274119
3422.6280,0.275974
3423.5598,0.277962
3424.4916,0.276477
3425.4235,0.274936
3426.3553,0.273567
3427.2871,0.272705
3428.2190,0.268522
3429.1508,0.268653
3430.0826,0.267884
3431.0145,0.266372
3431.9463,0.265291
3432.8781,0.265672
3433.8100,0.265727
3434.7418,0.265373
3435.6737,0.265468
3436.6055,0.263500
3437.5373,0.257576
3438.4692,0.253795
3439.4010,0.251680
3440.3328,0.250854
3441.2647,0.251157
3442.1965,0.251535
3443.1283,0.249772
3444.0602,0.250362
3444.9920,0.248720
3445.9238,0.248550
3446.8557,0.249258
3447.7875,0.248349
3448.7193,0.248772
3449.6512,0.250112
3450.5830,0.247508
3451.5148,0.246262
3452.4467,0.243034
3453.3785,0.240730
3454.3103,0.237840
3455.2422,0.234118
3456.1740,0.232094
3457.1058,0.235975
3458.0377,0.237381
3458.9695,0.235298
3459.9013,0.230695
3460.8332,0.231548
3461.7650,0.234534
3462.6969,0.233169
3463.6287,0.228429
3464.5605,0.227677
3465.4924,0.225653
3466.4242,0.223918
3467.3560,0.221662
3468.2879,0.222388
3469.2197,0.222989
3470.1515,0.220698
3471.0834,0.217194
3472.0152,0.219552
3472.9470,0.216216
3473.8789,0.213766
3474.8107,0.214234
3475.7425,0.215095
3476.6744,0.216980
3477.6062,0.217418
3478.5380,0.213601
3479.4699,0.208156
3480.4017,0.205302
3481.3335,0.207206
3482.2654,0.206353
3483.1972,0.205013
3484.1290,0.205231
3485.0609,0.205979
3485.9927,0.204153
3486.9245,0.202558
3487.8564,0.200144
3488.7882,0.199995
3489.7201,0.198850
3490.6519,0.194919
3491.5837,0.190780
3492.5156,0.192353
3493.4474,0.192289
3494.3792,0.191362
3495.3111,0.193055
3496.2429,0.193465
3497.1747,0.191320
3498.1066,0.190452
3499.0384,0.188929
3499.9702,0.184839
3500.9021,0.185260
3501.8339,0.185121
3502.7657,0.180582
3503.6976,0.181227
3504.6294,0.184210
3505.5612,0.181682
3506.4931,0.177046
3507.4249,0.176917
3508.3567,0.173562
3509.2886,0.172369
3510.2204,0.173958
3511.1522,0.173179
3512.0841,0.171838
3513.0159,0.170716
3513.9477,0.169115
3514.8796,0.169595
3515.8114,0.167510
3516.7432,0.165416
3517.6751,0.165044
3518.6069,0.164123
3519.5388,0.160155
3520.4706,0.159981
3521.4024,0.163623
3522.3343,0.162698
3523.2661,0.160185
3524.1979,0.160809
3525.1298,0.160382
3526.0616,0.158199
3526.9934,0.156998
3527.9253,0.156197
3528.8571,0.153370
3529.7889,0.151849
3530.7208,0.152929
3531.6526,0.152990
3532.5844,0.152175
3533.5163,0.150374
3534.4481,0.148473
3535.3799,0.146711
3536.3118,0.143606
3537.2436,0.144857
3538.1754,0.144130
3539.1073,0.142893
3540.0391,0.140272
3540.9709,0.140517
3541.9028,0.140934
3542.8346,0.140645
3543.7664,0.139717
3544.6983,0.137694
3545.6301,0.136929
3546.5620,0.137616
3547.4938,0.135996
3548.4256,0.133663
3549.3575,0.130882
3550.2893,0.131732
3551.2211,0.130046
3552.1530,0.127767
3553.0848,0.125954
3554.0166,0.123589
3554.9485,0.121722
3555.8803,0.123254
3556.8121,0.122238
3557.7440,0.122274
3558.6758,0.120434
3559.6076,0.120728
3560.5395,0.120811
3561.4713,0.120966
3562.4031,0.119990
3563.3350,0.119040
3564.2668,0.118520
3565.1986,0.118259
3566.1305,0.116483
3567.0623,0.112472
3567.9941,0.111222
3568.9260,0.110964
3569.8578,0.108709
3570.7896,0.110691
3571.7215,0.109664
3572.6533,0.108146
3573.5852,0.107064
3574.5170,0.107585
3575.4488,0.106041
3576.3807,0.103763
3577.3125,0.103972
3578.2443,0.104009
3579.1762,0.102756
3580.1080,0.100733
3581.0398,0.099562
3581.9717,0.100797
3582.9035,0.100196
3583.8353,0.098688
3584.7672,0.098726
3585.6990,0.097432
3586.6308,0.096797
3587.5627,0.098938
3588.4945,0.097408
3589.4263,0.095494
3590.3582,0.095388
3591.2900,0.094149
3592.2218,0.091385
3593.1537,0.088935
3594.0855,0.085462
3595.0173,0.085726
3595.9492,0.088756
3596.8810,0.089375
3597.8128,0.085610
3598.7447,0.082509
3599.6765,0.081522
3600.6084,0.082791
3601.5402,0.083364
3602.4720,0.082948
3603.4039,0.080529
3604.3357,0.078788
3605.2675,0.080008
3606.1994,0.080582
3607.1312,0.080540
3608.0630,0.079838
3608.9949,0.078423
3609.9267,0.077966
3610.8585,0.075007
3611.7904,0.072348
3612.7222,0.072575
3613.6540,0.073352
3614.5859,0.073631
3615.5177,0.071030
3616.4495,0.068478
3617.3814,0.069635
3618.3132,0.070426
3619.2450,0.070216
3620.1769,0.069669
3621.1087,0.067963
3622.0405,0.068717
3622.9724,0.068907
3623.9042,0.066661
3624.8360,0.064939
3625.7679,0.064165
3626.6997,0.063472
3627.6316,0.062260
3628.5634,0.063138
3629.4952,0.063957
3630.4271,0.065882
3631.3589,0.063140
3632.2907,0.058337
3633.2226,0.055741
3634.1544,0.055845
3635.0862,0.056916
3636.0181,0.057604
3636.9499,0.056311
3637.8817,0.054564
3638.8136,0.054717
3639.7454,0.054915
3640.6772,0.054048
3641.6091,0.052783
3642.5409,0.051743
3643.4727,0.051448
3644.4046,0.049639
3645.3364,0.048304
3646.2682,0.048838
3647.2001,0.047881
3648.1319,0.046068
3649.0637,0.046544
3649.9956,0.047176
3650.9274,0.046622
3651.8592,0.043713
3652.7911,0.040432
3653.7229,0.038226
3654.6547,0.038246
3655.5866,0.039040
3656.5184,0.039685
3657.4503,0.039387
3658.3821,0.039049
3659.3139,0.036980
3660.2458,0.035179
3661.1776,0.035300
3662.1094,0.035012
3663.0413,0.034677
3663.9731,0.034177
3664.9049,0.032156
3665.8368,0.031219
3666.7686,0.030788
3667.7004,0.029978
3668.6323,0.029507
3669.5641,0.028041
3670.4959,0.026889
3671.4278,0.027390
3672.3596,0.026196
3673.2914,0.023964
3674.2233,0.023120
3675.1551,0.023589
3676.0869,0.024075
3677.0188,0.022850
3677.9506,0.019399
3678.8824,0.017024
3679.8143,0.017636
3680.7461,0.017001
3681.6779,0.015760
3682.6098,0.016676
3683.5416,0.018113
3684.4735,0.018048
3685.4053,0.018214
3686.3371,0.018155
3687.2690,0.017134
3688.2008,0.015872
3689.1326,0.015640
3690.0645,0.016302
3690.9963,0.015190
3691.9281,0.012875
3692.8600,0.011200
3693.7918,0.010405
3694.7236,0.009990
3695.6555,0.011054
3696.5873,0.010780
3697.5191,0.010535
3698.4510,0.011555
3699.3828,0.010888
3700.3146,0.009941
3701.2465,0.009329
3702.1783,0.008783
3703.1101,0.008566
3704.0420,0.007722
3704.9738,0.007430
3705.9056,0.008063
3706.8375,0.007978
3707.7693,0.008018
3708.7011,0.007675
3709.6330,0.007247
3710.5648,0.006414
3711.4967,0.006128
3712.4285,0.007495
3713.3603,0.005772
3714.2922,0.004132
3715.2240,0.005062
3716.1558,0.004171
3717.0877,0.003680
3718.0195,0.005229
3718.9513,0.006686
3719.8832,0.006434
3720.8150,0.004821
3721.7468,0.003736
3722.6787,0.003864
3723.6105,0.005772
3724.5423,0.007007
3725.4742,0.005027
3726.4060,0.003049
3727.3378,0.004455
3728.2697,0.005265
3729.2015,0.003528
3730.1333,0.002478
3731.0652,0.001911
3731.9970,0.001376
3732.9288,0.002506
3733.8607,0.004433
3734.7925,0.005332
3735.7243,0.004862
3736.6562,0.002401
3737.5880,0.001575
3738.5199,0.002307
3739.4517,0.002635
3740.3835,0.001779
3741.3154,0.001137
3742.2472,0.001955
3743.1790,0.003876
3744.1109,0.004079
3745.0427,0.003900
3745.9745,0.003883
3746.9064,0.004199
3747.8382,0.004265
3748.7700,0.001840
3749.7019,0.001938
3750.6337,0.001817
3751.5655,0.002269
3752.4974,0.001332
3753.4292,-0.000214
3754.3610,0.001793
3755.2929,0.002922
3756.2247,0.002370
3757.1565,0.002085
3758.0884,0.001896
3759.0202,0.002224
3759.9520,0.002066
3760.8839,0.001769
3761.8157,0.001081
3762.7475,0.000115
3763.6794,0.000244
3764.6112,0.001516
3765.5431,0.002571
3766.4749,0.002539
3767.4067,0.003343
3768.3386,0.003445
3769.2704,0.002124
3770.2022,0.001786
3771.1341,0.003065
3772.0659,0.003928
3772.9977,0.003527
3773.9296,0.002367
3774.8614,0.002534
3775.7932,0.003772
3776.7251,0.003602
3777.6569,0.003595
3778.5887,0.002384
3779.5206,0.001191
3780.4524,0.002215
3781.3842,0.003940
3782.3161,0.003919
3783.2479,0.002100
3784.1797,0.000643
3785.1116,0.000909
3786.0434,0.001208
3786.9752,0.001312
3787.9071,0.002250
3788.8389,0.002248
3789.7707,0.001879
3790.7026,0.002027
3791.6344,0.001767
3792.5662,0.001612
3793.4981,0.002207
3794.4299,0.002263
3795.3618,0.001691
3796.2936,0.002432
3797.2254,0.003790
3798.1573,0.004050
3799.0891,0.003621
3800.0209,0.002948
3800.9528,0.002594
3801.8846,0.003300
3802.8164,0.002374
3803.7483,0.001631
3804.6801,0.000608
3805.6119,0.000106
3806.5438,0.000992
3807.4756,0.002079
3808.4074,0.002246
3809.3393,0.001784
3810.2711,0.000596
3811.2029,-0.000946
3812.1348,0.000705
3813.0666,0.002434
3813.9984,0.002377
3814.9303,0.002742
3815.8621,0.002984
3816.7939,0.003284
3817.7258,0.002989
3818.6576,0.002718
3819.5894,0.001560
3820.5213,0.000522
3821.4531,0.001535
3822.3850,0.000997
3823.3168,0.000154
3824.2486,0.000517
3825.1805,-0.000377
3826.1123,-0.000261
3827.0441,0.001102
3827.9760,0.001686
3828.9078,0.002072
3829.8396,0.002853
3830.7715,0.002293
3831.7033,0.001286
3832.6351,0.001358
3833.5670,0.001767
3834.4988,0.001654
3835.4306,0.001495
3836.3625,0.001107
3837.2943,0.001693
3838.2261,0.001187
3839.1580,0.000276
3840.0898,0.000730
3841.0216,0.000249
3841.9535,0.000606
3842.8853,0.001367
3843.8171,0.000940
3844.7490,0.000959
3845.6808,0.001348
3846.6126,0.001916
3847.5445,0.001635
3848.4763,0.000810
3849.4082,0.000817
3850.3400,0.001956
3851.2718,0.002976
3852.2037,0.002704
3853.1355,0.001248
3854.0673,0.000839
3854.9992,0.002142
3855.9310,0.000998
3856.8628,0.000700
3857.7947,-0.000180
3858.7265,-0.001004
3859.6583,0.000948
3860.5902,0.002167
3861.5220,0.001810
3862.4538,0.001044
3863.3857,0.000945
3864.3175,0.001465
3865.2493,0.001793
3866.1812,0.001638
3867.1130,0.001192
3868.0448,0.000276
3868.9767,-0.000970
3869.9085,-0.000208
3870.8403,0.001476
3871.7722,0.002183
3872.7040,0.001538
3873.6358,-0.000076
3874.5677,-0.000507
3875.4995,-0.000196
3876.4314,0.000996
3877.3632,0.000882
3878.2950,0.000190
3879.2269,0.000896
3880.1587,0.001861
3881.0905,0.002086
3882.0224,0.002368
3882.9542,0.002456
3883.8860,0.001349
3884.8179,-0.000211
3885.7497,0.000466
3886.6815,0.001591
3887.6134,0.002024
3888.5452,0.002187
3889.4770,0.001325
3890.4089,0.000630
3891.3407,0.001787
3892.2725,0.002080
3893.2044,0.001841
3894.1362,0.001414
3895.0680,0.000227
3895.9999,-0.001167
3896.9317,0.000081
3897.8635,0.001557
3898.7954,0.001752
3899.7272,0.002047
3900.6590,0.002530
3901.5909,0.002826
3902.5227,0.001730
3903.4546,0.000310
3904.3864,-0.000526
3905.3182,-0.001540
3906.2501,-0.002055
3907.1819,-0.000453
3908.1137,0.001543
3909.0456,0.001779
3909.9774,0.001012
3910.9092,0.000491
3911.8411,0.000630
3912.7729,0.000597
3913.7047,0.000801
3914.6366,0.001144
3915.5684,0.001953
3916.5002,0.002326
3917.4321,0.002490
3918.3639,0.003141
3919.2957,0.003461
3920.2276,0.001955
3921.1594,-0.000141
3922.0912,-0.000115
3923.0231,0.001884
3923.9549,0.002358
3924.8867,0.001438
3925.8186,0.002303
3926.7504,0.003541
3927.6822,0.002334
3928.6141,0.000576
3929.5459,-0.000005
3930.4777,0.000428
3931.4096,0.000560
3932.3414,0.000696
3933.2733,0.000419
3934.2051,0.000644
3935.1369,0.002173
3936.0688,0.002568
3937.0006,0.001266
3937.9324,0.001282
3938.8643,0.001089
3939.7961,0.000645
3940.7279,0.001143
3941.6598,0.001655
3942.5916,0.001377
3943.5234,0.001019
3944.4553,0.000918
3945.3871,0.001446
3946.3189,0.001889
3947.2508,0.001506
3948.1826,0.001626
3949.1144,0.002149
3950.0463,0.002050
3950.9781,0.001430
3951.9099,0.000335
3952.8418,0.001409
3953.7736,0.002296
3954.7054,0.002155
3955.6373,0.002530
3956.5691,0.002021
3957.5009,0.001040
3958.4328,0.000967
3959.3646,0.001477
3960.2965,0.002295
3961.2283,0.001187
3962.1601,0.000147
3963.0920,0.000799
3964.0238,0.000430
3964.9556,0.000663
3965.8875,0.001716
3966.8193,0.001579
3967.7511,0.001531
3968.6830,0.001140
3969.6148,0.001785
3970.5466,0.002314
3971.4785,0.001454
3972.4103,0.000991
3973.3421,0.001155
3974.2740,0.001407
3975.2058,0.002435
3976.1376,0.002612
3977.0695,0.001576
3978.0013,0.001048
3978.9331,0.001299
3979.8650,0.001395
3980.7968,0.001662
3981.7286,0.002165
3982.6605,0.002328
3983.5923,0.002361
3984.5241,0.002429
3985.4560,0.001647
3986.3878,0.001204
3987.3197,0.002270
3988.2515,0.002578
3989.1833,0.002100
3990.1152,0.001348
3991.0470,0.000943
3991.9788,0.002132
3992.9107,0.002907
3993.8425,0.002290
3994.7743,0.000830
3995.7062,0.000464
3996.6380,0.000688
3997.5698,0.001088
3998.5017,0.002183
3999.4335,0.002684
4000.3653,0.001499
