Wavenumber,Intensity
650.4205,0.405463
651.3523,0.406657
652.2841,0.396038
653.2160,0.381575
654.1478,0.378693
655.0796,0.382677
656.0115,0.386239
656.9433,0.380705
657.8751,0.381395
658.8070,0.391854
659.7388,0.390026
660.6706,0.384114
661.6025,0.381568
662.5343,0.381041
663.4661,0.375897
664.3980,0.375872
665.3298,0.384513
666.2616,0.382853
667.1935,0.366323
668.1253,0.350514
669.0571,0.362715
669.9890,0.374734
670.9208,0.377507
671.8526,0.379884
672.7845,0.375125
673.7163,0.366105
674.6481,0.360365
675.5800,0.360461
676.5118,0.362729
677.4437,0.366336
678.3755,0.364233
679.3073,0.353324
680.2392,0.351784
681.1710,0.353924
682.1028,0.347888
683.0347,0.347593
683.9665,0.353259
684.8983,0.356026
685.8302,0.352403
686.7620,0.348929
687.6938,0.347670
688.6257,0.343360
689.5575,0.341556
690.4893,0.344313
691.4212,0.343690
692.3530,0.339525
693.2848,0.335912
694.2167,0.333154
695.1485,0.331946
696.0803,0.334411
697.0122,0.336430
697.9440,0.337840
698.8758,0.333005
699.8077,0.327310
700.7395,0.328310
701.6713,0.329016
702.6032,0.327914
703.5350,0.328326
704.4669,0.325076
705.3987,0.323045
706.3305,0.324650
707.2624,0.324094
708.1942,0.318647
709.1260,0.313603
710.0579,0.312569
710.9897,0.313793
711.9215,0.313457
712.8534,0.311264
713.7852,0.307087
714.7170,0.308426
715.6489,0.311234
716.5807,0.307016
717.5125,0.302700
718.4444,0.300693
719.3762,0.298929
720.3080,0.299846
721.2399,0.301558
722.1717,0.302777
723.1035,0.299415
724.0354,0.296797
724.9672,0.295002
725.8990,0.293789
726.8309,0.293607
727.7627,0.292759
728.6945,0.289455
729.6264,0.287104
730.5582,0.285578
731.4901,0.282057
732.4219,0.279820
733.3537,0.282235
734.2856,0.281984
735.2174,0.280308
736.1492,0.279823
737.0811,0.279939
738.0129,0.278996
738.9447,0.278662
739.8766,0.276232
740.8084,0.272876
741.7402,0.272012
742.6721,0.271984
743.6039,0.271214
744.5357,0.268791
745.4676,0.263352
746.3994,0.261031
747.3312,0.259931
748.2631,0.258067
749.1949,0.258434
750.1267,0.260023
751.0586,0.259277
751.9904,0.256893
752.9222,0.253609
753.8541,0.252195
754.7859,0.251166
755.7177,0.250598
756.6496,0.250125
757.5814,0.248634
758.5132,0.248562
759.4451,0.248457
760.3769,0.245424
761.3088,0.242373
762.2406,0.240937
763.1724,0.241069
764.1043,0.239948
765.0361,0.238975
765.9679,0.238522
766.8998,0.235931
767.8316,0.233529
768.7634,0.233039
769.6953,0.232191
770.6271,0.230458
771.5589,0.228681
772.4908,0.228018
773.4226,0.226360
774.3544,0.224518
775.2863,0.223133
776.2181,0.221999
777.1499,0.221827
778.0818,0.222218
779.0136,0.221398
779.9454,0.219454
780.8773,0.217707
781.8091,0.215415
782.7409,0.212792
783.6728,0.211506
784.6046,0.212204
785.5364,0.211683
786.4683,0.208557
787.4001,0.206492
788.3320,0.206269
789.2638,0.204745
790.1956,0.202697
791.1275,0.202117
792.0593,0.202162
792.9911,0.202522
793.9230,0.200303
794.8548,0.198154
795.7866,0.196642
796.7185,0.194977
797.6503,0.193439
798.5821,0.192519
799.5140,0.191947
800.4458,0.191913
801.3776,0.191592
802.3095,0.191614
803.2413,0.190126
804.1731,0.187908
805.1050,0.185919
806.0368,0.184149
806.9686,0.182354
807.9005,0.181163
808.8323,0.180442
809.7641,0.179669
810.6960,0.177822
811.6278,0.176403
812.5596,0.174822
813.4915,0.173087
814.4233,0.172812
815.3552,0.172566
816.2870,0.170110
817.2188,0.168670
818.1507,0.167960
819.0825,0.166700
820.0143,0.165300
820.9462,0.164660
821.8780,0.163126
822.8098,0.160542
823.7417,0.160281
824.6735,0.159946
825.6053,0.158904
826.5372,0.158462
827.4690,0.156459
828.4008,0.154382
829.3327,0.152883
830.2645,0.152086
831.1963,0.152532
832.1282,0.151934
833.0600,0.150726
833.9918,0.149509
834.9237,0.147688
835.8555,0.146579
836.7873,0.145946
837.7192,0.145292
838.6510,0.143803
839.5828,0.142149
840.5147,0.141876
841.4465,0.141053
842.3784,0.139187
843.3102,0.138107
844.2420,0.137595
845.1739,0.136653
846.1057,0.134880
847.0375,0.134167
847.9694,0.133954
848.9012,0.132794
849.8330,0.131454
850.7649,0.131322
851.6967,0.131046
852.6285,0.129950
853.5604,0.129557
854.4922,0.129523
855.4240,0.128314
856.3559,0.127445
857.2877,0.126586
858.2195,0.125131
859.1514,0.124824
860.0832,0.124801
861.0150,0.123624
861.9469,0.123259
862.8787,0.123377
863.8105,0.123129
864.7424,0.122413
865.6742,0.122216
866.6060,0.122508
867.5379,0.122841
868.4697,0.123241
869.4016,0.124363
870.3334,0.125858
871.2652,0.127747
872.1971,0.129541
873.1289,0.131720
874.0607,0.134553
874.9926,0.137244
875.9244,0.139584
876.8562,0.140854
877.7881,0.141537
878.7199,0.141103
879.6517,0.138468
880.5836,0.134488
881.5154,0.130397
882.4472,0.125912
883.3791,0.120739
884.3109,0.116526
885.2427,0.112834
886.1746,0.108860
887.1064,0.105496
888.0382,0.102930
888.9701,0.100635
889.9019,0.098356
890.8337,0.096299
891.7656,0.094982
892.6974,0.093965
893.6292,0.092859
894.5611,0.091679
895.4929,0.090667
896.4247,0.089479
897.3566,0.088396
898.2884,0.087430
899.2203,0.086599
900.1521,0.085971
901.0839,0.085712
902.0158,0.084996
902.9476,0.083838
903.8794,0.083284
904.8113,0.083276
905.7431,0.082598
906.6749,0.081606
907.6068,0.080941
908.5386,0.080166
909.4704,0.079517
910.4023,0.078840
911.3341,0.078456
912.2659,0.078176
913.1978,0.077577
914.1296,0.076954
915.0614,0.076239
915.9933,0.075610
916.9251,0.075088
917.8569,0.074567
918.7888,0.074047
919.7206,0.073546
920.6524,0.073285
921.5843,0.072925
922.5161,0.072362
923.4479,0.072026
924.3798,0.071669
925.3116,0.071237
926.2435,0.070732
927.1753,0.070245
928.1071,0.069786
929.0390,0.069256
929.9708,0.068669
930.9026,0.068168
931.8345,0.068085
932.7663,0.067657
933.6981,0.066969
934.6300,0.066578
935.5618,0.066604
936.4936,0.066945
937.4255,0.066760
938.3573,0.065692
939.2891,0.065059
940.2210,0.065254
941.1528,0.065065
942.0846,0.064623
943.0165,0.063780
943.9483,0.063253
944.8801,0.063186
945.8120,0.063314
946.7438,0.062922
947.6756,0.062310
948.6075,0.062078
949.5393,0.062253
950.4711,0.061972
951.4030,0.061407
952.3348,0.060990
953.2667,0.060715
954.1985,0.060621
955.1303,0.060484
956.0622,0.060213
956.9940,0.060050
957.9258,0.059590
958.8577,0.059025
959.7895,0.058921
960.7213,0.058972
961.6532,0.058860
962.5850,0.058963
963.5168,0.058711
964.4487,0.058106
965.3805,0.057575
966.3123,0.057192
967.2442,0.057124
968.1760,0.057360
969.1078,0.057517
970.0397,0.057349
970.9715,0.057158
971.9033,0.056735
972.8352,0.056558
973.7670,0.056621
974.6988,0.056417
975.6307,0.056038
976.5625,0.055981
977.4943,0.056015
978.4262,0.056128
979.3580,0.055877
980.2899,0.055554
981.2217,0.055454
982.1535,0.055629
983.0854,0.055544
984.0172,0.055339
984.9490,0.055194
985.8809,0.055178
986.8127,0.055126
987.7445,0.054768
988.6764,0.054605
989.6082,0.054832
990.5400,0.055086
991.4719,0.055077
992.4037,0.054714
993.3355,0.054460
994.2674,0.054726
995.1992,0.054864
996.1310,0.054705
997.0629,0.054765
997.9947,0.055087
998.9265,0.055176
999.8584,0.054953
1000.7902,0.054805
1001.7220,0.054777
1002.6539,0.054996
1003.5857,0.055141
1004.5175,0.054991
1005.4494,0.055162
1006.3812,0.055476
1007.3131,0.055621
1008.2449,0.055868
1009.1767,0.056263
1010.1086,0.056577
1011.0404,0.056895
1011.9722,0.057272
1012.9041,0.057480
1013.8359,0.057712
1014.7677,0.058231
1015.6996,0.058724
1016.6314,0.059111
1017.5632,0.059742
1018.4951,0.060353
1019.4269,0.061195
1020.3587,0.062314
1021.2906,0.062926
1022.2224,0.063469
1023.1542,0.064563
1024.0861,0.065866
1025.0179,0.067351
1025.9497,0.068993
1026.8816,0.070846
1027.8134,0.072879
1028.7452,0.074898
1029.6771,0.077438
1030.6089,0.080363
1031.5407,0.083711
1032.4726,0.087442
1033.4044,0.091822
1034.3362,0.097150
1035.2681,0.103074
1036.1999,0.109627
1037.1318,0.117333
1038.0636,0.125956
1038.9954,0.135105
1039.9273,0.144683
1040.8591,0.154368
1041.7909,0.162973
1042.7228,0.169955
1043.6546,0.174870
1044.5864,0.176893
1045.5183,0.175358
1046.4501,0.170403
1047.3819,0.162930
1048.3138,0.153603
1049.2456,0.143140
1050.1774,0.132319
1051.1093,0.121408
1052.0411,0.110948
1052.9729,0.101808
1053.9048,0.093839
1054.8366,0.087136
1055.7684,0.081632
1056.7003,0.076801
1057.6321,0.072660
1058.5639,0.069446
1059.4958,0.067042
1060.4276,0.065139
1061.3594,0.063744
1062.2913,0.062594
1063.2231,0.061625
1064.1550,0.061013
1065.0868,0.060674
1066.0186,0.060470
1066.9505,0.060810
1067.8823,0.061466
1068.8141,0.061718
1069.7460,0.061826
1070.6778,0.062585
1071.6096,0.063544
1072.5415,0.064705
1073.4733,0.065908
1074.4051,0.066889
1075.3370,0.068421
1076.2688,0.070280
1077.2006,0.072057
1078.1325,0.073637
1079.0643,0.075330
1079.9961,0.077095
1080.9280,0.078995
1081.8598,0.080979
1082.7916,0.082305
1083.7235,0.083275
1084.6553,0.083881
1085.5871,0.083741
1086.5190,0.082997
1087.4508,0.082123
1088.3826,0.080731
1089.3145,0.078985
1090.2463,0.076977
1091.1782,0.074509
1092.1100,0.071403
1093.0418,0.068444
1093.9737,0.065899
1094.9055,0.063624
1095.8373,0.061283
1096.7692,0.059071
1097.7010,0.057302
1098.6328,0.055777
1099.5647,0.054439
1100.4965,0.053180
1101.4283,0.052072
1102.3602,0.050997
1103.2920,0.050044
1104.2238,0.049174
1105.1557,0.048559
1106.0875,0.048303
1107.0193,0.048057
1107.9512,0.047541
1108.8830,0.047144
1109.8148,0.046868
1110.7467,0.046596
1111.6785,0.046416
1112.6103,0.046184
1113.5422,0.045891
1114.4740,0.045687
1115.4058,0.045789
1116.3377,0.045764
1117.2695,0.045599
1118.2014,0.045670
1119.1332,0.045700
1120.0650,0.045336
1120.9969,0.045221
1121.9287,0.045462
1122.8605,0.045574
1123.7924,0.045555
1124.7242,0.045218
1125.6560,0.044899
1126.5879,0.045111
1127.5197,0.045228
1128.4515,0.045105
1129.3834,0.044932
1130.3152,0.044976
1131.2470,0.045029
1132.1789,0.044898
1133.1107,0.044692
1134.0425,0.044542
1134.9744,0.044673
1135.9062,0.044657
1136.8380,0.044427
1137.7699,0.044372
1138.7017,0.044215
1139.6335,0.043991
1140.5654,0.043891
1141.4972,0.043988
1142.4290,0.044087
1143.3609,0.043880
1144.2927,0.043714
1145.2246,0.043560
1146.1564,0.043686
1147.0882,0.043803
1148.0201,0.043773
1148.9519,0.043858
1149.8837,0.043751
1150.8156,0.043897
1151.7474,0.043970
1152.6792,0.043788
1153.6111,0.043829
1154.5429,0.043802
1155.4747,0.043758
1156.4066,0.043849
1157.3384,0.043781
1158.2702,0.043570
1159.2021,0.043436
1160.1339,0.043305
1161.0657,0.043250
1161.9976,0.043219
1162.9294,0.043182
1163.8612,0.043101
1164.7931,0.042807
1165.7249,0.042672
1166.6567,0.042832
1167.5886,0.042768
1168.5204,0.042532
1169.4522,0.042512
1170.3841,0.042428
1171.3159,0.042392
1172.2477,0.042136
1173.1796,0.042067
1174.1114,0.042339
1175.0433,0.042330
1175.9751,0.042201
1176.9069,0.041954
1177.8388,0.041769
1178.7706,0.042049
1179.7024,0.042293
1180.6343,0.042236
1181.5661,0.042115
1182.4979,0.042161
1183.4298,0.042290
1184.3616,0.042159
1185.2934,0.042121
1186.2253,0.042266
1187.1571,0.042283
1188.0889,0.042174
1189.0208,0.042098
1189.9526,0.042155
1190.8844,0.042166
1191.8163,0.042268
1192.7481,0.042483
1193.6799,0.042446
1194.6118,0.042216
1195.5436,0.042163
1196.4754,0.042127
1197.4073,0.042050
1198.3391,0.042119
1199.2709,0.042249
1200.2028,0.042372
1201.1346,0.042389
1202.0665,0.042316
1202.9983,0.042262
1203.9301,0.042335
1204.8620,0.042394
1205.7938,0.042389
1206.7256,0.042292
1207.6575,0.042180
1208.5893,0.042222
1209.5211,0.042400
1210.4530,0.042617
1211.3848,0.042604
1212.3166,0.042612
1213.2485,0.042749
1214.1803,0.042657
1215.1121,0.042420
1216.0440,0.042451
1216.9758,0.042639
1217.9076,0.042558
1218.8395,0.042479
1219.7713,0.042612
1220.7031,0.042913
1221.6350,0.042781
1222.5668,0.042659
1223.4986,0.042845
1224.4305,0.042788
1225.3623,0.042839
1226.2941,0.043070
1227.2260,0.043041
1228.1578,0.043211
1229.0897,0.043299
1230.0215,0.043337
1230.9533,0.043212
1231.8852,0.043254
1232.8170,0.043327
1233.7488,0.043233
1234.6807,0.043474
1235.6125,0.043679
1236.5443,0.043548
1237.4762,0.043450
1238.4080,0.043569
1239.3398,0.043526
1240.2717,0.043648
1241.2035,0.043970
1242.1353,0.043874
1243.0672,0.043777
1243.9990,0.043802
1244.9308,0.044342
1245.8627,0.044652
1246.7945,0.044602
1247.7263,0.044490
1248.6582,0.044522
1249.5900,0.044714
1250.5218,0.044884
1251.4537,0.044688
1252.3855,0.044683
1253.3173,0.044833
1254.2492,0.045348
1255.1810,0.045678
1256.1129,0.045718
1257.0447,0.045817
1257.9765,0.045876
1258.9084,0.046016
1259.8402,0.046199
1260.7720,0.046475
1261.7039,0.047001
1262.6357,0.047120
1263.5675,0.047283
1264.4994,0.047773
1265.4312,0.048132
1266.3630,0.048373
1267.2949,0.048731
1268.2267,0.049100
1269.1585,0.049670
1270.0904,0.050241
1271.0222,0.050581
1271.9540,0.050652
1272.8859,0.050811
1273.8177,0.050916
1274.7495,0.050804
1275.6814,0.050773
1276.6132,0.050544
1277.5450,0.050576
1278.4769,0.050616
1279.4087,0.050269
1280.3405,0.049960
1281.2724,0.049473
1282.2042,0.048941
1283.1361,0.048797
1284.0679,0.048781
1284.9997,0.048714
1285.9316,0.048639
1286.8634,0.048488
1287.7952,0.048243
1288.7271,0.048327
1289.6589,0.048452
1290.5907,0.048397
1291.5226,0.048275
1292.4544,0.048295
1293.3862,0.048414
1294.3181,0.048509
1295.2499,0.048549
1296.1817,0.048400
1297.1136,0.048409
1298.0454,0.048853
1298.9772,0.049473
1299.9091,0.049517
1300.8409,0.049252
1301.7727,0.049357
1302.7046,0.049608
1303.6364,0.049713
1304.5682,0.049581
1305.5001,0.049715
1306.4319,0.050137
1307.3637,0.050340
1308.2956,0.050552
1309.2274,0.050572
1310.1592,0.050416
1311.0911,0.050454
1312.0229,0.050721
1312.9548,0.051066
1313.8866,0.051407
1314.8184,0.051571
1315.7503,0.051588
1316.6821,0.051533
1317.6139,0.051817
1318.5458,0.052036
1319.4776,0.051970
1320.4094,0.052069
1321.3413,0.052260
1322.2731,0.052421
1323.2049,0.052163
1324.1368,0.051948
1325.0686,0.051976
1326.0004,0.052031
1326.9323,0.051939
1327.8641,0.052095
1328.7959,0.052164
1329.7278,0.052059
1330.6596,0.052009
1331.5914,0.051748
1332.5233,0.051746
1333.4551,0.051754
1334.3869,0.051235
1335.3188,0.050781
1336.2506,0.050361
1337.1824,0.049973
1338.1143,0.049854
1339.0461,0.050131
1339.9780,0.050574
1340.9098,0.050828
1341.8416,0.050620
1342.7735,0.049925
1343.7053,0.049530
1344.6371,0.049375
1345.5690,0.049284
1346.5008,0.048912
1347.4326,0.048589
1348.3645,0.048668
1349.2963,0.048322
1350.2281,0.048151
1351.1600,0.048304
1352.0918,0.048226
1353.0236,0.048305
1353.9555,0.048256
1354.8873,0.048161
1355.8191,0.047940
1356.7510,0.047459
1357.6828,0.047179
1358.6146,0.047190
1359.5465,0.047214
1360.4783,0.047334
1361.4101,0.047802
1362.3420,0.048163
1363.2738,0.048418
1364.2056,0.049358
1365.1375,0.049505
1366.0693,0.048963
1367.0012,0.048710
1367.9330,0.048643
1368.8648,0.048963
1369.7967,0.049779
1370.7285,0.050283
1371.6603,0.050421
1372.5922,0.050954
1373.5240,0.051669
1374.4558,0.053002
1375.3877,0.054906
1376.3195,0.055691
1377.2513,0.055651
1378.1832,0.055829
1379.1150,0.056253
1380.0468,0.056640
1380.9787,0.057152
1381.9105,0.057590
1382.8423,0.057844
1383.7742,0.057693
1384.7060,0.057517
1385.6378,0.057511
1386.5697,0.057562
1387.5015,0.058156
1388.4333,0.059256
1389.3652,0.058787
1390.2970,0.057477
1391.2288,0.056801
1392.1607,0.056416
1393.0925,0.056058
1394.0244,0.055422
1394.9562,0.055743
1395.8880,0.056807
1396.8199,0.056746
1397.7517,0.056240
1398.6835,0.056125
1399.6154,0.056921
1400.5472,0.057724
1401.4790,0.057161
1402.4109,0.056617
1403.3427,0.056364
1404.2745,0.056345
1405.2064,0.056916
1406.1382,0.058026
1407.0700,0.058053
1408.0019,0.057414
1408.9337,0.057311
1409.8655,0.057307
1410.7974,0.057406
1411.7292,0.057432
1412.6610,0.057554
1413.5929,0.057803
1414.5247,0.057433
1415.4565,0.056897
1416.3884,0.056596
1417.3202,0.056879
1418.2520,0.057593
1419.1839,0.058269
1420.1157,0.059373
1421.0476,0.059409
1421.9794,0.057760
1422.9112,0.056592
1423.8431,0.056284
1424.7749,0.056784
1425.7067,0.057084
1426.6386,0.056267
1427.5704,0.055302
1428.5022,0.054872
1429.4341,0.054889
1430.3659,0.055017
1431.2977,0.055096
1432.2296,0.054066
1433.1614,0.053059
1434.0932,0.052568
1435.0251,0.051960
1435.9569,0.051764
1436.8887,0.052863
1437.8206,0.054948
1438.7524,0.054583
1439.6842,0.052918
1440.6161,0.052064
1441.5479,0.052051
1442.4797,0.052056
1443.4116,0.051858
1444.3434,0.052105
1445.2752,0.052486
1446.2071,0.053115
1447.1389,0.053535
1448.0707,0.054232
1449.0026,0.056061
1449.9344,0.056914
1450.8663,0.056284
1451.7981,0.055782
1452.7299,0.055900
1453.6618,0.055911
1454.5936,0.054886
1455.5254,0.054039
1456.4573,0.054457
1457.3891,0.056650
1458.3209,0.058216
1459.2528,0.056646
1460.1846,0.054063
1461.1164,0.052271
1462.0483,0.050809
1462.9801,0.049574
1463.9119,0.048740
1464.8438,0.048182
1465.7756,0.048679
1466.7074,0.048655
1467.6393,0.047308
1468.5711,0.046325
1469.5029,0.045721
1470.4348,0.045111
1471.3666,0.044677
1472.2984,0.044860
1473.2303,0.045879
1474.1621,0.046827
1475.0939,0.047251
1476.0258,0.046778
1476.9576,0.046897
1477.8895,0.047470
1478.8213,0.046911
1479.7531,0.046678
1480.6850,0.046741
1481.6168,0.046583
1482.5486,0.046937
1483.4805,0.047162
1484.4123,0.046690
1485.3441,0.046339
1486.2760,0.045938
1487.2078,0.045494
1488.1396,0.046024
1489.0715,0.046700
1490.0033,0.046871
1490.9351,0.048145
1491.8670,0.048079
1492.7988,0.046032
1493.7306,0.044470
1494.6625,0.043637
1495.5943,0.043201
1496.5261,0.043642
1497.4580,0.045196
1498.3898,0.045441
1499.3216,0.044948
1500.2535,0.045094
1501.1853,0.044544
1502.1171,0.043702
1503.0490,0.043237
1503.9808,0.042829
1504.9127,0.042067
1505.8445,0.041941
1506.7763,0.043599
1507.7082,0.047389
1508.6400,0.048249
1509.5718,0.047214
1510.5037,0.046761
1511.4355,0.045590
1512.3673,0.044445
1513.2992,0.044548
1514.2310,0.044295
1515.1628,0.043441
1516.0947,0.043334
1517.0265,0.043996
1517.9583,0.044895
1518.8902,0.045101
1519.8220,0.043937
1520.7538,0.043246
1521.6857,0.043964
1522.6175,0.045829
1523.5493,0.046913
1524.4812,0.046517
1525.4130,0.045542
1526.3448,0.045999
1527.2767,0.046580
1528.2085,0.046354
1529.1403,0.046161
1530.0722,0.045962
1531.0040,0.045675
1531.9359,0.045642
1532.8677,0.046243
1533.7995,0.046829
1534.7314,0.048225
1535.6632,0.048459
1536.5950,0.046532
1537.5269,0.045033
1538.4587,0.044795
1539.3905,0.045556
1540.3224,0.048967
1541.2542,0.052501
1542.1860,0.051375
1543.1179,0.050374
1544.0497,0.050344
1544.9815,0.050423
1545.9134,0.050850
1546.8452,0.051008
1547.7770,0.049921
1548.7089,0.049104
1549.6407,0.048978
1550.5725,0.049373
1551.5044,0.050412
1552.4362,0.050551
1553.3680,0.049874
1554.2999,0.049316
1555.2317,0.049994
1556.1635,0.050809
1557.0954,0.050129
1558.0272,0.049945
1558.9591,0.052518
1559.8909,0.059244
1560.8227,0.061203
1561.7546,0.058913
1562.6864,0.056380
1563.6182,0.055002
1564.5501,0.054595
1565.4819,0.055055
1566.4137,0.056259
1567.3456,0.056279
1568.2774,0.055710
1569.2092,0.056279
1570.1411,0.058254
1571.0729,0.060332
1572.0047,0.059933
1572.9366,0.058817
1573.8684,0.058838
1574.8002,0.059290
1575.7321,0.059788
1576.6639,0.062413
1577.5957,0.066952
1578.5276,0.067176
1579.4594,0.065574
1580.3912,0.064993
1581.3231,0.065360
1582.2549,0.066130
1583.1867,0.066848
1584.1186,0.067725
1585.0504,0.068953
1585.9822,0.069805
1586.9141,0.070274
1587.8459,0.071026
1588.7778,0.072153
1589.7096,0.073319
1590.6414,0.074158
1591.5733,0.075398
1592.5051,0.076944
1593.4369,0.078165
1594.3688,0.079344
1595.3006,0.080722
1596.2324,0.082157
1597.1643,0.083578
1598.0961,0.085003
1599.0279,0.086573
1599.9598,0.087665
1600.8916,0.088657
1601.8234,0.090365
1602.7553,0.092531
1603.6871,0.094505
1604.6189,0.096209
1605.5508,0.097581
1606.4826,0.098975
1607.4144,0.101296
1608.3463,0.103513
1609.2781,0.105524
1610.2099,0.108196
1611.1418,0.110330
1612.0736,0.111147
1613.0054,0.111840
1613.9373,0.113689
1614.8691,0.115421
1615.8010,0.117019
1616.7328,0.121412
1617.6646,0.129778
1618.5965,0.134825
1619.5283,0.132791
1620.4601,0.130888
1621.3920,0.132003
1622.3238,0.134309
1623.2556,0.136631
1624.1875,0.141293
1625.1193,0.146382
1626.0511,0.146721
1626.9830,0.146513
1627.9148,0.148404
1628.8466,0.151584
1629.7785,0.152992
1630.7103,0.152354
1631.6421,0.151934
1632.5740,0.151993
1633.5058,0.151714
1634.4376,0.151496
1635.3695,0.153985
1636.3013,0.161814
1637.2331,0.167495
1638.1650,0.165183
1639.0968,0.162538
1640.0286,0.159944
1640.9605,0.157569
1641.8923,0.155911
1642.8242,0.154749
1643.7560,0.154236
1644.6878,0.152935
1645.6197,0.151582
1646.5515,0.152518
1647.4833,0.155311
1648.4152,0.155775
1649.3470,0.153496
1650.2788,0.149380
1651.2107,0.145224
1652.1425,0.142963
1653.0743,0.144265
1654.0062,0.150659
1654.9380,0.153751
1655.8698,0.147861
1656.8017,0.141438
1657.7335,0.137908
1658.6653,0.135814
1659.5972,0.133502
1660.5290,0.131606
1661.4608,0.130001
1662.3927,0.128487
1663.3245,0.127248
1664.2563,0.126135
1665.1882,0.123296
1666.1200,0.120077
1667.0518,0.117797
1667.9837,0.116133
1668.9155,0.114806
1669.8474,0.113702
1670.7792,0.112167
1671.7110,0.110221
1672.6429,0.108475
1673.5747,0.106448
1674.5065,0.103392
1675.4384,0.101268
1676.3702,0.101501
1677.3020,0.100503
1678.2339,0.097213
1679.1657,0.093966
1680.0975,0.091483
1681.0294,0.090575
1681.9612,0.089438
1682.8930,0.087101
1683.8249,0.085737
1684.7567,0.085956
1685.6885,0.085026
1686.6204,0.082044
1687.5522,0.079210
1688.4840,0.076987
1689.4159,0.075345
1690.3477,0.073794
1691.2795,0.072387
1692.2114,0.070697
1693.1432,0.068917
1694.0750,0.067168
1695.0069,0.064992
1695.9387,0.063554
1696.8706,0.063858
1697.8024,0.063510
1698.7342,0.060726
1699.6661,0.058157
1700.5979,0.057357
1701.5297,0.058415
1702.4616,0.057221
1703.3934,0.054445
1704.3252,0.052614
1705.2571,0.051691
1706.1889,0.051018
1707.1207,0.050607
1708.0526,0.049983
1708.9844,0.048681
1709.9162,0.047191
1710.8481,0.045572
1711.7799,0.044338
1712.7117,0.043375
1713.6436,0.041893
1714.5754,0.040367
1715.5072,0.040265
1716.4391,0.040800
1717.3709,0.039821
1718.3027,0.038808
1719.2346,0.038894
1720.1664,0.038453
1721.0982,0.036637
1722.0301,0.035426
1722.9619,0.034808
1723.8937,0.034030
1724.8256,0.033697
1725.7574,0.033616
1726.6893,0.032906
1727.6211,0.031891
1728.5529,0.031093
1729.4848,0.030498
1730.4166,0.030200
1731.3484,0.029928
1732.2803,0.029009
1733.2121,0.028384
1734.1439,0.028195
1735.0758,0.027834
1736.0076,0.028037
1736.9394,0.027682
1737.8713,0.026623
1738.8031,0.025759
1739.7349,0.025143
1740.6668,0.025100
1741.5986,0.025575
1742.5304,0.025343
1743.4623,0.024692
1744.3941,0.024129
1745.3259,0.023802
1746.2578,0.023886
1747.1896,0.023700
1748.1214,0.023135
1749.0533,0.023001
1749.9851,0.022786
1750.9169,0.022349
1751.8488,0.022178
1752.7806,0.022321
1753.7125,0.022084
1754.6443,0.021451
1755.5761,0.021178
1756.5080,0.020916
1757.4398,0.020349
1758.3716,0.020237
1759.3035,0.020267
1760.2353,0.019636
1761.1671,0.018814
1762.0990,0.018686
1763.0308,0.019389
1763.9626,0.019458
1764.8945,0.018802
1765.8263,0.018437
1766.7581,0.018445
1767.6900,0.018126
1768.6218,0.017687
1769.5536,0.018158
1770.4855,0.018240
1771.4173,0.017386
1772.3491,0.016969
1773.2810,0.017310
1774.2128,0.017461
1775.1446,0.017245
1776.0765,0.017071
1777.0083,0.016791
1777.9401,0.016285
1778.8720,0.016204
1779.8038,0.016432
1780.7357,0.016352
1781.6675,0.016480
1782.5993,0.016515
1783.5312,0.015840
1784.4630,0.015288
1785.3948,0.015160
1786.3267,0.015432
1787.2585,0.015616
1788.1903,0.015094
1789.1222,0.014705
1790.0540,0.014911
1790.9858,0.014744
1791.9177,0.014166
1792.8495,0.014118
1793.7813,0.014543
1794.7132,0.014833
1795.6450,0.014535
1796.5768,0.013973
1797.5087,0.013895
1798.4405,0.013610
1799.3723,0.013299
1800.3042,0.013389
1801.2360,0.013182
1802.1678,0.013028
1803.0997,0.012898
1804.0315,0.013330
1804.9633,0.013983
1805.8952,0.013584
1806.8270,0.013312
1807.7589,0.013434
1808.6907,0.013111
1809.6225,0.012772
1810.5544,0.013119
1811.4862,0.013341
1812.4180,0.013090
1813.3499,0.013022
1814.2817,0.012534
1815.2135,0.012059
1816.1454,0.012123
1817.0772,0.012117
1818.0090,0.012551
1818.9409,0.013289
1819.8727,0.013329
1820.8045,0.012777
1821.7364,0.012176
1822.6682,0.011709
1823.6000,0.011485
1824.5319,0.011454
1825.4637,0.011772
1826.3955,0.011856
1827.3274,0.010872
1828.2592,0.010963
1829.1910,0.011803
1830.1229,0.011312
1831.0547,0.010784
1831.9865,0.011278
1832.9184,0.011129
1833.8502,0.011140
1834.7821,0.011556
1835.7139,0.011489
1836.6457,0.011525
1837.5776,0.011492
1838.5094,0.011131
1839.4412,0.011585
1840.3731,0.012232
1841.3049,0.012117
1842.2367,0.011532
1843.1686,0.010932
1844.1004,0.010572
1845.0322,0.010592
1845.9641,0.010190
1846.8959,0.009924
1847.8277,0.010184
1848.7596,0.010790
1849.6914,0.011293
1850.6232,0.010997
1851.5551,0.010602
1852.4869,0.010165
1853.4187,0.009837
1854.3506,0.010439
1855.2824,0.011110
1856.2142,0.011118
1857.1461,0.011001
1858.0779,0.010767
1859.0097,0.010693
1859.9416,0.010670
1860.8734,0.010040
1861.8052,0.010054
1862.7371,0.010932
1863.6689,0.011302
1864.6008,0.010935
1865.5326,0.009943
1866.4644,0.009223
1867.3963,0.009521
1868.3281,0.010017
1869.2599,0.010036
1870.1918,0.009682
1871.1236,0.009816
1872.0554,0.010062
1872.9873,0.010168
1873.9191,0.010587
1874.8509,0.010872
1875.7828,0.010610
1876.7146,0.010032
1877.6464,0.010911
1878.5783,0.011557
1879.5101,0.010767
1880.4419,0.010132
1881.3738,0.009566
1882.3056,0.009289
1883.2374,0.009668
1884.1693,0.009969
1885.1011,0.010493
1886.0329,0.010701
1886.9648,0.010540
1887.8966,0.010191
1888.8284,0.009398
1889.7603,0.009181
1890.6921,0.008976
1891.6240,0.009732
1892.5558,0.010372
1893.4876,0.009619
1894.4195,0.009285
1895.3513,0.009140
1896.2831,0.008840
1897.2150,0.009342
1898.1468,0.010399
1899.0786,0.011096
1900.0105,0.010591
1900.9423,0.009080
1901.8741,0.008839
1902.8060,0.009581
1903.7378,0.010096
1904.6696,0.010895
1905.6015,0.010886
1906.5333,0.009837
1907.4651,0.009338
1908.3970,0.009401
1909.3288,0.010578
1910.2606,0.011343
1911.1925,0.010051
1912.1243,0.008623
1913.0561,0.010165
1913.9880,0.011441
1914.9198,0.009964
1915.8516,0.009446
1916.7835,0.009616
1917.7153,0.009224
1918.6472,0.009608
1919.5790,0.010436
1920.5108,0.011244
1921.4427,0.011007
1922.3745,0.010354
1923.3063,0.009950
1924.2382,0.009880
1925.1700,0.009338
1926.1018,0.008956
1927.0337,0.009284
1927.9655,0.009969
1928.8973,0.009450
1929.8292,0.009344
1930.7610,0.010666
1931.6928,0.010605
1932.6247,0.010317
1933.5565,0.009323
1934.4883,0.008189
1935.4202,0.008365
1936.3520,0.008428
1937.2838,0.007860
1938.2157,0.008609
1939.1475,0.009692
1940.0793,0.008732
1941.0112,0.006940
1941.9430,0.006225
1942.8748,0.006662
1943.8067,0.007621
1944.7385,0.006701
1945.6704,0.007854
1946.6022,0.009287
1947.5340,0.007598
1948.4659,0.004587
1949.3977,0.005605
1950.3295,0.007445
1951.2614,0.009136
1952.1932,0.009620
1953.1250,0.008665
1954.0569,0.008794
1954.9887,0.008180
1955.9205,0.007072
1956.8524,0.007416
1957.7842,0.009101
1958.7160,0.009110
1959.6479,0.007177
1960.5797,0.007504
1961.5115,0.008497
1962.4434,0.006228
1963.3752,0.005198
1964.3070,0.004534
1965.2389,0.002952
1966.1707,0.002945
1967.1025,0.006605
1968.0344,0.010964
1968.9662,0.008995
1969.8980,0.003182
1970.8299,0.000663
1971.7617,0.004679
1972.6936,0.005727
1973.6254,0.003306
1974.5572,0.002084
1975.4891,0.003286
1976.4209,0.004796
1977.3527,0.004725
1978.2846,0.005279
1979.2164,0.004841
1980.1482,0.005520
1981.0801,0.009004
1982.0119,0.008706
1982.9437,0.007753
1983.8756,0.007750
1984.8074,0.006611
1985.7392,0.005906
1986.6711,0.005700
1987.6029,0.006378
1988.5347,0.007937
1989.4666,0.008729
1990.3984,0.008158
1991.3302,0.007760
1992.2621,0.009543
1993.1939,0.008640
1994.1257,0.007342
1995.0576,0.007016
1995.9894,0.006089
1996.9212,0.007047
1997.8531,0.008447
1998.7849,0.006147
1999.7167,0.006068
2000.6486,0.007780
2001.5804,0.004423
2002.5123,0.003559
2003.4441,0.006483
2004.3759,0.006491
2005.3078,0.006085
2006.2396,0.005624
2007.1714,0.005140
2008.1033,0.006592
2009.0351,0.008657
2009.9669,0.010170
2010.8988,0.009413
2011.8306,0.008293
2012.7624,0.005873
2013.6943,0.003945
2014.6261,0.006688
2015.5579,0.008337
2016.4898,0.007253
2017.4216,0.006605
2018.3534,0.006208
2019.2853,0.007796
2020.2171,0.008884
2021.1489,0.009534
2022.0808,0.008775
2023.0126,0.006436
2023.9444,0.007069
2024.8763,0.006915
2025.8081,0.005909
2026.7399,0.006037
2027.6718,0.006795
2028.6036,0.008335
2029.5355,0.007783
2030.4673,0.006373
2031.3991,0.008805
2032.3310,0.010334
2033.2628,0.007924
2034.1946,0.005148
2035.1265,0.006694
2036.0583,0.006430
2036.9901,0.006566
2037.9220,0.006816
2038.8538,0.004553
2039.7856,0.005390
2040.7175,0.009438
2041.6493,0.010795
2042.5811,0.009073
2043.5130,0.010082
2044.4448,0.011293
2045.3766,0.008028
2046.3085,0.007040
2047.2403,0.007828
2048.1721,0.008393
2049.1040,0.009145
2050.0358,0.010106
2050.9676,0.009174
2051.8995,0.010062
2052.8313,0.012954
2053.7631,0.015232
2054.6950,0.013445
2055.6268,0.011288
2056.5587,0.010791
2057.4905,0.010852
2058.4223,0.012074
2059.3542,0.013275
2060.2860,0.011881
2061.2178,0.010800
2062.1497,0.011628
2063.0815,0.011732
2064.0133,0.012060
2064.9452,0.013739
2065.8770,0.012834
2066.8088,0.012864
2067.7407,0.016623
2068.6725,0.016759
2069.6043,0.013998
2070.5362,0.012461
2071.4680,0.012777
2072.3998,0.012303
2073.3317,0.012216
2074.2635,0.014550
2075.1953,0.014208
2076.1272,0.013284
2077.0590,0.014627
2077.9908,0.015466
2078.9227,0.014296
2079.8545,0.013495
2080.7863,0.013675
2081.7182,0.015270
2082.6500,0.016653
2083.5819,0.015928
2084.5137,0.014354
2085.4455,0.014024
2086.3774,0.013402
2087.3092,0.013843
2088.2410,0.014508
2089.1729,0.013311
2090.1047,0.013704
2091.0365,0.014105
2091.9684,0.014561
2092.9002,0.016692
2093.8320,0.018313
2094.7639,0.016196
2095.6957,0.013103
2096.6275,0.013888
2097.5594,0.016281
2098.4912,0.015911
2099.4230,0.014876
2100.3549,0.014181
2101.2867,0.013785
2102.2185,0.015547
2103.1504,0.015677
2104.0822,0.013926
2105.0140,0.014300
2105.9459,0.015569
2106.8777,0.015277
2107.8095,0.015234
2108.7414,0.015524
2109.6732,0.016134
2110.6051,0.016979
2111.5369,0.016205
2112.4687,0.014936
2113.4006,0.014826
2114.3324,0.015677
2115.2642,0.015625
2116.1961,0.016043
2117.1279,0.016751
2118.0597,0.016428
2118.9916,0.016710
2119.9234,0.016956
2120.8552,0.016092
2121.7871,0.015992
2122.7189,0.016075
2123.6507,0.015511
2124.5826,0.014625
2125.5144,0.015513
2126.4462,0.016528
2127.3781,0.014805
2128.3099,0.013481
2129.2417,0.015360
2130.1736,0.016820
2131.1054,0.015179
2132.0372,0.014826
2132.9691,0.014002
2133.9009,0.012650
2134.8327,0.013121
2135.7646,0.012826
2136.6964,0.014103
2137.6282,0.014942
2138.5601,0.013514
2139.4919,0.012269
2140.4238,0.013171
2141.3556,0.014051
2142.2874,0.013946
2143.2193,0.012626
2144.1511,0.011635
2145.0829,0.013087
2146.0148,0.010023
2146.9466,0.007797
2147.8784,0.010423
2148.8103,0.011656
2149.7421,0.010780
2150.6739,0.012682
2151.6058,0.014376
2152.5376,0.012040
2153.4694,0.011346
2154.4013,0.010801
2155.3331,0.009864
2156.2649,0.010852
2157.1968,0.011033
2158.1286,0.010779
2159.0604,0.006688
2159.9923,0.002109
2160.9241,0.002254
2161.8559,0.002950
2162.7878,0.001472
2163.7196,0.001319
2164.6514,0.003271
2165.5833,0.007600
2166.5151,0.008609
2167.4470,0.007870
2168.3788,0.008866
2169.3106,0.010563
2170.2425,0.009479
2171.1743,0.007608
2172.1061,0.008223
2173.0380,0.008183
2173.9698,0.007637
2174.9016,0.008030
2175.8335,0.009088
2176.7653,0.010429
2177.6971,0.011566
2178.6290,0.011735
2179.5608,0.010577
2180.4926,0.009943
2181.4245,0.007703
2182.3563,0.008258
2183.2881,0.012507
2184.2200,0.011803
2185.1518,0.009094
2186.0836,0.008598
2187.0155,0.008989
2187.9473,0.008728
2188.8791,0.008863
2189.8110,0.008676
2190.7428,0.009517
2191.6746,0.010281
2192.6065,0.009911
2193.5383,0.009561
2194.4702,0.009303
2195.4020,0.009061
2196.3338,0.010849
2197.2657,0.010786
2198.1975,0.008982
2199.1293,0.009770
2200.0612,0.010682
2200.9930,0.009863
2201.9248,0.010374
2202.8567,0.010734
2203.7885,0.010155
2204.7203,0.007752
2205.6522,0.007772
2206.5840,0.008732
2207.5158,0.008333
2208.4477,0.009948
2209.3795,0.009896
2210.3113,0.009728
2211.2432,0.012088
2212.1750,0.013898
2213.1068,0.011314
2214.0387,0.010668
2214.9705,0.009542
2215.9023,0.007575
2216.8342,0.009352
2217.7660,0.011195
2218.6978,0.010324
2219.6297,0.008945
2220.5615,0.008580
2221.4934,0.008876
2222.4252,0.008892
2223.3570,0.010278
2224.2889,0.011715
2225.2207,0.010790
2226.1525,0.010804
2227.0844,0.011914
2228.0162,0.010173
2228.9480,0.009759
2229.8799,0.010922
2230.8117,0.010345
2231.7435,0.010740
2232.6754,0.011174
2233.6072,0.011042
2234.5390,0.011072
2235.4709,0.009945
2236.4027,0.009232
2237.3345,0.010514
2238.2664,0.012259
2239.1982,0.010539
2240.1300,0.007308
2241.0619,0.008288
2241.9937,0.010757
2242.9255,0.011014
2243.8574,0.010158
2244.7892,0.010667
2245.7210,0.011108
2246.6529,0.010305
2247.5847,0.010191
2248.5166,0.010121
2249.4484,0.009762
2250.3802,0.009468
2251.3121,0.009640
2252.2439,0.010160
2253.1757,0.010357
2254.1076,0.009862
2255.0394,0.008562
2255.9712,0.009465
2256.9031,0.010603
2257.8349,0.010781
2258.7667,0.009954
2259.6986,0.008667
2260.6304,0.009572
2261.5622,0.010381
2262.4941,0.009655
2263.4259,0.009772
2264.3577,0.009708
2265.2896,0.010918
2266.2214,0.011991
2267.1532,0.011619
2268.0851,0.011095
2269.0169,0.010550
2269.9487,0.011822
2270.8806,0.011304
2271.8124,0.008573
2272.7442,0.008266
2273.6761,0.009970
2274.6079,0.010514
2275.5397,0.009361
2276.4716,0.009129
2277.4034,0.010418
2278.3353,0.011029
2279.2671,0.010097
2280.1989,0.010046
2281.1308,0.010016
2282.0626,0.009614
2282.9944,0.009502
2283.9263,0.009414
2284.8581,0.010839
2285.7899,0.011885
2286.7218,0.011209
2287.6536,0.010396
2288.5854,0.011301
2289.5173,0.011646
2290.4491,0.010440
2291.3809,0.009678
2292.3128,0.009773
2293.2446,0.009818
2294.1764,0.010179
2295.1083,0.010137
2296.0401,0.010736
2296.9719,0.011195
2297.9038,0.010942
2298.8356,0.010702
2299.7674,0.011410
2300.6993,0.012129
2301.6311,0.011516
2302.5629,0.011270
2303.4948,0.010372
2304.4266,0.009624
2305.3585,0.010092
2306.2903,0.010667
2307.2221,0.010172
2308.1540,0.009477
2309.0858,0.009407
2310.0176,0.009175
2310.9495,0.008760
2311.8813,0.008812
2312.8131,0.008578
2313.7450,0.008721
2314.6768,0.009255
2315.6086,0.009138
2316.5405,0.009588
2317.4723,0.010194
2318.4041,0.010186
2319.3360,0.010632
2320.2678,0.010772
2321.1996,0.010779
2322.1315,0.010144
2323.0633,0.010014
2323.9951,0.009809
2324.9270,0.009604
2325.8588,0.010124
2326.7906,0.010709
2327.7225,0.010231
2328.6543,0.009820
2329.5861,0.010050
2330.5180,0.010925
2331.4498,0.011077
2332.3817,0.010279
2333.3135,0.009919
2334.2453,0.009802
2335.1772,0.009732
2336.1090,0.009667
2337.0408,0.009790
2337.9727,0.009459
2338.9045,0.009220
2339.8363,0.008706
2340.7682,0.008896
2341.7000,0.009553
2342.6318,0.009919
2343.5637,0.009715
2344.4955,0.009419
2345.4273,0.009126
2346.3592,0.009809
2347.2910,0.009909
2348.2228,0.009113
2349.1547,0.008542
2350.0865,0.008880
2351.0183,0.009075
2351.9502,0.009384
2352.8820,0.009050
2353.8138,0.008524
2354.7457,0.007828
2355.6775,0.007553
2356.6093,0.007627
2357.5412,0.009146
2358.4730,0.010121
2359.4049,0.009499
2360.3367,0.008693
2361.2685,0.008225
2362.2004,0.007053
2363.1322,0.005881
2364.0640,0.006538
2364.9959,0.007945
2365.9277,0.008482
2366.8595,0.008121
2367.7914,0.008768
2368.7232,0.007886
2369.6550,0.007014
2370.5869,0.006504
2371.5187,0.007835
2372.4505,0.008732
2373.3824,0.008070
2374.3142,0.008382
2375.2460,0.008242
2376.1779,0.008017
2377.1097,0.008366
2378.0415,0.008492
2378.9734,0.007920
2379.9052,0.007341
2380.8370,0.007188
2381.7689,0.007319
2382.7007,0.007636
2383.6325,0.007765
2384.5644,0.007472
2385.4962,0.007570
2386.4281,0.007659
2387.3599,0.008155
2388.2917,0.009091
2389.2236,0.008886
2390.1554,0.008091
2391.0872,0.007911
2392.0191,0.007410
2392.9509,0.007215
2393.8827,0.007732
2394.8146,0.007772
2395.7464,0.007038
2396.6782,0.007163
2397.6101,0.008427
2398.5419,0.008753
2399.4737,0.007534
2400.4056,0.006726
2401.3374,0.007119
2402.2692,0.007134
2403.2011,0.006899
2404.1329,0.006778
2405.0647,0.006684
2405.9966,0.007248
2406.9284,0.007236
2407.8602,0.006666
2408.7921,0.005926
2409.7239,0.006164
2410.6557,0.006316
2411.5876,0.005684
2412.5194,0.005925
2413.4512,0.006995
2414.3831,0.007208
2415.3149,0.007264
2416.2468,0.007266
2417.1786,0.006871
2418.1104,0.006939
2419.0423,0.006746
2419.9741,0.007034
2420.9059,0.007131
2421.8378,0.006670
2422.7696,0.005589
2423.7014,0.005306
2424.6333,0.005985
2425.5651,0.006698
2426.4969,0.007085
2427.4288,0.007407
2428.3606,0.007476
2429.2924,0.006760
2430.2243,0.006360
2431.1561,0.006723
2432.0879,0.007133
2433.0198,0.006687
2433.9516,0.006291
2434.8834,0.006525
2435.8153,0.006860
2436.7471,0.006740
2437.6789,0.006005
2438.6108,0.005606
2439.5426,0.006053
2440.4744,0.006316
2441.4063,0.006457
2442.3381,0.006799
2443.2700,0.006711
2444.2018,0.005886
2445.1336,0.005100
2446.0655,0.005612
2446.9973,0.006686
2447.9291,0.005940
2448.8610,0.004723
2449.7928,0.005305
2450.7246,0.006658
2451.6565,0.007050
2452.5883,0.006655
2453.5201,0.006350
2454.4520,0.006279
2455.3838,0.006246
2456.3156,0.006296
2457.2475,0.006002
2458.1793,0.005559
2459.1111,0.005479
2460.0430,0.005936
2460.9748,0.005562
2461.9066,0.004373
2462.8385,0.004935
2463.7703,0.006072
2464.7021,0.006411
2465.6340,0.006078
2466.5658,0.005184
2467.4976,0.004896
2468.4295,0.005317
2469.3613,0.005299
2470.2932,0.005480
2471.2250,0.005192
2472.1568,0.005649
2473.0887,0.005664
2474.0205,0.004377
2474.9523,0.004985
2475.8842,0.006616
2476.8160,0.006287
2477.7478,0.005608
2478.6797,0.005253
2479.6115,0.005282
2480.5433,0.005403
2481.4752,0.005912
2482.4070,0.006227
2483.3388,0.005638
2484.2707,0.004798
2485.2025,0.005058
2486.1343,0.005074
2487.0662,0.004296
2487.9980,0.003872
2488.9298,0.004006
2489.8617,0.004591
2490.7935,0.005669
2491.7253,0.006307
2492.6572,0.005757
2493.5890,0.004825
2494.5208,0.004510
2495.4527,0.004829
2496.3845,0.005422
2497.3164,0.005812
2498.2482,0.005670
2499.1800,0.005052
2500.1119,0.006020
2501.0437,0.006612
2501.9755,0.006018
2502.9074,0.005638
2503.8392,0.004955
2504.7710,0.004354
2505.7029,0.004576
2506.6347,0.005118
2507.5665,0.004929
2508.4984,0.004468
2509.4302,0.004902
2510.3620,0.004316
2511.2939,0.004609
2512.2257,0.005008
2513.1575,0.003758
2514.0894,0.003551
2515.0212,0.004025
2515.9530,0.004160
2516.8849,0.004834
2517.8167,0.005033
2518.7485,0.005176
2519.6804,0.004713
2520.6122,0.004473
2521.5440,0.005508
2522.4759,0.005858
2523.4077,0.004884
2524.3396,0.005065
2525.2714,0.004860
2526.2032,0.004455
2527.1351,0.005193
2528.0669,0.005494
2528.9987,0.005062
2529.9306,0.004496
2530.8624,0.004750
2531.7942,0.005405
2532.7261,0.004885
2533.6579,0.003304
2534.5897,0.003042
2535.5216,0.003367
2536.4534,0.003891
2537.3852,0.004937
2538.3171,0.005291
2539.2489,0.004854
2540.1807,0.004422
2541.1126,0.004108
2542.0444,0.004290
2542.9762,0.003858
2543.9081,0.002980
2544.8399,0.003784
2545.7717,0.005096
2546.7036,0.004795
2547.6354,0.004665
2548.5672,0.004767
2549.4991,0.005249
2550.4309,0.005138
2551.3627,0.004465
2552.2946,0.004134
2553.2264,0.004057
2554.1583,0.004576
2555.0901,0.004782
2556.0219,0.005133
2556.9538,0.004898
2557.8856,0.003880
2558.8174,0.003309
2559.7493,0.003890
2560.6811,0.004709
2561.6129,0.005365
2562.5448,0.005645
2563.4766,0.004477
2564.4084,0.003960
2565.3403,0.004635
2566.2721,0.003869
2567.2039,0.003737
2568.1358,0.003909
2569.0676,0.003342
2569.9994,0.004277
2570.9313,0.004971
2571.8631,0.004204
2572.7949,0.003714
2573.7268,0.002976
2574.6586,0.002751
2575.5904,0.004537
2576.5223,0.005541
2577.4541,0.005037
2578.3859,0.004798
2579.3178,0.004562
2580.2496,0.004404
2581.1815,0.004223
2582.1133,0.004422
2583.0451,0.004427
2583.9770,0.004652
2584.9088,0.004475
2585.8406,0.003579
2586.7725,0.003651
2587.7043,0.004100
2588.6361,0.004345
2589.5680,0.004434
2590.4998,0.004392
2591.4316,0.004417
2592.3635,0.003613
2593.2953,0.003355
2594.2271,0.003812
2595.1590,0.004090
2596.0908,0.004609
2597.0226,0.004376
2597.9545,0.004318
2598.8863,0.004484
2599.8181,0.004688
2600.7500,0.004303
2601.6818,0.004101
2602.6136,0.004120
2603.5455,0.003976
2604.4773,0.004564
2605.4091,0.004865
2606.3410,0.004607
2607.2728,0.005039
2608.2047,0.004776
2609.1365,0.004471
2610.0683,0.004503
2611.0002,0.004421
2611.9320,0.004166
2612.8638,0.004000
2613.7957,0.004198
2614.7275,0.004685
2615.6593,0.004990
2616.5912,0.004980
2617.5230,0.004773
2618.4548,0.004619
2619.3867,0.004904
2620.3185,0.005573
2621.2503,0.005389
2622.1822,0.005210
2623.1140,0.005428
2624.0458,0.005206
2624.9777,0.004885
2625.9095,0.004910
2626.8413,0.005154
2627.7732,0.005395
2628.7050,0.005310
2629.6368,0.005301
2630.5687,0.005403
2631.5005,0.004987
2632.4323,0.005056
2633.3642,0.005426
2634.2960,0.005501
2635.2279,0.005262
2636.1597,0.004919
2637.0915,0.004676
2638.0234,0.005083
2638.9552,0.005775
2639.8870,0.005731
2640.8189,0.005332
2641.7507,0.005039
2642.6825,0.005532
2643.6144,0.005688
2644.5462,0.005235
2645.4780,0.005461
2646.4099,0.005762
2647.3417,0.005470
2648.2735,0.005478
2649.2054,0.005881
2650.1372,0.005994
2651.0690,0.006034
2652.0009,0.006205
2652.9327,0.006167
2653.8645,0.006052
2654.7964,0.005756
2655.7282,0.005826
2656.6600,0.005846
2657.5919,0.005565
2658.5237,0.005641
2659.4555,0.005942
2660.3874,0.006107
2661.3192,0.005967
2662.2511,0.005780
2663.1829,0.005936
2664.1147,0.006172
2665.0466,0.006393
2665.9784,0.006300
2666.9102,0.006403
2667.8421,0.006614
2668.7739,0.006065
2669.7057,0.005327
2670.6376,0.005405
2671.5694,0.005900
2672.5012,0.006074
2673.4331,0.005750
2674.3649,0.005867
2675.2967,0.006086
2676.2286,0.005958
2677.1604,0.005778
2678.0922,0.005915
2679.0241,0.005882
2679.9559,0.005901
2680.8877,0.006096
2681.8196,0.006438
2682.7514,0.007260
2683.6832,0.007635
2684.6151,0.007048
2685.5469,0.006681
2686.4787,0.006646
2687.4106,0.006358
2688.3424,0.006530
2689.2742,0.007002
2690.2061,0.006940
2691.1379,0.007001
2692.0698,0.007423
2693.0016,0.007452
2693.9334,0.007083
2694.8653,0.007000
2695.7971,0.007346
2696.7289,0.007383
2697.6608,0.007092
2698.5926,0.006459
2699.5244,0.006438
2700.4563,0.006971
2701.3881,0.007212
2702.3199,0.007308
2703.2518,0.007497
2704.1836,0.007649
2705.1154,0.007761
2706.0473,0.007845
2706.9791,0.008087
2707.9109,0.007930
2708.8428,0.007295
2709.7746,0.007660
2710.7064,0.008304
2711.6383,0.007691
2712.5701,0.007231
2713.5019,0.007342
2714.4338,0.007578
2715.3656,0.008106
2716.2974,0.008285
2717.2293,0.008148
2718.1611,0.008180
2719.0930,0.007990
2720.0248,0.007682
2720.9566,0.007647
2721.8885,0.008205
2722.8203,0.008664
2723.7521,0.008589
2724.6840,0.008294
2725.6158,0.008193
2726.5476,0.008582
2727.4795,0.008652
2728.4113,0.008289
2729.3431,0.008487
2730.2750,0.008730
2731.2068,0.008558
2732.1386,0.008760
2733.0705,0.008940
2734.0023,0.008935
2734.9341,0.009220
2735.8660,0.008810
2736.7978,0.008655
2737.7296,0.009252
2738.6615,0.009545
2739.5933,0.009555
2740.5251,0.009771
2741.4570,0.009839
2742.3888,0.010100
2743.3206,0.010049
2744.2525,0.009520
2745.1843,0.009351
2746.1162,0.009376
2747.0480,0.009269
2747.9798,0.009501
2748.9117,0.009999
2749.8435,0.010190
2750.7753,0.010127
2751.7072,0.009612
2752.6390,0.009361
2753.5708,0.010121
2754.5027,0.010704
2755.4345,0.010466
2756.3663,0.010266
2757.2982,0.010438
2758.2300,0.010167
2759.1618,0.009795
2760.0937,0.009848
2761.0255,0.010205
2761.9573,0.010421
2762.8892,0.010401
2763.8210,0.010497
2764.7528,0.010413
2765.6847,0.010092
2766.6165,0.010179
2767.5483,0.010694
2768.4802,0.010899
2769.4120,0.010814
2770.3438,0.010702
2771.2757,0.010519
2772.2075,0.010356
2773.1394,0.010346
2774.0712,0.010514
2775.0030,0.010580
2775.9349,0.010951
2776.8667,0.011519
2777.7985,0.011717
2778.7304,0.011194
2779.6622,0.010791
2780.5940,0.011077
2781.5259,0.011478
2782.4577,0.011340
2783.3895,0.010947
2784.3214,0.011179
2785.2532,0.011241
2786.1850,0.011005
2787.1169,0.011206
2788.0487,0.011246
2788.9805,0.011523
2789.9124,0.012066
2790.8442,0.012080
2791.7760,0.012253
2792.7079,0.012540
2793.6397,0.012291
2794.5715,0.012393
2795.5034,0.012521
2796.4352,0.012511
2797.3670,0.013409
2798.2989,0.013548
2799.2307,0.013016
2800.1626,0.013369
2801.0944,0.013578
2802.0262,0.013739
2802.9581,0.014167
2803.8899,0.014035
2804.8217,0.014068
2805.7536,0.014248
2806.6854,0.014080
2807.6172,0.014116
2808.5491,0.014179
2809.4809,0.014378
2810.4127,0.014630
2811.3446,0.015026
2812.2764,0.015255
2813.2082,0.015143
2814.1401,0.015330
2815.0719,0.015622
2816.0037,0.016026
2816.9356,0.016049
2817.8674,0.015778
2818.7992,0.016119
2819.7311,0.016597
2820.6629,0.017038
2821.5947,0.017049
2822.5266,0.016833
2823.4584,0.016870
2824.3902,0.016583
2825.3221,0.016640
2826.2539,0.017201
2827.1857,0.017208
2828.1176,0.017360
2829.0494,0.017935
2829.9813,0.017580
2830.9131,0.016728
2831.8449,0.017056
2832.7768,0.017884
2833.7086,0.017981
2834.6404,0.017757
2835.5723,0.018208
2836.5041,0.018506
2837.4359,0.018438
2838.3678,0.018754
2839.2996,0.018815
2840.2314,0.018811
2841.1633,0.019133
2842.0951,0.019865
2843.0269,0.020114
2843.9588,0.020327
2844.8906,0.020459
2845.8224,0.019865
2846.7543,0.020057
2847.6861,0.021107
2848.6179,0.021697
2849.5498,0.021276
2850.4816,0.020594
2851.4134,0.020733
2852.3453,0.021031
2853.2771,0.020983
2854.2089,0.021095
2855.1408,0.021754
2856.0726,0.022173
2857.0045,0.021988
2857.9363,0.022226
2858.8681,0.022731
2859.8000,0.023381
2860.7318,0.024056
2861.6636,0.024026
2862.5955,0.024078
2863.5273,0.024215
2864.4591,0.024254
2865.3910,0.024769
2866.3228,0.025067
2867.2546,0.025484
2868.1865,0.026264
2869.1183,0.026397
2870.0501,0.026128
2870.9820,0.026425
2871.9138,0.027167
2872.8456,0.027959
2873.7775,0.028580
2874.7093,0.028872
2875.6411,0.029132
2876.5730,0.029244
2877.5048,0.029101
2878.4366,0.029561
2879.3685,0.030254
2880.3003,0.030675
2881.2321,0.031150
2882.1640,0.031520
2883.0958,0.031955
2884.0277,0.032296
2884.9595,0.031880
2885.8913,0.032008
2886.8232,0.033257
2887.7550,0.034046
2888.6868,0.034062
2889.6187,0.034179
2890.5505,0.034403
2891.4823,0.034747
2892.4142,0.035654
2893.3460,0.035959
2894.2778,0.035832
2895.2097,0.036686
2896.1415,0.037352
2897.0733,0.037425
2898.0052,0.037591
2898.9370,0.037562
2899.8688,0.037954
2900.8007,0.038670
2901.7325,0.039433
2902.6643,0.040094
2903.5962,0.040174
2904.5280,0.040538
2905.4598,0.040509
2906.3917,0.039936
2907.3235,0.039938
2908.2553,0.040012
2909.1872,0.039802
2910.1190,0.039596
2911.0509,0.039480
2911.9827,0.039292
2912.9145,0.039257
2913.8464,0.039148
2914.7782,0.038904
2915.7100,0.038744
2916.6419,0.038258
2917.5737,0.037986
2918.5055,0.038385
2919.4374,0.038626
2920.3692,0.038884
2921.3010,0.038736
2922.2329,0.038430
2923.1647,0.038800
2924.0965,0.039140
2925.0284,0.039505
2925.9602,0.039671
2926.8920,0.039881
2927.8239,0.040553
2928.7557,0.040798
2929.6875,0.040869
2930.6194,0.040844
2931.5512,0.040684
2932.4830,0.041008
2933.4149,0.042010
2934.3467,0.042282
2935.2785,0.041866
2936.2104,0.042035
2937.1422,0.042647
2938.0741,0.043255
2939.0059,0.043161
2939.9377,0.042855
2940.8696,0.042881
2941.8014,0.042846
2942.7332,0.043967
2943.6651,0.045505
2944.5969,0.045745
2945.5287,0.045502
2946.4606,0.045363
2947.3924,0.045303
2948.3242,0.045125
2949.2561,0.045386
2950.1879,0.046225
2951.1197,0.046681
2952.0516,0.046648
2952.9834,0.046336
2953.9152,0.046084
2954.8471,0.046711
2955.7789,0.047489
2956.7107,0.047807
2957.6426,0.047527
2958.5744,0.047082
2959.5062,0.048257
2960.4381,0.049443
2961.3699,0.049658
2962.3017,0.050016
2963.2336,0.050637
2964.1654,0.051710
2965.0972,0.053400
2966.0291,0.054612
2966.9609,0.055518
2967.8928,0.056445
2968.8246,0.058041
2969.7564,0.060383
2970.6883,0.062275
2971.6201,0.063653
2972.5519,0.064649
2973.4838,0.066083
2974.4156,0.067946
2975.3474,0.070094
2976.2793,0.072802
2977.2111,0.074451
2978.1429,0.075167
2979.0748,0.075980
2980.0066,0.077051
2980.9384,0.078686
2981.8703,0.079608
2982.8021,0.078724
2983.7339,0.078061
2984.6658,0.078118
2985.5976,0.078013
2986.5294,0.077009
2987.4613,0.075527
2988.3931,0.074269
2989.3249,0.072614
2990.2568,0.071186
2991.1886,0.069870
2992.1204,0.068033
2993.0523,0.066450
2993.9841,0.066021
2994.9160,0.064880
2995.8478,0.063017
2996.7796,0.062427
2997.7115,0.062173
2998.6433,0.061945
2999.5751,0.061792
3000.5070,0.061585
3001.4388,0.061423
3002.3706,0.060996
3003.3025,0.060501
3004.2343,0.060974
3005.1661,0.061860
3006.0980,0.061861
3007.0298,0.061458
3007.9616,0.061530
3008.8935,0.061860
3009.8253,0.061969
3010.7571,0.062003
3011.6890,0.062301
3012.6208,0.062240
3013.5526,0.062620
3014.4845,0.063417
3015.4163,0.063676
3016.3481,0.064206
3017.2800,0.064913
3018.2118,0.065120
3019.1436,0.065292
3020.0755,0.065803
3021.0073,0.066420
3021.9392,0.066667
3022.8710,0.067338
3023.8028,0.068252
3024.7347,0.069039
3025.6665,0.070007
3026.5983,0.070571
3027.5302,0.070575
3028.4620,0.070592
3029.3938,0.070794
3030.3257,0.071328
3031.2575,0.072032
3032.1893,0.072859
3033.1212,0.073971
3034.0530,0.075089
3034.9848,0.075894
3035.9167,0.076799
3036.8485,0.076470
3037.7803,0.075817
3038.7122,0.076847
3039.6440,0.078605
3040.5758,0.079529
3041.5077,0.080154
3042.4395,0.080614
3043.3713,0.081010
3044.3032,0.081279
3045.2350,0.082221
3046.1668,0.083790
3047.0987,0.084206
3048.0305,0.084345
3048.9624,0.084435
3049.8942,0.084866
3050.8260,0.086422
3051.7579,0.087806
3052.6897,0.088124
3053.6215,0.088687
3054.5534,0.090266
3055.4852,0.091194
3056.4170,0.091857
3057.3489,0.092803
3058.2807,0.093761
3059.2125,0.093827
3060.1444,0.094294
3061.0762,0.095277
3062.0080,0.096050
3062.9399,0.097054
3063.8717,0.098634
3064.8035,0.099029
3065.7354,0.099697
3066.6672,0.101493
3067.5990,0.102763
3068.5309,0.103635
3069.4627,0.104507
3070.3945,0.104271
3071.3264,0.104855
3072.2582,0.106967
3073.1900,0.108085
3074.1219,0.108494
3075.0537,0.109134
3075.9856,0.109555
3076.9174,0.110851
3077.8492,0.112012
3078.7811,0.112475
3079.7129,0.113319
3080.6447,0.114866
3081.5766,0.116115
3082.5084,0.117199
3083.4402,0.118659
3084.3721,0.119693
3085.3039,0.120448
3086.2357,0.121653
3087.1676,0.122609
3088.0994,0.123024
3089.0312,0.123802
3089.9631,0.125353
3090.8949,0.126448
3091.8267,0.127764
3092.7586,0.128361
3093.6904,0.128636
3094.6222,0.130050
3095.5541,0.132641
3096.4859,0.133991
3097.4177,0.134123
3098.3496,0.134422
3099.2814,0.136303
3100.2132,0.138529
3101.1451,0.139126
3102.0769,0.139301
3103.0087,0.140372
3103.9406,0.140939
3104.8724,0.141494
3105.8043,0.142179
3106.7361,0.143745
3107.6679,0.145762
3108.5998,0.147528
3109.5316,0.149788
3110.4634,0.151024
3111.3953,0.151201
3112.3271,0.152172
3113.2589,0.152981
3114.1908,0.154311
3115.1226,0.155863
3116.0544,0.156474
3116.9863,0.157515
3117.9181,0.158631
3118.8499,0.159642
3119.7818,0.161229
3120.7136,0.162944
3121.6454,0.164731
3122.5773,0.166202
3123.5091,0.166513
3124.4409,0.166941
3125.3728,0.168806
3126.3046,0.170161
3127.2364,0.172055
3128.1683,0.173604
3129.1001,0.174704
3130.0319,0.176026
3130.9638,0.177658
3131.8956,0.178430
3132.8275,0.180007
3133.7593,0.182211
3134.6911,0.183470
3135.6230,0.184411
3136.5548,0.186611
3137.4866,0.188565
3138.4185,0.189484
3139.3503,0.189645
3140.2821,0.191705
3141.2140,0.194525
3142.1458,0.194378
3143.0776,0.194663
3144.0095,0.196961
3144.9413,0.198536
3145.8731,0.199577
3146.8050,0.200677
3147.7368,0.203082
3148.6686,0.205681
3149.6005,0.206885
3150.5323,0.208474
3151.4641,0.209611
3152.3960,0.209974
3153.3278,0.211496
3154.2596,0.212365
3155.1915,0.213261
3156.1233,0.214221
3157.0551,0.214729
3157.9870,0.215652
3158.9188,0.217277
3159.8507,0.218491
3160.7825,0.221458
3161.7143,0.224539
3162.6462,0.225663
3163.5780,0.225983
3164.5098,0.226785
3165.4417,0.228104
3166.3735,0.230208
3167.3053,0.231349
3168.2372,0.232192
3169.1690,0.233223
3170.1008,0.235752
3171.0327,0.237898
3171.9645,0.239286
3172.8963,0.239345
3173.8282,0.240050
3174.7600,0.242658
3175.6918,0.245689
3176.6237,0.247234
3177.5555,0.247209
3178.4873,0.246305
3179.4192,0.248898
3180.3510,0.250404
3181.2828,0.250678
3182.2147,0.251851
3183.1465,0.254239
3184.0783,0.255001
3185.0102,0.255758
3185.9420,0.257431
3186.8739,0.258029
3187.8057,0.258846
3188.7375,0.260740
3189.6694,0.262742
3190.6012,0.264378
3191.5330,0.265503
3192.4649,0.266691
3193.3967,0.266149
3194.3285,0.267880
3195.2604,0.269202
3196.1922,0.270101
3197.1240,0.271727
3198.0559,0.274540
3198.9877,0.275881
3199.9195,0.277356
3200.8514,0.279217
3201.7832,0.279964
3202.7150,0.280265
3203.6469,0.281738
3204.5787,0.280994
3205.5105,0.281144
3206.4424,0.283952
3207.3742,0.286154
3208.3060,0.286128
3209.2379,0.286221
3210.1697,0.286932
3211.1015,0.287965
3212.0334,0.287217
3212.9652,0.287545
3213.8971,0.289651
3214.8289,0.292954
3215.7607,0.294090
3216.6926,0.293409
3217.6244,0.292697
3218.5562,0.292860
3219.4881,0.293591
3220.4199,0.296026
3221.3517,0.296807
3222.2836,0.297949
3223.2154,0.299121
3224.1472,0.300033
3225.0791,0.299383
3226.0109,0.299976
3226.9427,0.301724
3227.8746,0.302493
3228.8064,0.302478
3229.7382,0.303998
3230.6701,0.304081
3231.6019,0.304780
3232.5337,0.305611
3233.4656,0.305267
3234.3974,0.306344
3235.3292,0.308777
3236.2611,0.307377
3237.1929,0.305892
3238.1247,0.305072
3239.0566,0.305122
3239.9884,0.307911
3240.9202,0.310458
3241.8521,0.310087
3242.7839,0.310053
3243.7158,0.309546
3244.6476,0.309251
3245.5794,0.310039
3246.5113,0.309782
3247.4431,0.310338
3248.3749,0.314155
3249.3068,0.312651
3250.2386,0.310352
3251.1704,0.311355
3252.1023,0.312588
3253.0341,0.313833
3253.9659,0.316904
3254.8978,0.315077
3255.8296,0.314446
3256.7614,0.316292
3257.6933,0.317049
3258.6251,0.315426
3259.5569,0.314958
3260.4888,0.316070
3261.4206,0.316807
3262.3524,0.316005
3263.2843,0.316761
3264.2161,0.315674
3265.1479,0.314765
3266.0798,0.316411
3267.0116,0.317750
3267.9434,0.315942
3268.8753,0.315937
3269.8071,0.316615
3270.7390,0.318068
3271.6708,0.319842
3272.6026,0.318995
3273.5345,0.317310
3274.4663,0.317017
3275.3981,0.315748
3276.3300,0.315919
3277.2618,0.317750
3278.1936,0.319072
3279.1255,0.318630
3280.0573,0.317939
3280.9891,0.315012
3281.9210,0.314400
3282.8528,0.315453
3283.7846,0.315615
3284.7165,0.317107
3285.6483,0.318526
3286.5801,0.316827
3287.5120,0.316635
3288.4438,0.316683
3289.3756,0.316199
3290.3075,0.316744
3291.2393,0.318582
3292.1711,0.317544
3293.1030,0.319175
3294.0348,0.318298
3294.9666,0.317610
3295.8985,0.319028
3296.8303,0.320766
3297.7622,0.319382
3298.6940,0.316610
3299.6258,0.316856
3300.5577,0.318992
3301.4895,0.318447
3302.4213,0.319212
3303.3532,0.320592
3304.2850,0.319973
3305.2168,0.318575
3306.1487,0.320898
3307.0805,0.320920
3308.0123,0.319230
3308.9442,0.319031
3309.8760,0.320251
3310.8078,0.320652
3311.7397,0.320180
3312.6715,0.317926
3313.6033,0.316878
3314.5352,0.316286
3315.4670,0.318006
3316.3988,0.318749
3317.3307,0.318350
3318.2625,0.318993
3319.1943,0.320172
3320.1262,0.318379
3321.0580,0.319320
3321.9898,0.321586
3322.9217,0.322271
3323.8535,0.322349
3324.7854,0.321268
3325.7172,0.319621
3326.6490,0.320122
3327.5809,0.320638
3328.5127,0.322808
3329.4445,0.320405
3330.3764,0.318674
3331.3082,0.320396
3332.2400,0.320689
3333.1719,0.319016
3334.1037,0.320339
3335.0355,0.318372
3335.9674,0.318630
3336.8992,0.319584
3337.8310,0.321454
3338.7629,0.321676
3339.6947,0.320115
3340.6265,0.320022
3341.5584,0.320712
3342.4902,0.319233
3343.4220,0.320423
3344.3539,0.320175
3345.2857,0.317948
3346.2175,0.316527
3347.1494,0.316472
3348.0812,0.317014
3349.0130,0.319975
3349.9449,0.320673
3350.8767,0.321847
3351.8086,0.323268
3352.7404,0.321322
3353.6722,0.318895
3354.6041,0.319919
3355.5359,0.320510
3356.4677,0.320000
3357.3996,0.318652
3358.3314,0.320927
3359.2632,0.320150
3360.1951,0.317087
3361.1269,0.315788
3362.0587,0.318707
3362.9906,0.319485
3363.9224,0.318213
3364.8542,0.318733
3365.7861,0.315683
3366.7179,0.312604
3367.6497,0.315004
3368.5816,0.315715
3369.5134,0.314622
3370.4452,0.311366
3371.3771,0.309904
3372.3089,0.311981
3373.2407,0.314303
3374.1726,0.312258
3375.1044,0.311807
3376.0362,0.312446
3376.9681,0.314814
3377.8999,0.312369
3378.8317,0.311138
3379.7636,0.309327
3380.6954,0.309674
3381.6273,0.308639
3382.5591,0.309031
3383.4909,0.308148
3384.4228,0.307872
3385.3546,0.307637
3386.2864,0.308211
3387.2183,0.307705
3388.1501,0.309386
3389.0819,0.310124
3390.0138,0.307163
3390.9456,0.304046
3391.8774,0.305138
3392.8093,0.304670
3393.7411,0.303803
3394.6729,0.301406
3395.6048,0.301403
3396.5366,0.302012
3397.4684,0.301013
3398.4003,0.297771
3399.3321,0.296470
3400.2639,0.297367
3401.1958,0.299384
3402.1276,0.296129
3403.0594,0.295596
3403.9913,0.296030
3404.9231,0.294868
3405.8549,0.292526
3406.7868,0.291320
3407.7186,0.290262
3408.6505,0.290058
3409.5823,0.292377
3410.5141,0.292458
3411.4460,0.285888
3412.3778,0.285052
3413.3096,0.286461
3414.2415,0.286428
3415.1733,0.283878
3416.1051,0.282712
3417.0370,0.279330
3417.9688,0.277907
3418.9006,0.278374
3419.8325,0.279665
3420.7643,0.278622
3421.6961,0.278962
3422.6280,0.278422
3423.5598,0.276932
3424.4916,0.274337
3425.4235,0.276237
3426.3553,0.276159
3427.2871,0.275243
3428.2190,0.270538
3429.1508,0.268679
3430.0826,0.268408
3431.0145,0.266951
3431.9463,0.266101
3432.8781,0.267413
3433.8100,0.265891
3434.7418,0.261551
3435.6737,0.258787
3436.6055,0.259269
3437.5373,0.257052
3438.4692,0.254634
3439.4010,0.254147
3440.3328,0.256245
3441.2647,0.254597
3442.1965,0.252116
3443.1283,0.252491
3444.0602,0.252228
3444.9920,0.249210
3445.9238,0.250970
3446.8557,0.247163
3447.7875,0.244296
3448.7193,0.244322
3449.6512,0.244229
3450.5830,0.242355
3451.5148,0.243285
3452.4467,0.243394
3453.3785,0.242025
3454.3103,0.240796
3455.2422,0.240242
3456.1740,0.236658
3457.1058,0.236752
3458.0377,0.236286
3458.9695,0.232454
3459.9013,0.231935
3460.8332,0.234948
3461.7650,0.233353
3462.6969,0.230626
3463.6287,0.228595
3464.5605,0.225949
3465.4924,0.223953
3466.4242,0.225135
3467.3560,0.223959
3468.2879,0.220064
3469.2197,0.217834
3470.1515,0.220347
3471.0834,0.219425
3472.0152,0.218266
3472.9470,0.215491
3473.8789,0.213910
3474.8107,0.212952
3475.7425,0.213557
3476.6744,0.210202
3477.6062,0.208320
3478.5380,0.208673
3479.4699,0.210413
3480.4017,0.210878
3481.3335,0.210319
3482.2654,0.207704
3483.1972,0.205378
3484.1290,0.203060
3485.0609,0.202761
3485.9927,0.202547
3486.9245,0.202719
3487.8564,0.201311
3488.7882,0.202262
3489.7201,0.199398
3490.6519,0.197946
3491.5837,0.196214
3492.5156,0.194691
3493.4474,0.193201
3494.3792,0.194380
3495.3111,0.191352
3496.2429,0.190315
3497.1747,0.190178
3498.1066,0.188303
3499.0384,0.186151
3499.9702,0.186316
3500.9021,0.184467
3501.8339,0.182004
3502.7657,0.180728
3503.6976,0.181408
3504.6294,0.182563
3505.5612,0.181308
3506.4931,0.174513
3507.4249,0.172764
3508.3567,0.172281
3509.2886,0.173009
3510.2204,0.173581
3511.1522,0.172495
3512.0841,0.170778
3513.0159,0.168961
3513.9477,0.168062
3514.8796,0.168857
3515.8114,0.166388
3516.7432,0.165240
3517.6751,0.164865
3518.6069,0.163425
3519.5388,0.161491
3520.4706,0.161211
3521.4024,0.162009
3522.3343,0.164642
3523.2661,0.161119
3524.1979,0.156354
3525.1298,0.157261
3526.0616,0.159361
3526.9934,0.158117
3527.9253,0.156775
3528.8571,0.155230
3529.7889,0.155667
3530.7208,0.152670
3531.6526,0.150072
3532.5844,0.147879
3533.5163,0.146104
3534.4481,0.146222
3535.3799,0.147702
3536.3118,0.145510
3537.2436,0.144430
3538.1754,0.145621
3539.1073,0.146319
3540.0391,0.143595
3540.9709,0.140330
3541.9028,0.138804
3542.8346,0.137722
3543.7664,0.136330
3544.6983,0.137617
3545.6301,0.137466
3546.5620,0.135623
3547.4938,0.134455
3548.4256,0.136171
3549.3575,0.134918
3550.2893,0.133417
3551.2211,0.129719
3552.1530,0.126687
3553.0848,0.126141
3554.0166,0.125974
3554.9485,0.124989
3555.8803,0.125525
3556.8121,0.124262
3557.7440,0.123678
3558.6758,0.121452
3559.6076,0.120003
3560.5395,0.117682
3561.4713,0.117704
3562.4031,0.117965
3563.3350,0.115918
3564.2668,0.114468
3565.1986,0.115083
3566.1305,0.115307
3567.0623,0.115410
3567.9941,0.114044
3568.9260,0.113287
3569.8578,0.111250
3570.7896,0.112314
3571.7215,0.110723
3572.6533,0.109196
3573.5852,0.108556
3574.5170,0.108464
3575.4488,0.108303
3576.3807,0.105581
3577.3125,0.102656
3578.2443,0.100947
3579.1762,0.100468
3580.1080,0.101440
3581.0398,0.100639
3581.9717,0.099163
3582.9035,0.097055
3583.8353,0.094398
3584.7672,0.093870
3585.6990,0.094932
3586.6308,0.093673
3587.5627,0.093742
3588.4945,0.095933
3589.4263,0.096095
3590.3582,0.094246
3591.2900,0.093402
3592.2218,0.091707
3593.1537,0.089015
3594.0855,0.087953
3595.0173,0.086590
3595.9492,0.083508
3596.8810,0.084955
3597.8128,0.085450
3598.7447,0.084652
3599.6765,0.084334
3600.6084,0.084992
3601.5402,0.085309
3602.4720,0.085226
3603.4039,0.083566
3604.3357,0.081001
3605.2675,0.078812
3606.1994,0.078717
3607.1312,0.078368
3608.0630,0.078493
3608.9949,0.077771
3609.9267,0.075976
3610.8585,0.075174
3611.7904,0.074978
3612.7222,0.071727
3613.6540,0.070755
3614.5859,0.071318
3615.5177,0.071781
3616.4495,0.071798
3617.3814,0.070999
3618.3132,0.070617
3619.2450,0.068744
3620.1769,0.068672
3621.1087,0.071214
3622.0405,0.069829
3622.9724,0.066985
3623.9042,0.064977
3624.8360,0.065678
3625.7679,0.065528
3626.6997,0.063657
3627.6316,0.061551
3628.5634,0.061627
3629.4952,0.062348
3630.4271,0.062668
3631.3589,0.063250
3632.2907,0.063411
3633.2226,0.060524
3634.1544,0.058045
3635.0862,0.056404
3636.0181,0.055750
3636.9499,0.055117
3637.8817,0.054626
3638.8136,0.053282
3639.7454,0.052190
3640.6772,0.051316
3641.6091,0.051047
3642.5409,0.051295
3643.4727,0.050989
3644.4046,0.049160
3645.3364,0.047235
3646.2682,0.048076
3647.2001,0.048984
3648.1319,0.047671
3649.0637,0.045261
3649.9956,0.043954
3650.9274,0.041951
3651.8592,0.040798
3652.7911,0.040403
3653.7229,0.038458
3654.6547,0.038145
3655.5866,0.040833
3656.5184,0.040034
3657.4503,0.036822
3658.3821,0.036271
3659.3139,0.036974
3660.2458,0.037401
3661.1776,0.036526
3662.1094,0.034293
3663.0413,0.032989
3663.9731,0.032719
3664.9049,0.031358
3665.8368,0.030467
3666.7686,0.030656
3667.7004,0.030909
3668.6323,0.028708
3669.5641,0.027355
3670.4959,0.026550
3671.4278,0.025145
3672.3596,0.022620
3673.2914,0.022407
3674.2233,0.022641
3675.1551,0.023768
3676.0869,0.023336
3677.0188,0.021986
3677.9506,0.022044
3678.8824,0.019260
3679.8143,0.015895
3680.7461,0.015950
3681.6779,0.017167
3682.6098,0.018086
3683.5416,0.017921
3684.4735,0.017196
3685.4053,0.016681
3686.3371,0.015516
3687.2690,0.014169
3688.2008,0.012847
3689.1326,0.013914
3690.0645,0.014258
3690.9963,0.012465
3691.9281,0.012165
3692.8600,0.011734
3693.7918,0.010796
3694.7236,0.011193
3695.6555,0.011023
3696.5873,0.009642
3697.5191,0.010248
3698.4510,0.011222
3699.3828,0.009652
3700.3146,0.009215
3701.2465,0.009594
3702.1783,0.009228
3703.1101,0.009113
3704.0420,0.008475
3704.9738,0.007009
3705.9056,0.007064
3706.8375,0.007603
3707.7693,0.006721
3708.7011,0.005966
3709.6330,0.005801
3710.5648,0.005322
3711.4967,0.005261
3712.4285,0.005586
3713.3603,0.005678
3714.2922,0.005654
3715.2240,0.005263
3716.1558,0.006221
3717.0877,0.006214
3718.0195,0.005193
3718.9513,0.004697
3719.8832,0.004660
3720.8150,0.005417
3721.7468,0.004871
3722.6787,0.004064
3723.6105,0.004489
3724.5423,0.003733
3725.4742,0.003143
3726.4060,0.004054
3727.3378,0.004581
3728.2697,0.003765
3729.2015,0.002642
3730.1333,0.003334
3731.0652,0.004353
3731.9970,0.004130
3732.9288,0.003867
3733.8607,0.003648
3734.7925,0.003216
3735.7243,0.004350
3736.6562,0.004965
3737.5880,0.002187
3738.5199,0.000886
3739.4517,0.003556
3740.3835,0.003418
3741.3154,0.001923
3742.2472,0.002495
3743.1790,0.002293
3744.1109,0.001003
3745.0427,0.000841
3745.9745,-0.000139
3746.9064,-0.001681
3747.8382,-0.002419
3748.7700,-0.000278
3749.7019,0.000066
3750.6337,-0.001017
3751.5655,0.000510
3752.4974,0.002022
3753.4292,0.001374
3754.3610,0.002577
3755.2929,0.003843
3756.2247,0.003388
3757.1565,0.002875
3758.0884,0.002348
3759.0202,0.002816
3759.9520,0.002356
3760.8839,0.001121
3761.8157,0.000996
3762.7475,0.001902
3763.6794,0.001937
3764.6112,0.003267
3765.5431,0.003716
3766.4749,0.002045
3767.4067,0.001233
3768.3386,0.001645
3769.2704,0.001125
3770.2022,0.001741
3771.1341,0.002852
3772.0659,0.002950
3772.9977,0.002372
3773.9296,0.001904
3774.8614,0.001908
3775.7932,0.001886
3776.7251,0.002282
3777.6569,0.002814
3778.5887,0.002340
3779.5206,0.001027
3780.4524,0.001449
3781.3842,0.002407
3782.3161,0.002015
3783.2479,0.002714
3784.1797,0.003044
3785.1116,0.002291
3786.0434,0.002715
3786.9752,0.003225
3787.9071,0.002701
3788.8389,0.002537
3789.7707,0.002790
3790.7026,0.002710
3791.6344,0.002653
3792.5662,0.002121
3793.4981,0.001880
3794.4299,0.001744
3795.3618,0.001702
3796.2936,0.002020
3797.2254,0.002953
3798.1573,0.002745
3799.0891,0.001727
3800.0209,0.001436
3800.9528,0.000816
3801.8846,0.000229
3802.8164,-0.000622
3803.7483,-0.000342
3804.6801,0.000594
3805.6119,0.001278
3806.5438,0.001933
3807.4756,0.001283
3808.4074,0.001448
3809.3393,0.001895
3810.2711,0.001394
3811.2029,0.001020
3812.1348,0.000977
3813.0666,0.001665
3813.9984,0.001370
3814.9303,0.000797
3815.8621,0.000673
3816.7939,0.000151
3817.7258,0.000461
3818.6576,0.001120
3819.5894,0.000790
3820.5213,-0.000448
3821.4531,0.000388
3822.3850,0.001269
3823.3168,0.001231
3824.2486,0.000911
3825.1805,0.000772
3826.1123,0.001186
3827.0441,0.001899
3827.9760,0.001932
3828.9078,0.001382
3829.8396,0.002360
3830.7715,0.002446
3831.7033,0.001168
3832.6351,0.000598
3833.5670,0.000401
3834.4988,-0.000081
3835.4306,0.000578
3836.3625,0.000807
3837.2943,-0.000036
3838.2261,0.000473
3839.1580,0.001406
3840.0898,0.000601
3841.0216,-0.000166
3841.9535,0.001317
3842.8853,0.001026
3843.8171,-0.000788
3844.7490,-0.000636
3845.6808,0.000733
3846.6126,0.001789
3847.5445,0.002263
3848.4763,0.001072
3849.4082,0.000072
3850.3400,-0.000068
3851.2718,0.000280
3852.2037,0.000306
3853.1355,-0.000648
3854.0673,-0.001975
3854.9992,-0.003568
3855.9310,-0.003746
3856.8628,-0.002800
3857.7947,-0.000858
3858.7265,-0.000012
3859.6583,0.000160
3860.5902,0.001557
3861.5220,0.002914
3862.4538,0.002306
3863.3857,0.000575
3864.3175,0.000055
3865.2493,0.000288
3866.1812,-0.000338
3867.1130,-0.001047
3868.0448,0.000308
3868.9767,0.001208
3869.9085,0.000747
3870.8403,0.000753
3871.7722,0.001247
3872.7040,0.001904
3873.6358,0.002659
3874.5677,0.003127
3875.4995,0.002861
3876.4314,0.001734
3877.3632,0.000915
3878.2950,0.001399
3879.2269,0.001662
3880.1587,0.001098
3881.0905,0.000159
3882.0224,0.000097
3882.9542,0.001248
3883.8860,0.001958
3884.8179,0.000951
3885.7497,-0.000466
3886.6815,-0.000652
3887.6134,-0.000333
3888.5452,0.000428
3889.4770,0.001746
3890.4089,0.002501
3891.3407,0.002524
3892.2725,0.002324
3893.2044,0.002057
3894.1362,0.000647
3895.0680,-0.000688
3895.9999,-0.000445
3896.9317,0.000360
3897.8635,0.001360
3898.7954,0.001509
3899.7272,0.000377
3900.6590,-0.000678
3901.5909,-0.000528
3902.5227,-0.000761
3903.4546,-0.000978
3904.3864,0.000149
3905.3182,0.001649
3906.2501,0.001709
3907.1819,0.001670
3908.1137,0.002452
3909.0456,0.002190
3909.9774,0.001362
3910.9092,0.000589
3911.8411,-0.000097
3912.7729,0.000392
3913.7047,0.000814
3914.6366,0.000380
3915.5684,0.001505
3916.5002,0.002254
3917.4321,0.001369
3918.3639,0.001295
3919.2957,0.002455
3920.2276,0.002339
3921.1594,0.001020
3922.0912,0.000931
3923.0231,0.000943
3923.9549,0.000712
3924.8867,0.001189
3925.8186,0.001198
3926.7504,0.000933
3927.6822,0.001401
3928.6141,0.002194
3929.5459,0.002501
3930.4777,0.001442
3931.4096,0.000557
3932.3414,0.000879
3933.2733,0.000971
3934.2051,0.000745
3935.1369,0.000671
3936.0688,0.000430
3937.0006,0.000834
3937.9324,0.001094
3938.8643,0.000960
3939.7961,0.001453
3940.7279,0.001446
3941.6598,0.000523
3942.5916,0.000573
3943.5234,0.001689
3944.4553,0.002108
3945.3871,0.001268
3946.3189,0.000757
3947.2508,0.001128
3948.1826,0.000983
3949.1144,0.001036
3950.0463,0.001321
3950.9781,0.001532
3951.9099,0.001619
3952.8418,0.001462
3953.7736,0.001509
3954.7054,0.001471
3955.6373,0.001206
3956.5691,0.001435
3957.5009,0.001832
3958.4328,0.001576
3959.3646,0.000782
3960.2965,0.000985
3961.2283,0.001962
3962.1601,0.001358
3963.0920,0.000603
3964.0238,0.001215
3964.9556,0.001188
3965.8875,0.001211
3966.8193,0.001728
3967.7511,0.001572
3968.6830,0.001275
3969.6148,0.001587
3970.5466,0.001891
3971.4785,0.001082
3972.4103,0.001231
3973.3421,0.002079
3974.2740,0.001183
3975.2058,0.000848
3976.1376,0.001439
3977.0695,0.001163
3978.0013,0.000618
3978.9331,0.000957
3979.8650,0.001932
3980.7968,0.001758
3981.7286,0.001559
3982.6605,0.001610
3983.5923,0.000979
3984.5241,0.000883
3985.4560,0.001362
3986.3878,0.001682
3987.3197,0.001808
3988.2515,0.002156
3989.1833,0.002645
3990.1152,0.002514
3991.0470,0.001553
3991.9788,0.001034
3992.9107,0.001151
3993.8425,0.001236
3994.7743,0.000917
3995.7062,0.000749
3996.6380,0.001515
3997.5698,0.001976
3998.5017,0.001585
3999.4335,0.001092
4000.3653,0.000606
