Wavenumber,Intensity
650.4205,0.378547
651.3523,0.382356
652.2841,0.387541
653.2160,0.380236
654.1478,0.373178
655.0796,0.371466
656.0115,0.366754
656.9433,0.360891
657.8751,0.356247
658.8070,0.360750
659.7388,0.371579
660.6706,0.386368
661.6025,0.389007
662.5343,0.378259
663.4661,0.371994
664.3980,0.364854
665.3298,0.355419
666.2616,0.362124
667.1935,0.373126
668.1253,0.373780
669.0571,0.371626
669.9890,0.374461
670.9208,0.368149
671.8526,0.355429
672.7845,0.349208
673.7163,0.353814
674.6481,0.357278
675.5800,0.353684
676.5118,0.343622
677.4437,0.340780
678.3755,0.348609
679.3073,0.354563
680.2392,0.349244
681.1710,0.342622
682.1028,0.342060
683.0347,0.343020
683.9665,0.341040
684.8983,0.341913
685.8302,0.341480
686.7620,0.343287
687.6938,0.344965
688.6257,0.339175
689.5575,0.335687
690.4893,0.336732
691.4212,0.335337
692.3530,0.330323
693.2848,0.325737
694.2167,0.326667
695.1485,0.327149
696.0803,0.323292
697.0122,0.318650
697.9440,0.319446
698.8758,0.321372
699.8077,0.320975
700.7395,0.320421
701.6713,0.320613
702.6032,0.317341
703.5350,0.314649
704.4669,0.312421
705.3987,0.313388
706.3305,0.316376
707.2624,0.315229
708.1942,0.311208
709.1260,0.311116
710.0579,0.309427
710.9897,0.306020
711.9215,0.303660
712.8534,0.299696
713.7852,0.298039
714.7170,0.300066
715.6489,0.300562
716.5807,0.299910
717.5125,0.297007
718.4444,0.294390
719.3762,0.293465
720.3080,0.291759
721.2399,0.290463
722.1717,0.288445
723.1035,0.284981
724.0354,0.286770
724.9672,0.288257
725.8990,0.287580
726.8309,0.286637
727.7627,0.285979
728.6945,0.284766
729.6264,0.281042
730.5582,0.278756
731.4901,0.277498
732.4219,0.275504
733.3537,0.275048
734.2856,0.275196
735.2174,0.272885
736.1492,0.269991
737.0811,0.270017
738.0129,0.268982
738.9447,0.268859
739.8766,0.268962
740.8084,0.267278
741.7402,0.267319
742.6721,0.265847
743.6039,0.259513
744.5357,0.256233
745.4676,0.257119
746.3994,0.257168
747.3312,0.255855
748.2631,0.254004
749.1949,0.253292
750.1267,0.253551
751.0586,0.253045
751.9904,0.252166
752.9222,0.249201
753.8541,0.246725
754.7859,0.245322
755.7177,0.246086
756.6496,0.244560
757.5814,0.240618
758.5132,0.238614
759.4451,0.238446
760.3769,0.237460
761.3088,0.236646
762.2406,0.237746
763.1724,0.237523
764.1043,0.235138
765.0361,0.233042
765.9679,0.229920
766.8998,0.228855
767.8316,0.228430
768.7634,0.226434
769.6953,0.224966
770.6271,0.225196
771.5589,0.224490
772.4908,0.221665
773.4226,0.219947
774.3544,0.219751
775.2863,0.218332
776.2181,0.216354
777.1499,0.213891
778.0818,0.213425
779.0136,0.213771
779.9454,0.213375
780.8773,0.212794
781.8091,0.211036
782.7409,0.206490
783.6728,0.204385
784.6046,0.205092
785.5364,0.205912
786.4683,0.204254
787.4001,0.201825
788.3320,0.199816
789.2638,0.199040
790.1956,0.198559
791.1275,0.198830
792.0593,0.198121
792.9911,0.196138
793.9230,0.195120
794.8548,0.194188
795.7866,0.192397
796.7185,0.190731
797.6503,0.188853
798.5821,0.187696
799.5140,0.186756
800.4458,0.186146
801.3776,0.184509
802.3095,0.183401
803.2413,0.183567
804.1731,0.183246
805.1050,0.181094
806.0368,0.178738
806.9686,0.178511
807.9005,0.178135
808.8323,0.175997
809.7641,0.175452
810.6960,0.174169
811.6278,0.171944
812.5596,0.170798
813.4915,0.170311
814.4233,0.168682
815.3552,0.165889
816.2870,0.163368
817.2188,0.162757
818.1507,0.162733
819.0825,0.161551
820.0143,0.160266
820.9462,0.159829
821.8780,0.159215
822.8098,0.157306
823.7417,0.154964
824.6735,0.154243
825.6053,0.153667
826.5372,0.153131
827.4690,0.151479
828.4008,0.149568
829.3327,0.148977
830.2645,0.148678
831.1963,0.147901
832.1282,0.146328
833.0600,0.144564
833.9918,0.144178
834.9237,0.143557
835.8555,0.142147
836.7873,0.140996
837.7192,0.139527
838.6510,0.138235
839.5828,0.137861
840.5147,0.137410
841.4465,0.136297
842.3784,0.135519
843.3102,0.135884
844.2420,0.134707
845.1739,0.132521
846.1057,0.131639
847.0375,0.131676
847.9694,0.131188
848.9012,0.129975
849.8330,0.129093
850.7649,0.128679
851.6967,0.127174
852.6285,0.126245
853.5604,0.125396
854.4922,0.124202
855.4240,0.123913
856.3559,0.123767
857.2877,0.123295
858.2195,0.123515
859.1514,0.123391
860.0832,0.122185
861.0150,0.121335
861.9469,0.121416
862.8787,0.121070
863.8105,0.120892
864.7424,0.121399
865.6742,0.121788
866.6060,0.122415
867.5379,0.123741
868.4697,0.125036
869.4016,0.126794
870.3334,0.129387
871.2652,0.131868
872.1971,0.135009
873.1289,0.139758
874.0607,0.144308
874.9926,0.147920
875.9244,0.151264
876.8562,0.154165
877.7881,0.155182
878.7199,0.154243
879.6517,0.151413
880.5836,0.146737
881.5154,0.140529
882.4472,0.134035
883.3791,0.127963
884.3109,0.122060
885.2427,0.116417
886.1746,0.111193
887.1064,0.106670
888.0382,0.103392
888.9701,0.100359
889.9019,0.097808
890.8337,0.095578
891.7656,0.093681
892.6974,0.091836
893.6292,0.089867
894.5611,0.088452
895.4929,0.087499
896.4247,0.086457
897.3566,0.085463
898.2884,0.084730
899.2203,0.083944
900.1521,0.083230
901.0839,0.082429
902.0158,0.081558
902.9476,0.081069
903.8794,0.080390
904.8113,0.079923
905.7431,0.079335
906.6749,0.078748
907.6068,0.077929
908.5386,0.076706
909.4704,0.075613
910.4023,0.075306
911.3341,0.075353
912.2659,0.074850
913.1978,0.074144
914.1296,0.073635
915.0614,0.073027
915.9933,0.072467
916.9251,0.072182
917.8569,0.071752
918.7888,0.071652
919.7206,0.071628
920.6524,0.070845
921.5843,0.069631
922.5161,0.069030
923.4479,0.068873
924.3798,0.068310
925.3116,0.067814
926.2435,0.067715
927.1753,0.067358
928.1071,0.066761
929.0390,0.066335
929.9708,0.066117
930.9026,0.065692
931.8345,0.065025
932.7663,0.064566
933.6981,0.064506
934.6300,0.064359
935.5618,0.063773
936.4936,0.063429
937.4255,0.063006
938.3573,0.062593
939.2891,0.062429
940.2210,0.062305
941.1528,0.062010
942.0846,0.061905
943.0165,0.061982
943.9483,0.061513
944.8801,0.060701
945.8120,0.060576
946.7438,0.060458
947.6756,0.060079
948.6075,0.059615
949.5393,0.059244
950.4711,0.059509
951.4030,0.059371
952.3348,0.058670
953.2667,0.058357
954.1985,0.058199
955.1303,0.058145
956.0622,0.058066
956.9940,0.057802
957.9258,0.057492
958.8577,0.057004
959.7895,0.056660
960.7213,0.056764
961.6532,0.056826
962.5850,0.056838
963.5168,0.056692
964.4487,0.056310
965.3805,0.056045
966.3123,0.055857
967.2442,0.055686
968.1760,0.055483
969.1078,0.055267
970.0397,0.055128
970.9715,0.055073
971.9033,0.054976
972.8352,0.054931
973.7670,0.054982
974.6988,0.055058
975.6307,0.055139
976.5625,0.054929
977.4943,0.054856
978.4262,0.054754
979.3580,0.054281
980.2899,0.054133
981.2217,0.054316
982.1535,0.054494
983.0854,0.054315
984.0172,0.054089
984.9490,0.054084
985.8809,0.054380
986.8127,0.054400
987.7445,0.054011
988.6764,0.053922
989.6082,0.054029
990.5400,0.053967
991.4719,0.054036
992.4037,0.054257
993.3355,0.054357
994.2674,0.054198
995.1992,0.054131
996.1310,0.054410
997.0629,0.054499
997.9947,0.054390
998.9265,0.054482
999.8584,0.054760
1000.7902,0.054976
1001.7220,0.055150
1002.6539,0.055601
1003.5857,0.055734
1004.5175,0.055751
1005.4494,0.056167
1006.3812,0.056625
1007.3131,0.056808
1008.2449,0.057026
1009.1767,0.057331
1010.1086,0.057598
1011.0404,0.058081
1011.9722,0.058603
1012.9041,0.059299
1013.8359,0.059918
1014.7677,0.060501
1015.6996,0.061376
1016.6314,0.062247
1017.5632,0.062993
1018.4951,0.063796
1019.4269,0.064969
1020.3587,0.066226
1021.2906,0.067391
1022.2224,0.068905
1023.1542,0.070778
1024.0861,0.072907
1025.0179,0.075098
1025.9497,0.077190
1026.8816,0.079872
1027.8134,0.082884
1028.7452,0.086125
1029.6771,0.089955
1030.6089,0.094503
1031.5407,0.099373
1032.4726,0.104940
1033.4044,0.111661
1034.3362,0.119556
1035.2681,0.128557
1036.1999,0.138467
1037.1318,0.149490
1038.0636,0.161582
1038.9954,0.174616
1039.9273,0.187838
1040.8591,0.200388
1041.7909,0.211498
1042.7228,0.220323
1043.6546,0.225655
1044.5864,0.226953
1045.5183,0.223652
1046.4501,0.216470
1047.3819,0.206235
1048.3138,0.193788
1049.2456,0.179954
1050.1774,0.165399
1051.1093,0.151312
1052.0411,0.137966
1052.9729,0.125417
1053.9048,0.114541
1054.8366,0.105250
1055.7684,0.096937
1056.7003,0.089925
1057.6321,0.084213
1058.5639,0.079474
1059.4958,0.075628
1060.4276,0.072777
1061.3594,0.070541
1062.2913,0.068699
1063.2231,0.067502
1064.1550,0.066470
1065.0868,0.065953
1066.0186,0.066064
1066.9505,0.066420
1067.8823,0.066671
1068.8141,0.067272
1069.7460,0.068200
1070.6778,0.069363
1071.6096,0.070679
1072.5415,0.072050
1073.4733,0.073992
1074.4051,0.076204
1075.3370,0.078307
1076.2688,0.080510
1077.2006,0.082888
1078.1325,0.085283
1079.0643,0.087829
1079.9961,0.090407
1080.9280,0.092953
1081.8598,0.095221
1082.7916,0.097178
1083.7235,0.098617
1084.6553,0.099523
1085.5871,0.099845
1086.5190,0.099343
1087.4508,0.098117
1088.3826,0.096057
1089.3145,0.093464
1090.2463,0.090451
1091.1782,0.086881
1092.1100,0.083051
1093.0418,0.079197
1093.9737,0.075392
1094.9055,0.071677
1095.8373,0.068407
1096.7692,0.065626
1097.7010,0.062868
1098.6328,0.060366
1099.5647,0.058308
1100.4965,0.056426
1101.4283,0.054732
1102.3602,0.053314
1103.2920,0.051989
1104.2238,0.050961
1105.1557,0.050027
1106.0875,0.049017
1107.0193,0.048284
1107.9512,0.047939
1108.8830,0.047484
1109.8148,0.046941
1110.7467,0.046408
1111.6785,0.046013
1112.6103,0.045996
1113.5422,0.045955
1114.4740,0.045733
1115.4058,0.045335
1116.3377,0.045111
1117.2695,0.045090
1118.2014,0.044990
1119.1332,0.044988
1120.0650,0.045025
1120.9969,0.044930
1121.9287,0.044846
1122.8605,0.044837
1123.7924,0.045153
1124.7242,0.045152
1125.6560,0.045013
1126.5879,0.044735
1127.5197,0.044412
1128.4515,0.044485
1129.3834,0.044718
1130.3152,0.044600
1131.2470,0.044206
1132.1789,0.043924
1133.1107,0.043979
1134.0425,0.044152
1134.9744,0.044001
1135.9062,0.043887
1136.8380,0.043832
1137.7699,0.043638
1138.7017,0.043391
1139.6335,0.043103
1140.5654,0.042815
1141.4972,0.042873
1142.4290,0.042966
1143.3609,0.042830
1144.2927,0.042849
1145.2246,0.043003
1146.1564,0.043092
1147.0882,0.042992
1148.0201,0.042701
1148.9519,0.042642
1149.8837,0.042698
1150.8156,0.042619
1151.7474,0.042459
1152.6792,0.042358
1153.6111,0.042377
1154.5429,0.042570
1155.4747,0.042594
1156.4066,0.042437
1157.3384,0.042447
1158.2702,0.042418
1159.2021,0.042144
1160.1339,0.042026
1161.0657,0.041969
1161.9976,0.041707
1162.9294,0.041536
1163.8612,0.041262
1164.7931,0.041045
1165.7249,0.041037
1166.6567,0.040830
1167.5886,0.040784
1168.5204,0.040865
1169.4522,0.040789
1170.3841,0.040715
1171.3159,0.040598
1172.2477,0.040359
1173.1796,0.040266
1174.1114,0.040357
1175.0433,0.040278
1175.9751,0.040309
1176.9069,0.040403
1177.8388,0.040374
1178.7706,0.040416
1179.7024,0.040654
1180.6343,0.040777
1181.5661,0.040412
1182.4979,0.040257
1183.4298,0.040481
1184.3616,0.040406
1185.2934,0.040047
1186.2253,0.040032
1187.1571,0.040284
1188.0889,0.040316
1189.0208,0.040391
1189.9526,0.040286
1190.8844,0.040269
1191.8163,0.040369
1192.7481,0.040428
1193.6799,0.040581
1194.6118,0.040388
1195.5436,0.040347
1196.4754,0.040448
1197.4073,0.040650
1198.3391,0.040531
1199.2709,0.040222
1200.2028,0.040230
1201.1346,0.040415
1202.0665,0.040476
1202.9983,0.040542
1203.9301,0.040613
1204.8620,0.040609
1205.7938,0.040667
1206.7256,0.040639
1207.6575,0.040701
1208.5893,0.040753
1209.5211,0.040583
1210.4530,0.040481
1211.3848,0.040756
1212.3166,0.041121
1213.2485,0.041040
1214.1803,0.040879
1215.1121,0.040893
1216.0440,0.040726
1216.9758,0.040738
1217.9076,0.041290
1218.8395,0.041621
1219.7713,0.041399
1220.7031,0.041332
1221.6350,0.041284
1222.5668,0.041262
1223.4986,0.041327
1224.4305,0.041328
1225.3623,0.041372
1226.2941,0.041399
1227.2260,0.041484
1228.1578,0.041499
1229.0897,0.041487
1230.0215,0.041471
1230.9533,0.041523
1231.8852,0.041845
1232.8170,0.042210
1233.7488,0.042104
1234.6807,0.041955
1235.6125,0.042099
1236.5443,0.042204
1237.4762,0.042189
1238.4080,0.042120
1239.3398,0.042204
1240.2717,0.042348
1241.2035,0.042516
1242.1353,0.042697
1243.0672,0.042788
1243.9990,0.042814
1244.9308,0.042870
1245.8627,0.043129
1246.7945,0.043383
1247.7263,0.043421
1248.6582,0.043590
1249.5900,0.043961
1250.5218,0.044302
1251.4537,0.044326
1252.3855,0.044223
1253.3173,0.044313
1254.2492,0.044676
1255.1810,0.044667
1256.1129,0.044749
1257.0447,0.045039
1257.9765,0.045330
1258.9084,0.045815
1259.8402,0.046203
1260.7720,0.046651
1261.7039,0.047201
1262.6357,0.047508
1263.5675,0.047878
1264.4994,0.048498
1265.4312,0.049039
1266.3630,0.049448
1267.2949,0.049857
1268.2267,0.050188
1269.1585,0.050564
1270.0904,0.050936
1271.0222,0.051580
1271.9540,0.051999
1272.8859,0.052218
1273.8177,0.052646
1274.7495,0.052902
1275.6814,0.052660
1276.6132,0.052457
1277.5450,0.052317
1278.4769,0.051868
1279.4087,0.051282
1280.3405,0.050923
1281.2724,0.050671
1282.2042,0.050267
1283.1361,0.049782
1284.0679,0.049472
1284.9997,0.049383
1285.9316,0.049274
1286.8634,0.049130
1287.7952,0.048680
1288.7271,0.048616
1289.6589,0.048828
1290.5907,0.048847
1291.5226,0.048887
1292.4544,0.048862
1293.3862,0.049075
1294.3181,0.049433
1295.2499,0.049448
1296.1817,0.049600
1297.1136,0.049775
1298.0454,0.049567
1298.9772,0.049700
1299.9091,0.050164
1300.8409,0.050489
1301.7727,0.050806
1302.7046,0.050934
1303.6364,0.051128
1304.5682,0.051479
1305.5001,0.051740
1306.4319,0.051705
1307.3637,0.051921
1308.2956,0.052079
1309.2274,0.052261
1310.1592,0.052644
1311.0911,0.052868
1312.0229,0.052850
1312.9548,0.052971
1313.8866,0.053261
1314.8184,0.053484
1315.7503,0.053551
1316.6821,0.053614
1317.6139,0.053898
1318.5458,0.054002
1319.4776,0.054212
1320.4094,0.054684
1321.3413,0.054932
1322.2731,0.054747
1323.2049,0.054624
1324.1368,0.054730
1325.0686,0.054706
1326.0004,0.054679
1326.9323,0.054521
1327.8641,0.054255
1328.7959,0.053981
1329.7278,0.054072
1330.6596,0.054382
1331.5914,0.054146
1332.5233,0.053761
1333.4551,0.053538
1334.3869,0.053444
1335.3188,0.052944
1336.2506,0.052079
1337.1824,0.052027
1338.1143,0.052209
1339.0461,0.052020
1339.9780,0.052366
1340.9098,0.052884
1341.8416,0.052338
1342.7735,0.051641
1343.7053,0.050698
1344.6371,0.050107
1345.5690,0.050232
1346.5008,0.050116
1347.4326,0.049891
1348.3645,0.049816
1349.2963,0.049840
1350.2281,0.049472
1351.1600,0.049040
1352.0918,0.048749
1353.0236,0.048786
1353.9555,0.048954
1354.8873,0.048785
1355.8191,0.048571
1356.7510,0.048505
1357.6828,0.048378
1358.6146,0.048505
1359.5465,0.048124
1360.4783,0.047728
1361.4101,0.048051
1362.3420,0.048371
1363.2738,0.048892
1364.2056,0.049867
1365.1375,0.049970
1366.0693,0.049632
1367.0012,0.049907
1367.9330,0.050444
1368.8648,0.051268
1369.7967,0.052076
1370.7285,0.052223
1371.6603,0.052611
1372.5922,0.053277
1373.5240,0.054326
1374.4558,0.056424
1375.3877,0.058675
1376.3195,0.059914
1377.2513,0.060260
1378.1832,0.060306
1379.1150,0.060653
1380.0468,0.061242
1380.9787,0.061725
1381.9105,0.061985
1382.8423,0.062462
1383.7742,0.062489
1384.7060,0.062509
1385.6378,0.062506
1386.5697,0.062036
1387.5015,0.062559
1388.4333,0.063757
1389.3652,0.063325
1390.2970,0.061960
1391.2288,0.060582
1392.1607,0.059968
1393.0925,0.059778
1394.0244,0.059288
1394.9562,0.059516
1395.8880,0.060645
1396.8199,0.061050
1397.7517,0.060480
1398.6835,0.060138
1399.6154,0.060680
1400.5472,0.061278
1401.4790,0.060769
1402.4109,0.060199
1403.3427,0.060095
1404.2745,0.060234
1405.2064,0.060771
1406.1382,0.061353
1407.0700,0.061693
1408.0019,0.061861
1408.9337,0.061995
1409.8655,0.061977
1410.7974,0.062075
1411.7292,0.062264
1412.6610,0.062456
1413.5929,0.062413
1414.5247,0.061952
1415.4565,0.061195
1416.3884,0.060580
1417.3202,0.060783
1418.2520,0.061408
1419.1839,0.062019
1420.1157,0.063721
1421.0476,0.064159
1421.9794,0.062262
1422.9112,0.060755
1423.8431,0.060280
1424.7749,0.060863
1425.7067,0.061004
1426.6386,0.059875
1427.5704,0.058919
1428.5022,0.058298
1429.4341,0.057621
1430.3659,0.057507
1431.2977,0.057686
1432.2296,0.057032
1433.1614,0.056043
1434.0932,0.055435
1435.0251,0.054848
1435.9569,0.054222
1436.8887,0.054901
1437.8206,0.057156
1438.7524,0.056620
1439.6842,0.054964
1440.6161,0.054390
1441.5479,0.054562
1442.4797,0.054822
1443.4116,0.054642
1444.3434,0.054618
1445.2752,0.054934
1446.2071,0.055390
1447.1389,0.055980
1448.0707,0.057107
1449.0026,0.059095
1449.9344,0.060126
1450.8663,0.059661
1451.7981,0.059420
1452.7299,0.059394
1453.6618,0.058935
1454.5936,0.057792
1455.5254,0.057013
1456.4573,0.057378
1457.3891,0.059187
1458.3209,0.059814
1459.2528,0.057932
1460.1846,0.056062
1461.1164,0.053763
1462.0483,0.051624
1462.9801,0.050052
1463.9119,0.048954
1464.8438,0.048250
1465.7756,0.048524
1466.7074,0.048292
1467.6393,0.046872
1468.5711,0.045842
1469.5029,0.045358
1470.4348,0.044883
1471.3666,0.044216
1472.2984,0.044144
1473.2303,0.045554
1474.1621,0.047125
1475.0939,0.046556
1476.0258,0.045348
1476.9576,0.045684
1477.8895,0.046639
1478.8213,0.046075
1479.7531,0.045543
1480.6850,0.045378
1481.6168,0.045800
1482.5486,0.046381
1483.4805,0.046116
1484.4123,0.045413
1485.3441,0.045176
1486.2760,0.045079
1487.2078,0.044579
1488.1396,0.044488
1489.0715,0.045138
1490.0033,0.045386
1490.9351,0.045424
1491.8670,0.044897
1492.7988,0.043743
1493.7306,0.042605
1494.6625,0.041794
1495.5943,0.041193
1496.5261,0.041153
1497.4580,0.042171
1498.3898,0.042301
1499.3216,0.042027
1500.2535,0.042488
1501.1853,0.041948
1502.1171,0.040993
1503.0490,0.040628
1503.9808,0.040193
1504.9127,0.039588
1505.8445,0.039374
1506.7763,0.040180
1507.7082,0.043458
1508.6400,0.044733
1509.5718,0.043738
1510.5037,0.042721
1511.4355,0.041793
1512.3673,0.041308
1513.2992,0.041280
1514.2310,0.040853
1515.1628,0.040230
1516.0947,0.040186
1517.0265,0.040671
1517.9583,0.041950
1518.8902,0.042190
1519.8220,0.040515
1520.7538,0.040155
1521.6857,0.041651
1522.6175,0.043113
1523.5493,0.043149
1524.4812,0.042259
1525.4130,0.041611
1526.3448,0.042161
1527.2767,0.042381
1528.2085,0.042210
1529.1403,0.042690
1530.0722,0.042563
1531.0040,0.041957
1531.9359,0.041734
1532.8677,0.042057
1533.7995,0.042788
1534.7314,0.044178
1535.6632,0.043910
1536.5950,0.042293
1537.5269,0.041653
1538.4587,0.041309
1539.3905,0.041510
1540.3224,0.044271
1541.2542,0.047040
1542.1860,0.046200
1543.1179,0.045794
1544.0497,0.045810
1544.9815,0.045000
1545.9134,0.044951
1546.8452,0.045578
1547.7770,0.045152
1548.7089,0.044484
1549.6407,0.044338
1550.5725,0.045228
1551.5044,0.046277
1552.4362,0.045876
1553.3680,0.045378
1554.2999,0.044887
1555.2317,0.045170
1556.1635,0.046060
1557.0954,0.045285
1558.0272,0.044969
1558.9591,0.047507
1559.8909,0.053236
1560.8227,0.054671
1561.7546,0.052312
1562.6864,0.049847
1563.6182,0.048876
1564.5501,0.048863
1565.4819,0.049217
1566.4137,0.049852
1567.3456,0.050308
1568.2774,0.050446
1569.2092,0.050865
1570.1411,0.052565
1571.0729,0.054538
1572.0047,0.053844
1572.9366,0.052495
1573.8684,0.052232
1574.8002,0.053134
1575.7321,0.054035
1576.6639,0.056443
1577.5957,0.059776
1578.5276,0.059118
1579.4594,0.057408
1580.3912,0.057389
1581.3231,0.058120
1582.2549,0.058595
1583.1867,0.059027
1584.1186,0.060001
1585.0504,0.060915
1585.9822,0.061734
1586.9141,0.062906
1587.8459,0.063883
1588.7778,0.064267
1589.7096,0.064834
1590.6414,0.066056
1591.5733,0.067327
1592.5051,0.067940
1593.4369,0.068581
1594.3688,0.069798
1595.3006,0.071536
1596.2324,0.073048
1597.1643,0.074071
1598.0961,0.075216
1599.0279,0.076592
1599.9598,0.077713
1600.8916,0.078881
1601.8234,0.080535
1602.7553,0.082335
1603.6871,0.083855
1604.6189,0.084976
1605.5508,0.086072
1606.4826,0.087528
1607.4144,0.089547
1608.3463,0.092034
1609.2781,0.094021
1610.2099,0.096102
1611.1418,0.098177
1612.0736,0.099020
1613.0054,0.100035
1613.9373,0.101991
1614.8691,0.103844
1615.8010,0.106145
1616.7328,0.109386
1617.6646,0.115364
1618.5965,0.119741
1619.5283,0.117938
1620.4601,0.117395
1621.3920,0.119030
1622.3238,0.121196
1623.2556,0.123736
1624.1875,0.127980
1625.1193,0.132602
1626.0511,0.132692
1626.9830,0.132116
1627.9148,0.134700
1628.8466,0.138735
1629.7785,0.139528
1630.7103,0.138078
1631.6421,0.137873
1632.5740,0.138716
1633.5058,0.139116
1634.4376,0.139679
1635.3695,0.142775
1636.3013,0.151659
1637.2331,0.157369
1638.1650,0.152810
1639.0968,0.149459
1640.0286,0.148333
1640.9605,0.147330
1641.8923,0.146463
1642.8242,0.145573
1643.7560,0.143995
1644.6878,0.142340
1645.6197,0.142177
1646.5515,0.143311
1647.4833,0.145085
1648.4152,0.144921
1649.3470,0.142619
1650.2788,0.139277
1651.2107,0.136125
1652.1425,0.134318
1653.0743,0.135595
1654.0062,0.142738
1654.9380,0.145902
1655.8698,0.139371
1656.8017,0.133519
1657.7335,0.129797
1658.6653,0.127521
1659.5972,0.126138
1660.5290,0.124643
1661.4608,0.122560
1662.3927,0.120761
1663.3245,0.120063
1664.2563,0.119354
1665.1882,0.117008
1666.1200,0.114306
1667.0518,0.111708
1667.9837,0.109616
1668.9155,0.108372
1669.8474,0.107801
1670.7792,0.106519
1671.7110,0.104252
1672.6429,0.102686
1673.5747,0.100811
1674.5065,0.098156
1675.4384,0.096344
1676.3702,0.095827
1677.3020,0.094338
1678.2339,0.091223
1679.1657,0.088362
1680.0975,0.086408
1681.0294,0.085130
1681.9612,0.083204
1682.8930,0.081183
1683.8249,0.080363
1684.7567,0.080148
1685.6885,0.079872
1686.6204,0.078091
1687.5522,0.075475
1688.4840,0.073212
1689.4159,0.071010
1690.3477,0.069178
1691.2795,0.068125
1692.2114,0.066765
1693.1432,0.064997
1694.0750,0.063383
1695.0069,0.061656
1695.9387,0.060003
1696.8706,0.059360
1697.8024,0.058981
1698.7342,0.056953
1699.6661,0.055006
1700.5979,0.054439
1701.5297,0.055002
1702.4616,0.053341
1703.3934,0.050630
1704.3252,0.049169
1705.2571,0.048679
1706.1889,0.047633
1707.1207,0.046139
1708.0526,0.045345
1708.9844,0.044662
1709.9162,0.043335
1710.8481,0.042160
1711.7799,0.041312
1712.7117,0.039988
1713.6436,0.038944
1714.5754,0.038491
1715.5072,0.038015
1716.4391,0.037380
1717.3709,0.035999
1718.3027,0.034844
1719.2346,0.034699
1720.1664,0.033640
1721.0982,0.033044
1722.0301,0.033419
1722.9619,0.033093
1723.8937,0.031839
1724.8256,0.031115
1725.7574,0.031019
1726.6893,0.030561
1727.6211,0.029947
1728.5529,0.029125
1729.4848,0.028223
1730.4166,0.027597
1731.3484,0.027229
1732.2803,0.026947
1733.2121,0.025982
1734.1439,0.025308
1735.0758,0.026707
1736.0076,0.027653
1736.9394,0.026075
1737.8713,0.024693
1738.8031,0.024103
1739.7349,0.023775
1740.6668,0.023588
1741.5986,0.023573
1742.5304,0.023086
1743.4623,0.022385
1744.3941,0.022222
1745.3259,0.022670
1746.2578,0.022478
1747.1896,0.021471
1748.1214,0.020738
1749.0533,0.020446
1749.9851,0.020264
1750.9169,0.020621
1751.8488,0.020990
1752.7806,0.020539
1753.7125,0.019613
1754.6443,0.019229
1755.5761,0.019131
1756.5080,0.019086
1757.4398,0.019128
1758.3716,0.018997
1759.3035,0.018535
1760.2353,0.018023
1761.1671,0.017944
1762.0990,0.017860
1763.0308,0.017574
1763.9626,0.017644
1764.8945,0.017620
1765.8263,0.017059
1766.7581,0.016810
1767.6900,0.017211
1768.6218,0.016838
1769.5536,0.015975
1770.4855,0.015845
1771.4173,0.015831
1772.3491,0.015792
1773.2810,0.015676
1774.2128,0.015535
1775.1446,0.015127
1776.0765,0.014716
1777.0083,0.014923
1777.9401,0.015068
1778.8720,0.014722
1779.8038,0.014435
1780.7357,0.014559
1781.6675,0.015037
1782.5993,0.015660
1783.5312,0.015257
1784.4630,0.014244
1785.3948,0.014147
1786.3267,0.014447
1787.2585,0.014031
1788.1903,0.013592
1789.1222,0.013607
1790.0540,0.013547
1790.9858,0.013182
1791.9177,0.012815
1792.8495,0.012649
1793.7813,0.012897
1794.7132,0.013160
1795.6450,0.012949
1796.5768,0.012991
1797.5087,0.013078
1798.4405,0.012796
1799.3723,0.012938
1800.3042,0.013273
1801.2360,0.013025
1802.1678,0.012736
1803.0997,0.012997
1804.0315,0.012875
1804.9633,0.012482
1805.8952,0.012450
1806.8270,0.012321
1807.7589,0.012226
1808.6907,0.012242
1809.6225,0.011911
1810.5544,0.011709
1811.4862,0.011702
1812.4180,0.011399
1813.3499,0.011087
1814.2817,0.011037
1815.2135,0.011138
1816.1454,0.011290
1817.0772,0.011309
1818.0090,0.011332
1818.9409,0.011266
1819.8727,0.010717
1820.8045,0.010775
1821.7364,0.011741
1822.6682,0.011553
1823.6000,0.010666
1824.5319,0.010486
1825.4637,0.011092
1826.3955,0.011653
1827.3274,0.011670
1828.2592,0.011033
1829.1910,0.009969
1830.1229,0.010079
1831.0547,0.010743
1831.9865,0.010114
1832.9184,0.009663
1833.8502,0.010181
1834.7821,0.011265
1835.7139,0.011315
1836.6457,0.010517
1837.5776,0.010347
1838.5094,0.010316
1839.4412,0.009959
1840.3731,0.009795
1841.3049,0.009840
1842.2367,0.010259
1843.1686,0.010556
1844.1004,0.010303
1845.0322,0.010240
1845.9641,0.010479
1846.8959,0.009967
1847.8277,0.008970
1848.7596,0.008886
1849.6914,0.009522
1850.6232,0.009568
1851.5551,0.009374
1852.4869,0.009755
1853.4187,0.010614
1854.3506,0.010324
1855.2824,0.009498
1856.2142,0.009600
1857.1461,0.009565
1858.0779,0.009494
1859.0097,0.008843
1859.9416,0.008341
1860.8734,0.009662
1861.8052,0.010150
1862.7371,0.009472
1863.6689,0.009195
1864.6008,0.009179
1865.5326,0.008882
1866.4644,0.009004
1867.3963,0.009785
1868.3281,0.009476
1869.2599,0.009139
1870.1918,0.009136
1871.1236,0.008933
1872.0554,0.009303
1872.9873,0.009326
1873.9191,0.008685
1874.8509,0.008686
1875.7828,0.009224
1876.7146,0.009588
1877.6464,0.009195
1878.5783,0.008856
1879.5101,0.009164
1880.4419,0.010095
1881.3738,0.010591
1882.3056,0.009744
1883.2374,0.009395
1884.1693,0.008881
1885.1011,0.008249
1886.0329,0.008287
1886.9648,0.008342
1887.8966,0.008878
1888.8284,0.009277
1889.7603,0.009074
1890.6921,0.008346
1891.6240,0.007902
1892.5558,0.009006
1893.4876,0.010333
1894.4195,0.009975
1895.3513,0.009232
1896.2831,0.009091
1897.2150,0.008100
1898.1468,0.008136
1899.0786,0.009819
1900.0105,0.009994
1900.9423,0.009002
1901.8741,0.009050
1902.8060,0.009742
1903.7378,0.009631
1904.6696,0.008722
1905.6015,0.008158
1906.5333,0.009291
1907.4651,0.010415
1908.3970,0.009528
1909.3288,0.009447
1910.2606,0.009252
1911.1925,0.007818
1912.1243,0.009091
1913.0561,0.010461
1913.9880,0.009112
1914.9198,0.008508
1915.8516,0.009440
1916.7835,0.010239
1917.7153,0.009529
1918.6472,0.008876
1919.5790,0.009592
1920.5108,0.010396
1921.4427,0.009645
1922.3745,0.008284
1923.3063,0.007730
1924.2382,0.007649
1925.1700,0.008304
1926.1018,0.008152
1927.0337,0.007858
1927.9655,0.008754
1928.8973,0.008313
1929.8292,0.007488
1930.7610,0.006991
1931.6928,0.006834
1932.6247,0.008042
1933.5565,0.008942
1934.4883,0.009562
1935.4202,0.009542
1936.3520,0.008515
1937.2838,0.007305
1938.2157,0.006549
1939.1475,0.007847
1940.0793,0.009019
1941.0112,0.008313
1941.9430,0.006868
1942.8748,0.005424
1943.8067,0.005694
1944.7385,0.005531
1945.6704,0.005685
1946.6022,0.006764
1947.5340,0.007326
1948.4659,0.008449
1949.3977,0.008089
1950.3295,0.006763
1951.2614,0.006274
1952.1932,0.006807
1953.1250,0.006639
1954.0569,0.008189
1954.9887,0.008162
1955.9205,0.006366
1956.8524,0.007500
1957.7842,0.007768
1958.7160,0.005378
1959.6479,0.004295
1960.5797,0.005834
1961.5115,0.008523
1962.4434,0.009338
1963.3752,0.007279
1964.3070,0.006100
1965.2389,0.005662
1966.1707,0.003463
1967.1025,0.002734
1968.0344,0.004927
1968.9662,0.003390
1969.8980,0.000895
1970.8299,0.003009
1971.7617,0.003905
1972.6936,0.000907
1973.6254,0.000595
1974.5572,0.004144
1975.4891,0.004108
1976.4209,0.001724
1977.3527,0.001982
1978.2846,0.004234
1979.2164,0.005659
1980.1482,0.003204
1981.0801,0.006444
1982.0119,0.009517
1982.9437,0.007287
1983.8756,0.006519
1984.8074,0.005672
1985.7392,0.005323
1986.6711,0.005132
1987.6029,0.004842
1988.5347,0.003887
1989.4666,0.004483
1990.3984,0.006413
1991.3302,0.005506
1992.2621,0.004558
1993.1939,0.003037
1994.1257,0.000566
1995.0576,0.001478
1995.9894,0.002931
1996.9212,0.004895
1997.8531,0.008207
1998.7849,0.009165
1999.7167,0.009091
2000.6486,0.008087
2001.5804,0.005218
2002.5123,0.005546
2003.4441,0.007983
2004.3759,0.010138
2005.3078,0.009734
2006.2396,0.006736
2007.1714,0.005540
2008.1033,0.006533
2009.0351,0.005211
2009.9669,0.007327
2010.8988,0.010303
2011.8306,0.008464
2012.7624,0.006112
2013.6943,0.005497
2014.6261,0.004658
2015.5579,0.003176
2016.4898,0.003947
2017.4216,0.002177
2018.3534,0.001694
2019.2853,0.003389
2020.2171,0.003891
2021.1489,0.004753
2022.0808,0.005488
2023.0126,0.005174
2023.9444,0.006237
2024.8763,0.003597
2025.8081,0.002330
2026.7399,0.007538
2027.6718,0.009505
2028.6036,0.007933
2029.5355,0.008342
2030.4673,0.007275
2031.3991,0.004711
2032.3310,0.006731
2033.2628,0.006349
2034.1946,0.004661
2035.1265,0.007049
2036.0583,0.008191
2036.9901,0.006617
2037.9220,0.004714
2038.8538,0.004936
2039.7856,0.007605
2040.7175,0.008200
2041.6493,0.007802
2042.5811,0.006019
2043.5130,0.004746
2044.4448,0.007323
2045.3766,0.007829
2046.3085,0.008349
2047.2403,0.007619
2048.1721,0.007538
2049.1040,0.011118
2050.0358,0.012102
2050.9676,0.010712
2051.8995,0.010102
2052.8313,0.010668
2053.7631,0.011338
2054.6950,0.011590
2055.6268,0.010907
2056.5587,0.010247
2057.4905,0.010190
2058.4223,0.010401
2059.3542,0.010003
2060.2860,0.010132
2061.2178,0.010726
2062.1497,0.011100
2063.0815,0.012217
2064.0133,0.012180
2064.9452,0.011705
2065.8770,0.010612
2066.8088,0.009031
2067.7407,0.010688
2068.6725,0.011319
2069.6043,0.011282
2070.5362,0.011537
2071.4680,0.010701
2072.3998,0.012206
2073.3317,0.014460
2074.2635,0.013439
2075.1953,0.011982
2076.1272,0.012744
2077.0590,0.014418
2077.9908,0.015837
2078.9227,0.016137
2079.8545,0.014641
2080.7863,0.012749
2081.7182,0.012867
2082.6500,0.014091
2083.5819,0.014704
2084.5137,0.014851
2085.4455,0.014612
2086.3774,0.013151
2087.3092,0.012445
2088.2410,0.013438
2089.1729,0.013291
2090.1047,0.011804
2091.0365,0.010515
2091.9684,0.011532
2092.9002,0.012784
2093.8320,0.013773
2094.7639,0.014892
2095.6957,0.013412
2096.6275,0.011036
2097.5594,0.010889
2098.4912,0.011150
2099.4230,0.012033
2100.3549,0.012846
2101.2867,0.013153
2102.2185,0.012710
2103.1504,0.012366
2104.0822,0.012752
2105.0140,0.013747
2105.9459,0.014543
2106.8777,0.014314
2107.8095,0.013043
2108.7414,0.014652
2109.6732,0.016623
2110.6051,0.015313
2111.5369,0.013859
2112.4687,0.012991
2113.4006,0.013967
2114.3324,0.014759
2115.2642,0.013017
2116.1961,0.012979
2117.1279,0.015375
2118.0597,0.016350
2118.9916,0.016721
2119.9234,0.015823
2120.8552,0.013311
2121.7871,0.012750
2122.7189,0.013663
2123.6507,0.013878
2124.5826,0.013910
2125.5144,0.015360
2126.4462,0.016564
2127.3781,0.014331
2128.3099,0.013359
2129.2417,0.014896
2130.1736,0.015211
2131.1054,0.015060
2132.0372,0.014308
2132.9691,0.012729
2133.9009,0.011826
2134.8327,0.011471
2135.7646,0.011956
2136.6964,0.012583
2137.6282,0.010839
2138.5601,0.010593
2139.4919,0.011225
2140.4238,0.011917
2141.3556,0.012384
2142.2874,0.011513
2143.2193,0.010602
2144.1511,0.011705
2145.0829,0.013176
2146.0148,0.013634
2146.9466,0.012194
2147.8784,0.006519
2148.8103,0.004895
2149.7421,0.008712
2150.6739,0.008556
2151.6058,0.005226
2152.5376,0.004327
2153.4694,0.007433
2154.4013,0.007415
2155.3331,0.008142
2156.2649,0.007127
2157.1968,0.004520
2158.1286,0.006879
2159.0604,0.009351
2159.9923,0.007599
2160.9241,0.004562
2161.8559,0.006341
2162.7878,0.006341
2163.7196,0.006325
2164.6514,0.006177
2165.5833,0.003778
2166.5151,0.003532
2167.4470,0.005978
2168.3788,0.007613
2169.3106,0.006234
2170.2425,0.005504
2171.1743,0.006973
2172.1061,0.008496
2173.0380,0.006309
2173.9698,0.005851
2174.9016,0.007508
2175.8335,0.004918
2176.7653,0.003851
2177.6971,0.005323
2178.6290,0.005715
2179.5608,0.007740
2180.4926,0.007499
2181.4245,0.008118
2182.3563,0.010221
2183.2881,0.010433
2184.2200,0.008765
2185.1518,0.009240
2186.0836,0.011057
2187.0155,0.010559
2187.9473,0.008660
2188.8791,0.007707
2189.8110,0.007122
2190.7428,0.009548
2191.6746,0.008668
2192.6065,0.004703
2193.5383,0.005701
2194.4702,0.007810
2195.4020,0.007396
2196.3338,0.009646
2197.2657,0.009001
2198.1975,0.008973
2199.1293,0.010348
2200.0612,0.007798
2200.9930,0.008496
2201.9248,0.010089
2202.8567,0.009361
2203.7885,0.008668
2204.7203,0.007103
2205.6522,0.008951
2206.5840,0.011041
2207.5158,0.012740
2208.4477,0.012220
2209.3795,0.009648
2210.3113,0.008462
2211.2432,0.009798
2212.1750,0.012052
2213.1068,0.010647
2214.0387,0.007660
2214.9705,0.009377
2215.9023,0.011027
2216.8342,0.009700
2217.7660,0.008975
2218.6978,0.010754
2219.6297,0.011623
2220.5615,0.010559
2221.4934,0.009214
2222.4252,0.009841
2223.3570,0.010593
2224.2889,0.009280
2225.2207,0.008741
2226.1525,0.007868
2227.0844,0.008834
2228.0162,0.007910
2228.9480,0.007308
2229.8799,0.010458
2230.8117,0.012197
2231.7435,0.009924
2232.6754,0.010332
2233.6072,0.010622
2234.5390,0.011378
2235.4709,0.009823
2236.4027,0.008187
2237.3345,0.008631
2238.2664,0.010070
2239.1982,0.010436
2240.1300,0.010825
2241.0619,0.009242
2241.9937,0.008015
2242.9255,0.009239
2243.8574,0.010056
2244.7892,0.010367
2245.7210,0.010249
2246.6529,0.009700
2247.5847,0.009684
2248.5166,0.010454
2249.4484,0.009563
2250.3802,0.009137
2251.3121,0.010696
2252.2439,0.011016
2253.1757,0.010710
2254.1076,0.010005
2255.0394,0.008319
2255.9712,0.008263
2256.9031,0.008780
2257.8349,0.008654
2258.7667,0.009210
2259.6986,0.009676
2260.6304,0.009979
2261.5622,0.010751
2262.4941,0.009324
2263.4259,0.009567
2264.3577,0.012232
2265.2896,0.011510
2266.2214,0.008904
2267.1532,0.009062
2268.0851,0.009541
2269.0169,0.010049
2269.9487,0.010152
2270.8806,0.009298
2271.8124,0.007864
2272.7442,0.007086
2273.6761,0.007730
2274.6079,0.008721
2275.5397,0.008779
2276.4716,0.009692
2277.4034,0.010831
2278.3353,0.010053
2279.2671,0.010449
2280.1989,0.010868
2281.1308,0.010595
2282.0626,0.010161
2282.9944,0.009436
2283.9263,0.009255
2284.8581,0.010016
2285.7899,0.009483
2286.7218,0.009114
2287.6536,0.008743
2288.5854,0.009055
2289.5173,0.009268
2290.4491,0.009030
2291.3809,0.009209
2292.3128,0.009420
2293.2446,0.009589
2294.1764,0.009558
2295.1083,0.009846
2296.0401,0.009888
2296.9719,0.009232
2297.9038,0.009682
2298.8356,0.010133
2299.7674,0.009651
2300.6993,0.009932
2301.6311,0.009895
2302.5629,0.009527
2303.4948,0.009997
2304.4266,0.009993
2305.3585,0.009126
2306.2903,0.009260
2307.2221,0.009612
2308.1540,0.008896
2309.0858,0.008980
2310.0176,0.009329
2310.9495,0.010208
2311.8813,0.010306
2312.8131,0.008636
2313.7450,0.008703
2314.6768,0.009236
2315.6086,0.009034
2316.5405,0.009332
2317.4723,0.009522
2318.4041,0.009863
2319.3360,0.009595
2320.2678,0.008631
2321.1996,0.008343
2322.1315,0.008812
2323.0633,0.009082
2323.9951,0.008619
2324.9270,0.008403
2325.8588,0.009042
2326.7906,0.008615
2327.7225,0.008291
2328.6543,0.008253
2329.5861,0.008553
2330.5180,0.008937
2331.4498,0.009521
2332.3817,0.009211
2333.3135,0.008931
2334.2453,0.009364
2335.1772,0.009287
2336.1090,0.009205
2337.0408,0.008742
2337.9727,0.008231
2338.9045,0.008643
2339.8363,0.009252
2340.7682,0.009232
2341.7000,0.008476
2342.6318,0.008088
2343.5637,0.007994
2344.4955,0.007382
2345.4273,0.007954
2346.3592,0.008842
2347.2910,0.009210
2348.2228,0.008650
2349.1547,0.008186
2350.0865,0.008351
2351.0183,0.008898
2351.9502,0.008528
2352.8820,0.007650
2353.8138,0.007343
2354.7457,0.008499
2355.6775,0.008433
2356.6093,0.007617
2357.5412,0.007712
2358.4730,0.007602
2359.4049,0.007310
2360.3367,0.005909
2361.2685,0.005741
2362.2004,0.006988
2363.1322,0.007385
2364.0640,0.007046
2364.9959,0.006618
2365.9277,0.007603
2366.8595,0.007794
2367.7914,0.007721
2368.7232,0.007486
2369.6550,0.006684
2370.5869,0.006270
2371.5187,0.007150
2372.4505,0.007746
2373.3824,0.006176
2374.3142,0.005993
2375.2460,0.006899
2376.1779,0.006817
2377.1097,0.007202
2378.0415,0.007684
2378.9734,0.007960
2379.9052,0.007757
2380.8370,0.007248
2381.7689,0.007663
2382.7007,0.007369
2383.6325,0.006940
2384.5644,0.006847
2385.4962,0.006679
2386.4281,0.006553
2387.3599,0.007188
2388.2917,0.007199
2389.2236,0.007255
2390.1554,0.007511
2391.0872,0.006596
2392.0191,0.006497
2392.9509,0.007195
2393.8827,0.007492
2394.8146,0.007534
2395.7464,0.007455
2396.6782,0.006623
2397.6101,0.005830
2398.5419,0.005842
2399.4737,0.006343
2400.4056,0.007186
2401.3374,0.006704
2402.2692,0.006406
2403.2011,0.006736
2404.1329,0.006704
2405.0647,0.006822
2405.9966,0.006626
2406.9284,0.006180
2407.8602,0.006141
2408.7921,0.005739
2409.7239,0.005778
2410.6557,0.005994
2411.5876,0.006121
2412.5194,0.005692
2413.4512,0.005549
2414.3831,0.006302
2415.3149,0.006709
2416.2468,0.006589
2417.1786,0.006551
2418.1104,0.005604
2419.0423,0.005074
2419.9741,0.005391
2420.9059,0.005555
2421.8378,0.005399
2422.7696,0.006390
2423.7014,0.007920
2424.6333,0.007486
2425.5651,0.006475
2426.4969,0.006055
2427.4288,0.005537
2428.3606,0.005596
2429.2924,0.005573
2430.2243,0.006008
2431.1561,0.006633
2432.0879,0.006114
2433.0198,0.005958
2433.9516,0.005414
2434.8834,0.005238
2435.8153,0.005374
2436.7471,0.005238
2437.6789,0.004381
2438.6108,0.004540
2439.5426,0.005806
2440.4744,0.006223
2441.4063,0.005256
2442.3381,0.004952
2443.2700,0.005286
2444.2018,0.005419
2445.1336,0.005186
2446.0655,0.004527
2446.9973,0.004741
2447.9291,0.004891
2448.8610,0.004479
2449.7928,0.005016
2450.7246,0.005466
2451.6565,0.005039
2452.5883,0.004834
2453.5201,0.005155
2454.4520,0.005364
2455.3838,0.005809
2456.3156,0.006034
2457.2475,0.005553
2458.1793,0.005556
2459.1111,0.005400
2460.0430,0.004751
2460.9748,0.004945
2461.9066,0.004501
2462.8385,0.004708
2463.7703,0.005655
2464.7021,0.005573
2465.6340,0.005298
2466.5658,0.005023
2467.4976,0.004705
2468.4295,0.005115
2469.3613,0.005509
2470.2932,0.005602
2471.2250,0.005580
2472.1568,0.005450
2473.0887,0.004872
2474.0205,0.004708
2474.9523,0.005548
2475.8842,0.005870
2476.8160,0.005121
2477.7478,0.003965
2478.6797,0.004257
2479.6115,0.005673
2480.5433,0.006067
2481.4752,0.006197
2482.4070,0.006595
2483.3388,0.006335
2484.2707,0.005689
2485.2025,0.005485
2486.1343,0.005125
2487.0662,0.004332
2487.9980,0.004090
2488.9298,0.004731
2489.8617,0.004952
2490.7935,0.004452
2491.7253,0.004719
2492.6572,0.005048
2493.5890,0.005008
2494.5208,0.004298
2495.4527,0.004218
2496.3845,0.004512
2497.3164,0.005272
2498.2482,0.006147
2499.1800,0.005794
2500.1119,0.005585
2501.0437,0.005343
2501.9755,0.005169
2502.9074,0.005246
2503.8392,0.005168
2504.7710,0.005078
2505.7029,0.005186
2506.6347,0.005308
2507.5665,0.005788
2508.4984,0.006186
2509.4302,0.005519
2510.3620,0.005156
2511.2939,0.005500
2512.2257,0.005171
2513.1575,0.004972
2514.0894,0.006058
2515.0212,0.005748
2515.9530,0.005149
2516.8849,0.004950
2517.8167,0.005590
2518.7485,0.005863
2519.6804,0.004896
2520.6122,0.003671
2521.5440,0.003202
2522.4759,0.003564
2523.4077,0.004417
2524.3396,0.004747
2525.2714,0.004387
2526.2032,0.004047
2527.1351,0.004528
2528.0669,0.004738
2528.9987,0.004266
2529.9306,0.004212
2530.8624,0.005131
2531.7942,0.005855
2532.7261,0.005755
2533.6579,0.004946
2534.5897,0.004619
2535.5216,0.005291
2536.4534,0.005388
2537.3852,0.004463
2538.3171,0.005106
2539.2489,0.006448
2540.1807,0.005853
2541.1126,0.004758
2542.0444,0.004301
2542.9762,0.004347
2543.9081,0.005211
2544.8399,0.005078
2545.7717,0.004480
2546.7036,0.005359
2547.6354,0.005675
2548.5672,0.005465
2549.4991,0.005554
2550.4309,0.005625
2551.3627,0.005331
2552.2946,0.004206
2553.2264,0.003448
2554.1583,0.003111
2555.0901,0.003556
2556.0219,0.004251
2556.9538,0.004555
2557.8856,0.004019
2558.8174,0.003859
2559.7493,0.003978
2560.6811,0.004342
2561.6129,0.005394
2562.5448,0.005139
2563.4766,0.004765
2564.4084,0.005441
2565.3403,0.005568
2566.2721,0.004962
2567.2039,0.004144
2568.1358,0.003292
2569.0676,0.003584
2569.9994,0.004166
2570.9313,0.004258
2571.8631,0.004198
2572.7949,0.003900
2573.7268,0.003707
2574.6586,0.004236
2575.5904,0.004674
2576.5223,0.004808
2577.4541,0.004624
2578.3859,0.003733
2579.3178,0.003221
2580.2496,0.003326
2581.1815,0.003793
2582.1133,0.004571
2583.0451,0.004740
2583.9770,0.004281
2584.9088,0.004931
2585.8406,0.005414
2586.7725,0.004589
2587.7043,0.003669
2588.6361,0.003816
2589.5680,0.004386
2590.4998,0.005136
2591.4316,0.005386
2592.3635,0.004414
2593.2953,0.003641
2594.2271,0.004220
2595.1590,0.005708
2596.0908,0.006101
2597.0226,0.005024
2597.9545,0.004705
2598.8863,0.005109
2599.8181,0.004678
2600.7500,0.004279
2601.6818,0.004287
2602.6136,0.004989
2603.5455,0.005356
2604.4773,0.005510
2605.4091,0.005422
2606.3410,0.004910
2607.2728,0.004175
2608.2047,0.004241
2609.1365,0.004704
2610.0683,0.005217
2611.0002,0.005150
2611.9320,0.004262
2612.8638,0.003663
2613.7957,0.003788
2614.7275,0.004475
2615.6593,0.005358
2616.5912,0.005666
2617.5230,0.005771
2618.4548,0.005581
2619.3867,0.005261
2620.3185,0.005954
2621.2503,0.006214
2622.1822,0.004969
2623.1140,0.004121
2624.0458,0.004625
2624.9777,0.005058
2625.9095,0.005020
2626.8413,0.005186
2627.7732,0.005747
2628.7050,0.005772
2629.6368,0.005433
2630.5687,0.005249
2631.5005,0.005053
2632.4323,0.004992
2633.3642,0.004987
2634.2960,0.005127
2635.2279,0.005308
2636.1597,0.005492
2637.0915,0.005723
2638.0234,0.005538
2638.9552,0.005097
2639.8870,0.004965
2640.8189,0.005219
2641.7507,0.006113
2642.6825,0.006074
2643.6144,0.005495
2644.5462,0.005761
2645.4780,0.006047
2646.4099,0.005953
2647.3417,0.005712
2648.2735,0.005744
2649.2054,0.005985
2650.1372,0.006410
2651.0690,0.006468
2652.0009,0.005725
2652.9327,0.005731
2653.8645,0.006170
2654.7964,0.005559
2655.7282,0.005198
2656.6600,0.005696
2657.5919,0.006228
2658.5237,0.006601
2659.4555,0.006833
2660.3874,0.006591
2661.3192,0.006297
2662.2511,0.006668
2663.1829,0.006265
2664.1147,0.005493
2665.0466,0.005655
2665.9784,0.006079
2666.9102,0.005978
2667.8421,0.005854
2668.7739,0.006330
2669.7057,0.006214
2670.6376,0.006362
2671.5694,0.007113
2672.5012,0.006789
2673.4331,0.006325
2674.3649,0.006489
2675.2967,0.006900
2676.2286,0.007260
2677.1604,0.006902
2678.0922,0.006441
2679.0241,0.006472
2679.9559,0.006155
2680.8877,0.006066
2681.8196,0.006672
2682.7514,0.007246
2683.6832,0.007470
2684.6151,0.007328
2685.5469,0.007247
2686.4787,0.007533
2687.4106,0.007570
2688.3424,0.007288
2689.2742,0.007147
2690.2061,0.007399
2691.1379,0.007881
2692.0698,0.008024
2693.0016,0.007772
2693.9334,0.007789
2694.8653,0.007641
2695.7971,0.007494
2696.7289,0.007672
2697.6608,0.007750
2698.5926,0.007730
2699.5244,0.007472
2700.4563,0.007705
2701.3881,0.008002
2702.3199,0.007898
2703.2518,0.008222
2704.1836,0.008401
2705.1154,0.007928
2706.0473,0.007550
2706.9791,0.008172
2707.9109,0.008553
2708.8428,0.008375
2709.7746,0.008063
2710.7064,0.007804
2711.6383,0.008288
2712.5701,0.008940
2713.5019,0.008887
2714.4338,0.008432
2715.3656,0.008396
2716.2974,0.008373
2717.2293,0.008772
2718.1611,0.009296
2719.0930,0.009218
2720.0248,0.009115
2720.9566,0.009201
2721.8885,0.009203
2722.8203,0.009237
2723.7521,0.009317
2724.6840,0.009023
2725.6158,0.009133
2726.5476,0.009490
2727.4795,0.009695
2728.4113,0.009717
2729.3431,0.009584
2730.2750,0.009744
2731.2068,0.010262
2732.1386,0.010313
2733.0705,0.009806
2734.0023,0.009698
2734.9341,0.009760
2735.8660,0.009898
2736.7978,0.010730
2737.7296,0.011002
2738.6615,0.010494
2739.5933,0.010201
2740.5251,0.010502
2741.4570,0.010830
2742.3888,0.010726
2743.3206,0.010305
2744.2525,0.010397
2745.1843,0.010856
2746.1162,0.010862
2747.0480,0.010606
2747.9798,0.010564
2748.9117,0.010991
2749.8435,0.011212
2750.7753,0.010805
2751.7072,0.010618
2752.6390,0.011188
2753.5708,0.011455
2754.5027,0.011261
2755.4345,0.010830
2756.3663,0.010407
2757.2982,0.010935
2758.2300,0.011662
2759.1618,0.011439
2760.0937,0.010808
2761.0255,0.010777
2761.9573,0.011098
2762.8892,0.011449
2763.8210,0.011359
2764.7528,0.011212
2765.6847,0.011454
2766.6165,0.012133
2767.5483,0.012378
2768.4802,0.011614
2769.4120,0.011238
2770.3438,0.011672
2771.2757,0.012176
2772.2075,0.012313
2773.1394,0.011838
2774.0712,0.011574
2775.0030,0.011824
2775.9349,0.011670
2776.8667,0.011622
2777.7985,0.012184
2778.7304,0.012537
2779.6622,0.012521
2780.5940,0.012515
2781.5259,0.012251
2782.4577,0.012068
2783.3895,0.012363
2784.3214,0.012747
2785.2532,0.012677
2786.1850,0.012675
2787.1169,0.013135
2788.0487,0.013105
2788.9805,0.013048
2789.9124,0.013141
2790.8442,0.013193
2791.7760,0.013489
2792.7079,0.013645
2793.6397,0.013497
2794.5715,0.013487
2795.5034,0.013528
2796.4352,0.013745
2797.3670,0.014581
2798.2989,0.014744
2799.2307,0.014227
2800.1626,0.014114
2801.0944,0.014872
2802.0262,0.015556
2802.9581,0.015343
2803.8899,0.015273
2804.8217,0.015275
2805.7536,0.014799
2806.6854,0.015103
2807.6172,0.015898
2808.5491,0.015939
2809.4809,0.016012
2810.4127,0.016294
2811.3446,0.016379
2812.2764,0.016566
2813.2082,0.016713
2814.1401,0.016590
2815.0719,0.016811
2816.0037,0.017516
2816.9356,0.018104
2817.8674,0.018118
2818.7992,0.017842
2819.7311,0.017362
2820.6629,0.017166
2821.5947,0.017533
2822.5266,0.017929
2823.4584,0.018465
2824.3902,0.018957
2825.3221,0.019107
2826.2539,0.019043
2827.1857,0.018845
2828.1176,0.018855
2829.0494,0.019040
2829.9813,0.019937
2830.9131,0.020673
2831.8449,0.020307
2832.7768,0.019976
2833.7086,0.020528
2834.6404,0.020466
2835.5723,0.020034
2836.5041,0.020723
2837.4359,0.021301
2838.3678,0.021234
2839.2996,0.021218
2840.2314,0.021560
2841.1633,0.021628
2842.0951,0.021612
2843.0269,0.022332
2843.9588,0.022543
2844.8906,0.022404
2845.8224,0.022452
2846.7543,0.022347
2847.6861,0.022415
2848.6179,0.022246
2849.5498,0.022391
2850.4816,0.023171
2851.4134,0.023967
2852.3453,0.024439
2853.2771,0.024427
2854.2089,0.024689
2855.1408,0.025300
2856.0726,0.024850
2857.0045,0.024303
2857.9363,0.024884
2858.8681,0.025923
2859.8000,0.026527
2860.7318,0.026498
2861.6636,0.026735
2862.5955,0.026779
2863.5273,0.027206
2864.4591,0.028113
2865.3910,0.028531
2866.3228,0.028741
2867.2546,0.028786
2868.1865,0.028981
2869.1183,0.029755
2870.0501,0.030582
2870.9820,0.031058
2871.9138,0.031359
2872.8456,0.031930
2873.7775,0.033100
2874.7093,0.034207
2875.6411,0.034357
2876.5730,0.033950
2877.5048,0.034368
2878.4366,0.035456
2879.3685,0.035895
2880.3003,0.036034
2881.2321,0.037037
2882.1640,0.037859
2883.0958,0.037674
2884.0277,0.037572
2884.9595,0.037843
2885.8913,0.038561
2886.8232,0.039054
2887.7550,0.039111
2888.6868,0.039339
2889.6187,0.039952
2890.5505,0.040655
2891.4823,0.040879
2892.4142,0.041784
2893.3460,0.043001
2894.2778,0.043390
2895.2097,0.043319
2896.1415,0.042853
2897.0733,0.043198
2898.0052,0.044600
2898.9370,0.045087
2899.8688,0.044862
2900.8007,0.045139
2901.7325,0.045639
2902.6643,0.046188
2903.5962,0.046088
2904.5280,0.045576
2905.4598,0.046073
2906.3917,0.046097
2907.3235,0.045528
2908.2553,0.045489
2909.1872,0.044874
2910.1190,0.044347
2911.0509,0.044522
2911.9827,0.044184
2912.9145,0.043511
2913.8464,0.043693
2914.7782,0.043606
2915.7100,0.043096
2916.6419,0.043192
2917.5737,0.043047
2918.5055,0.042574
2919.4374,0.042263
2920.3692,0.042539
2921.3010,0.043009
2922.2329,0.042905
2923.1647,0.042814
2924.0965,0.043256
2925.0284,0.043375
2925.9602,0.043613
2926.8920,0.044324
2927.8239,0.044533
2928.7557,0.044378
2929.6875,0.044400
2930.6194,0.044875
2931.5512,0.045437
2932.4830,0.045641
2933.4149,0.045701
2934.3467,0.045578
2935.2785,0.045784
2936.2104,0.046299
2937.1422,0.046283
2938.0741,0.046612
2939.0059,0.046852
2939.9377,0.046280
2940.8696,0.046807
2941.8014,0.047674
2942.7332,0.047365
2943.6651,0.047383
2944.5969,0.048116
2945.5287,0.048664
2946.4606,0.048471
2947.3924,0.047776
2948.3242,0.047728
2949.2561,0.048213
2950.1879,0.048687
2951.1197,0.049019
2952.0516,0.048869
2952.9834,0.048507
2953.9152,0.048443
2954.8471,0.048707
2955.7789,0.049700
2956.7107,0.050550
2957.6426,0.050103
2958.5744,0.050037
2959.5062,0.051368
2960.4381,0.052386
2961.3699,0.053027
2962.3017,0.053438
2963.2336,0.054148
2964.1654,0.055842
2965.0972,0.057631
2966.0291,0.059365
2966.9609,0.060665
2967.8928,0.062075
2968.8246,0.063868
2969.7564,0.065949
2970.6883,0.068589
2971.6201,0.070960
2972.5519,0.073229
2973.4838,0.075589
2974.4156,0.077952
2975.3474,0.080643
2976.2793,0.083303
2977.2111,0.085266
2978.1429,0.086436
2979.0748,0.087891
2980.0066,0.088745
2980.9384,0.088436
2981.8703,0.088257
2982.8021,0.087738
2983.7339,0.087122
2984.6658,0.086569
2985.5976,0.085435
2986.5294,0.083457
2987.4613,0.080649
2988.3931,0.078080
2989.3249,0.075814
2990.2568,0.073236
2991.1886,0.071000
2992.1204,0.069533
2993.0523,0.067906
2993.9841,0.066362
2994.9160,0.065603
2995.8478,0.064240
2996.7796,0.062351
2997.7115,0.061575
2998.6433,0.061075
2999.5751,0.060320
3000.5070,0.059741
3001.4388,0.058801
3002.3706,0.058294
3003.3025,0.058260
3004.2343,0.057804
3005.1661,0.056875
3006.0980,0.057061
3007.0298,0.058054
3007.9616,0.058115
3008.8935,0.057957
3009.8253,0.058476
3010.7571,0.058840
3011.6890,0.059439
3012.6208,0.059763
3013.5526,0.059048
3014.4845,0.058544
3015.4163,0.058996
3016.3481,0.059977
3017.2800,0.060278
3018.2118,0.059934
3019.1436,0.060287
3020.0755,0.060912
3021.0073,0.061009
3021.9392,0.061174
3022.8710,0.062105
3023.8028,0.063071
3024.7347,0.063562
3025.6665,0.063964
3026.5983,0.064275
3027.5302,0.064663
3028.4620,0.065370
3029.3938,0.066568
3030.3257,0.067257
3031.2575,0.067154
3032.1893,0.067517
3033.1212,0.068706
3034.0530,0.069892
3034.9848,0.069684
3035.9167,0.069326
3036.8485,0.069719
3037.7803,0.070178
3038.7122,0.070971
3039.6440,0.071798
3040.5758,0.072665
3041.5077,0.072991
3042.4395,0.072866
3043.3713,0.073491
3044.3032,0.074682
3045.2350,0.075486
3046.1668,0.075834
3047.0987,0.076318
3048.0305,0.077236
3048.9624,0.078223
3049.8942,0.078533
3050.8260,0.078825
3051.7579,0.079457
3052.6897,0.080055
3053.6215,0.080974
3054.5534,0.082861
3055.4852,0.084412
3056.4170,0.084846
3057.3489,0.084470
3058.2807,0.084786
3059.2125,0.085837
3060.1444,0.086435
3061.0762,0.087156
3062.0080,0.087957
3062.9399,0.088014
3063.8717,0.089159
3064.8035,0.090880
3065.7354,0.091706
3066.6672,0.092133
3067.5990,0.092513
3068.5309,0.093080
3069.4627,0.094235
3070.3945,0.095135
3071.3264,0.095616
3072.2582,0.096351
3073.1900,0.097855
3074.1219,0.098603
3075.0537,0.098719
3075.9856,0.099737
3076.9174,0.101244
3077.8492,0.102478
3078.7811,0.103362
3079.7129,0.103427
3080.6447,0.104606
3081.5766,0.106388
3082.5084,0.106925
3083.4402,0.107127
3084.3721,0.108450
3085.3039,0.109703
3086.2357,0.110584
3087.1676,0.110909
3088.0994,0.111496
3089.0312,0.112300
3089.9631,0.113952
3090.8949,0.115145
3091.8267,0.116066
3092.7586,0.117250
3093.6904,0.117896
3094.6222,0.118161
3095.5541,0.119334
3096.4859,0.120841
3097.4177,0.121531
3098.3496,0.122965
3099.2814,0.124344
3100.2132,0.124256
3101.1451,0.125318
3102.0769,0.126262
3103.0087,0.127366
3103.9406,0.128872
3104.8724,0.129854
3105.8043,0.131733
3106.7361,0.133961
3107.6679,0.134902
3108.5998,0.135844
3109.5316,0.137521
3110.4634,0.138545
3111.3953,0.138105
3112.3271,0.138461
3113.2589,0.139520
3114.1908,0.140211
3115.1226,0.141470
3116.0544,0.143642
3116.9863,0.144385
3117.9181,0.145799
3118.8499,0.147594
3119.7818,0.147827
3120.7136,0.148173
3121.6454,0.150160
3122.5773,0.152004
3123.5091,0.152855
3124.4409,0.154281
3125.3728,0.155179
3126.3046,0.155633
3127.2364,0.156607
3128.1683,0.157419
3129.1001,0.158936
3130.0319,0.160766
3130.9638,0.162143
3131.8956,0.162614
3132.8275,0.164428
3133.7593,0.167227
3134.6911,0.168458
3135.6230,0.169815
3136.5548,0.171428
3137.4866,0.171978
3138.4185,0.173887
3139.3503,0.174931
3140.2821,0.175333
3141.2140,0.176464
3142.1458,0.177326
3143.0776,0.178488
3144.0095,0.179461
3144.9413,0.179961
3145.8731,0.182352
3146.8050,0.184503
3147.7368,0.186333
3148.6686,0.187303
3149.6005,0.187342
3150.5323,0.187582
3151.4641,0.189188
3152.3960,0.191666
3153.3278,0.193306
3154.2596,0.193644
3155.1915,0.195546
3156.1233,0.197242
3157.0551,0.198211
3157.9870,0.199261
3158.9188,0.200511
3159.8507,0.200476
3160.7825,0.200535
3161.7143,0.202002
3162.6462,0.204651
3163.5780,0.207632
3164.5098,0.208734
3165.4417,0.209400
3166.3735,0.212252
3167.3053,0.212627
3168.2372,0.211979
3169.1690,0.214059
3170.1008,0.217536
3171.0327,0.218230
3171.9645,0.219491
3172.8963,0.221084
3173.8282,0.221646
3174.7600,0.222912
3175.6918,0.225834
3176.6237,0.227832
3177.5555,0.228906
3178.4873,0.228350
3179.4192,0.228499
3180.3510,0.231465
3181.2828,0.234363
3182.2147,0.233965
3183.1465,0.232635
3184.0783,0.233304
3185.0102,0.236276
3185.9420,0.238296
3186.8739,0.238402
3187.8057,0.239093
3188.7375,0.242269
3189.6694,0.242991
3190.6012,0.243118
3191.5330,0.244675
3192.4649,0.247027
3193.3967,0.248788
3194.3285,0.250237
3195.2604,0.250153
3196.1922,0.250765
3197.1240,0.252002
3198.0559,0.253615
3198.9877,0.255183
3199.9195,0.256591
3200.8514,0.257254
3201.7832,0.258226
3202.7150,0.258436
3203.6469,0.257605
3204.5787,0.258969
3205.5105,0.261311
3206.4424,0.262185
3207.3742,0.264290
3208.3060,0.264828
3209.2379,0.264177
3210.1697,0.265854
3211.1015,0.268338
3212.0334,0.267881
3212.9652,0.270257
3213.8971,0.271423
3214.8289,0.270370
3215.7607,0.270056
3216.6926,0.272779
3217.6244,0.274457
3218.5562,0.275860
3219.4881,0.277089
3220.4199,0.276853
3221.3517,0.277678
3222.2836,0.279530
3223.2154,0.277981
3224.1472,0.277006
3225.0791,0.279038
3226.0109,0.282113
3226.9427,0.282455
3227.8746,0.283038
3228.8064,0.283408
3229.7382,0.284099
3230.6701,0.284957
3231.6019,0.285833
3232.5337,0.285108
3233.4656,0.285181
3234.3974,0.286032
3235.3292,0.287063
3236.2611,0.286215
3237.1929,0.285834
3238.1247,0.287393
3239.0566,0.288625
3239.9884,0.288292
3240.9202,0.289700
3241.8521,0.289517
3242.7839,0.288874
3243.7158,0.289260
3244.6476,0.289692
3245.5794,0.290061
3246.5113,0.292253
3247.4431,0.292702
3248.3749,0.291616
3249.3068,0.289907
3250.2386,0.290700
3251.1704,0.292241
3252.1023,0.293249
3253.0341,0.293561
3253.9659,0.295901
3254.8978,0.295552
3255.8296,0.294839
3256.7614,0.293607
3257.6933,0.293881
3258.6251,0.296493
3259.5569,0.296840
3260.4888,0.295709
3261.4206,0.296714
3262.3524,0.294822
3263.2843,0.292960
3264.2161,0.293375
3265.1479,0.294727
3266.0798,0.296256
3267.0116,0.297034
3267.9434,0.297088
3268.8753,0.297065
3269.8071,0.295697
3270.7390,0.296383
3271.6708,0.297711
3272.6026,0.298448
3273.5345,0.297564
3274.4663,0.298889
3275.3981,0.298159
3276.3300,0.296888
3277.2618,0.297963
3278.1936,0.297186
3279.1255,0.296064
3280.0573,0.297712
3280.9891,0.298124
3281.9210,0.298187
3282.8528,0.298757
3283.7846,0.298573
3284.7165,0.297863
3285.6483,0.298950
3286.5801,0.298296
3287.5120,0.297901
3288.4438,0.297880
3289.3756,0.299725
3290.3075,0.301001
3291.2393,0.300295
3292.1711,0.300024
3293.1030,0.300785
3294.0348,0.299951
3294.9666,0.300932
3295.8985,0.301028
3296.8303,0.300717
3297.7622,0.300783
3298.6940,0.300187
3299.6258,0.298939
3300.5577,0.300261
3301.4895,0.300268
3302.4213,0.299356
3303.3532,0.299733
3304.2850,0.300262
3305.2168,0.299205
3306.1487,0.299491
3307.0805,0.300604
3308.0123,0.301286
3308.9442,0.299519
3309.8760,0.299774
3310.8078,0.300863
3311.7397,0.301060
3312.6715,0.299532
3313.6033,0.299252
3314.5352,0.299840
3315.4670,0.300884
3316.3988,0.299620
3317.3307,0.300263
3318.2625,0.302717
3319.1943,0.304980
3320.1262,0.302984
3321.0580,0.300958
3321.9898,0.301390
3322.9217,0.301692
3323.8535,0.301542
3324.7854,0.303706
3325.7172,0.304061
3326.6490,0.301279
3327.5809,0.300385
3328.5127,0.301760
3329.4445,0.301088
3330.3764,0.301704
3331.3082,0.299571
3332.2400,0.300795
3333.1719,0.303605
3334.1037,0.304500
3335.0355,0.303559
3335.9674,0.303525
3336.8992,0.304340
3337.8310,0.304377
3338.7629,0.304076
3339.6947,0.303605
3340.6265,0.301658
3341.5584,0.301237
3342.4902,0.300413
3343.4220,0.300639
3344.3539,0.301504
3345.2857,0.300714
3346.2175,0.300479
3347.1494,0.302820
3348.0812,0.302563
3349.0130,0.300656
3349.9449,0.302256
3350.8767,0.304161
3351.8086,0.302860
3352.7404,0.304270
3353.6722,0.303937
3354.6041,0.301777
3355.5359,0.299937
3356.4677,0.300552
3357.3996,0.300604
3358.3314,0.301680
3359.2632,0.303676
3360.1951,0.304554
3361.1269,0.301420
3362.0587,0.299879
3362.9906,0.300404
3363.9224,0.302829
3364.8542,0.300754
3365.7861,0.299754
3366.7179,0.301579
3367.6497,0.302775
3368.5816,0.302471
3369.5134,0.302074
3370.4452,0.299690
3371.3771,0.296877
3372.3089,0.295138
3373.2407,0.296103
3374.1726,0.296564
3375.1044,0.296790
3376.0362,0.298245
3376.9681,0.299810
3377.8999,0.297963
3378.8317,0.296075
3379.7636,0.293836
3380.6954,0.292277
3381.6273,0.290768
3382.5591,0.293910
3383.4909,0.295593
3384.4228,0.295153
3385.3546,0.291929
3386.2864,0.291665
3387.2183,0.293870
3388.1501,0.294645
3389.0819,0.291763
3390.0138,0.290727
3390.9456,0.289001
3391.8774,0.286617
3392.8093,0.286799
3393.7411,0.287082
3394.6729,0.285644
3395.6048,0.287060
3396.5366,0.283912
3397.4684,0.281175
3398.4003,0.281287
3399.3321,0.284826
3400.2639,0.285374
3401.1958,0.283931
3402.1276,0.280840
3403.0594,0.278766
3403.9913,0.277272
3404.9231,0.278168
3405.8549,0.275954
3406.7868,0.273351
3407.7186,0.273686
3408.6505,0.276659
3409.5823,0.273253
3410.5141,0.271072
3411.4460,0.274782
3412.3778,0.277945
3413.3096,0.274019
3414.2415,0.271806
3415.1733,0.270439
3416.1051,0.267849
3417.0370,0.266920
3417.9688,0.266519
3418.9006,0.266090
3419.8325,0.265519
3420.7643,0.263576
3421.6961,0.262226
3422.6280,0.260279
3423.5598,0.260371
3424.4916,0.259599
3425.4235,0.258703
3426.3553,0.258896
3427.2871,0.259921
3428.2190,0.257517
3429.1508,0.257289
3430.0826,0.255481
3431.0145,0.253784
3431.9463,0.253101
3432.8781,0.252418
3433.8100,0.251337
3434.7418,0.251219
3435.6737,0.248960
3436.6055,0.245657
3437.5373,0.244235
3438.4692,0.245911
3439.4010,0.245053
3440.3328,0.243250
3441.2647,0.240311
3442.1965,0.240203
3443.1283,0.239698
3444.0602,0.237573
3444.9920,0.236346
3445.9238,0.235333
3446.8557,0.231119
3447.7875,0.232073
3448.7193,0.232298
3449.6512,0.232596
3450.5830,0.232529
3451.5148,0.231091
3452.4467,0.229042
3453.3785,0.227727
3454.3103,0.225914
3455.2422,0.224503
3456.1740,0.221699
3457.1058,0.221295
3458.0377,0.224081
3458.9695,0.225487
3459.9013,0.221634
3460.8332,0.218486
3461.7650,0.216696
3462.6969,0.217373
3463.6287,0.216027
3464.5605,0.214854
3465.4924,0.215479
3466.4242,0.213911
3467.3560,0.211215
3468.2879,0.210961
3469.2197,0.209531
3470.1515,0.208750
3471.0834,0.208892
3472.0152,0.209704
3472.9470,0.207000
3473.8789,0.203362
3474.8107,0.201422
3475.7425,0.203321
3476.6744,0.201489
3477.6062,0.198868
3478.5380,0.197563
3479.4699,0.196477
3480.4017,0.194665
3481.3335,0.195577
3482.2654,0.197933
3483.1972,0.199732
3484.1290,0.196470
3485.0609,0.195610
3485.9927,0.190913
3486.9245,0.187483
3487.8564,0.188299
3488.7882,0.193056
3489.7201,0.192310
3490.6519,0.188175
3491.5837,0.184622
3492.5156,0.184490
3493.4474,0.182448
3494.3792,0.179567
3495.3111,0.181416
3496.2429,0.180610
3497.1747,0.177300
3498.1066,0.178751
3499.0384,0.179652
3499.9702,0.176510
3500.9021,0.171711
3501.8339,0.171461
3502.7657,0.173092
3503.6976,0.173301
3504.6294,0.173821
3505.5612,0.173743
3506.4931,0.170357
3507.4249,0.167539
3508.3567,0.166555
3509.2886,0.166177
3510.2204,0.163849
3511.1522,0.163165
3512.0841,0.163076
3513.0159,0.162734
3513.9477,0.160687
3514.8796,0.162210
3515.8114,0.159969
3516.7432,0.158138
3517.6751,0.155257
3518.6069,0.155894
3519.5388,0.157156
3520.4706,0.157630
3521.4024,0.154089
3522.3343,0.150561
3523.2661,0.148589
3524.1979,0.146993
3525.1298,0.145952
3526.0616,0.145928
3526.9934,0.144563
3527.9253,0.144954
3528.8571,0.145020
3529.7889,0.145973
3530.7208,0.144776
3531.6526,0.144721
3532.5844,0.142220
3533.5163,0.141209
3534.4481,0.142587
3535.3799,0.141807
3536.3118,0.138754
3537.2436,0.136733
3538.1754,0.135713
3539.1073,0.135331
3540.0391,0.132631
3540.9709,0.130109
3541.9028,0.131352
3542.8346,0.129442
3543.7664,0.127881
3544.6983,0.128621
3545.6301,0.129537
3546.5620,0.131396
3547.4938,0.128260
3548.4256,0.124024
3549.3575,0.123877
3550.2893,0.124132
3551.2211,0.120904
3552.1530,0.118389
3553.0848,0.117412
3554.0166,0.120559
3554.9485,0.121692
3555.8803,0.119928
3556.8121,0.118327
3557.7440,0.114286
3558.6758,0.111250
3559.6076,0.109738
3560.5395,0.110928
3561.4713,0.113355
3562.4031,0.112194
3563.3350,0.111941
3564.2668,0.111135
3565.1986,0.107435
3566.1305,0.104868
3567.0623,0.106757
3567.9941,0.109403
3568.9260,0.108305
3569.8578,0.104584
3570.7896,0.102989
3571.7215,0.100375
3572.6533,0.099806
3573.5852,0.099192
3574.5170,0.098518
3575.4488,0.099470
3576.3807,0.100205
3577.3125,0.098335
3578.2443,0.097009
3579.1762,0.095088
3580.1080,0.092506
3581.0398,0.092736
3581.9717,0.092603
3582.9035,0.090304
3583.8353,0.091000
3584.7672,0.090164
3585.6990,0.090635
3586.6308,0.091703
3587.5627,0.088625
3588.4945,0.086396
3589.4263,0.085195
3590.3582,0.085632
3591.2900,0.085354
3592.2218,0.082565
3593.1537,0.083141
3594.0855,0.084829
3595.0173,0.082881
3595.9492,0.079893
3596.8810,0.080059
3597.8128,0.079737
3598.7447,0.077781
3599.6765,0.076497
3600.6084,0.077168
3601.5402,0.077479
3602.4720,0.076326
3603.4039,0.074156
3604.3357,0.072557
3605.2675,0.072389
3606.1994,0.074502
3607.1312,0.073950
3608.0630,0.071989
3608.9949,0.070643
3609.9267,0.069450
3610.8585,0.069026
3611.7904,0.069940
3612.7222,0.068366
3613.6540,0.066348
3614.5859,0.065054
3615.5177,0.065270
3616.4495,0.065497
3617.3814,0.063394
3618.3132,0.061811
3619.2450,0.061879
3620.1769,0.061697
3621.1087,0.063045
3622.0405,0.063536
3622.9724,0.061666
3623.9042,0.060330
3624.8360,0.059184
3625.7679,0.057423
3626.6997,0.057046
3627.6316,0.058451
3628.5634,0.059004
3629.4952,0.058393
3630.4271,0.057547
3631.3589,0.053624
3632.2907,0.053189
3633.2226,0.052153
3634.1544,0.050695
3635.0862,0.050634
3636.0181,0.051602
3636.9499,0.051070
3637.8817,0.049533
3638.8136,0.048427
3639.7454,0.048551
3640.6772,0.048100
3641.6091,0.047492
3642.5409,0.047871
3643.4727,0.047150
3644.4046,0.045645
3645.3364,0.046097
3646.2682,0.045147
3647.2001,0.041554
3648.1319,0.039549
3649.0637,0.040166
3649.9956,0.040720
3650.9274,0.039801
3651.8592,0.036792
3652.7911,0.035322
3653.7229,0.035463
3654.6547,0.035233
3655.5866,0.036073
3656.5184,0.036748
3657.4503,0.035271
3658.3821,0.034119
3659.3139,0.033418
3660.2458,0.032716
3661.1776,0.031896
3662.1094,0.030999
3663.0413,0.031418
3663.9731,0.030962
3664.9049,0.029715
3665.8368,0.027725
3666.7686,0.027145
3667.7004,0.027489
3668.6323,0.027321
3669.5641,0.026826
3670.4959,0.026672
3671.4278,0.025464
3672.3596,0.021140
3673.2914,0.019174
3674.2233,0.019723
3675.1551,0.019196
3676.0869,0.017712
3677.0188,0.018490
3677.9506,0.019383
3678.8824,0.018584
3679.8143,0.016745
3680.7461,0.015645
3681.6779,0.016149
3682.6098,0.016779
3683.5416,0.017329
3684.4735,0.016572
3685.4053,0.015551
3686.3371,0.014663
3687.2690,0.013532
3688.2008,0.013378
3689.1326,0.014092
3690.0645,0.012828
3690.9963,0.012100
3691.9281,0.010803
3692.8600,0.010228
3693.7918,0.010525
3694.7236,0.009535
3695.6555,0.009533
3696.5873,0.009356
3697.5191,0.008530
3698.4510,0.008210
3699.3828,0.008602
3700.3146,0.008985
3701.2465,0.009265
3702.1783,0.008493
3703.1101,0.007715
3704.0420,0.007565
3704.9738,0.006864
3705.9056,0.006116
3706.8375,0.005158
3707.7693,0.004522
3708.7011,0.004965
3709.6330,0.005376
3710.5648,0.004961
3711.4967,0.003776
3712.4285,0.004834
3713.3603,0.005016
3714.2922,0.005294
3715.2240,0.004688
3716.1558,0.003497
3717.0877,0.003927
3718.0195,0.003835
3718.9513,0.003653
3719.8832,0.003798
3720.8150,0.003997
3721.7468,0.004384
3722.6787,0.004475
3723.6105,0.004645
3724.5423,0.004064
3725.4742,0.003504
3726.4060,0.004547
3727.3378,0.004009
3728.2697,0.001444
3729.2015,0.001608
3730.1333,0.003453
3731.0652,0.003302
3731.9970,0.002415
3732.9288,0.001994
3733.8607,0.001909
3734.7925,0.003184
3735.7243,0.003320
3736.6562,0.002606
3737.5880,0.001574
3738.5199,-0.000279
3739.4517,-0.000493
3740.3835,0.001135
3741.3154,0.002487
3742.2472,0.003201
3743.1790,0.002818
3744.1109,0.000919
3745.0427,0.001634
3745.9745,0.002542
3746.9064,0.000229
3747.8382,-0.000994
3748.7700,-0.001187
3749.7019,-0.000916
3750.6337,0.000145
3751.5655,0.001361
3752.4974,0.001903
3753.4292,0.001644
3754.3610,0.000969
3755.2929,0.001090
3756.2247,0.001735
3757.1565,0.001692
3758.0884,0.001337
3759.0202,0.002352
3759.9520,0.003357
3760.8839,0.002968
3761.8157,0.002926
3762.7475,0.003139
3763.6794,0.001909
3764.6112,0.001363
3765.5431,0.001599
3766.4749,0.001049
3767.4067,0.000462
3768.3386,0.001165
3769.2704,0.001825
3770.2022,0.001968
3771.1341,0.002172
3772.0659,0.001637
3772.9977,0.000827
3773.9296,0.000940
3774.8614,0.001336
3775.7932,0.001293
3776.7251,0.001593
3777.6569,0.001614
3778.5887,0.001562
3779.5206,0.001032
3780.4524,-0.000052
3781.3842,0.000095
3782.3161,0.000803
3783.2479,0.001576
3784.1797,0.001133
3785.1116,0.000186
3786.0434,0.001060
3786.9752,0.001825
3787.9071,0.002276
3788.8389,0.002149
3789.7707,0.001213
3790.7026,0.000937
3791.6344,0.000694
3792.5662,0.000650
3793.4981,0.000773
3794.4299,0.000521
3795.3618,0.000729
3796.2936,0.000373
3797.2254,0.001232
3798.1573,0.002850
3799.0891,0.002578
3800.0209,0.000812
3800.9528,-0.000181
3801.8846,0.000059
3802.8164,-0.000624
3803.7483,-0.000752
3804.6801,0.000118
3805.6119,0.001003
3806.5438,0.001443
3807.4756,0.001160
3808.4074,0.000657
3809.3393,0.000395
3810.2711,0.000540
3811.2029,0.000275
3812.1348,0.000114
3813.0666,-0.000450
3813.9984,-0.000588
3814.9303,0.000224
3815.8621,0.001417
3816.7939,0.002893
3817.7258,0.002597
3818.6576,0.000971
3819.5894,0.001462
3820.5213,0.002022
3821.4531,0.001112
3822.3850,0.000381
3823.3168,0.000161
3824.2486,0.000516
3825.1805,0.001838
3826.1123,0.001797
3827.0441,0.000622
3827.9760,0.000123
3828.9078,-0.000491
3829.8396,-0.000642
3830.7715,0.000033
3831.7033,0.000298
3832.6351,0.000360
3833.5670,0.000192
3834.4988,0.000749
3835.4306,0.000009
3836.3625,-0.000444
3837.2943,0.000264
3838.2261,0.000192
3839.1580,-0.001143
3840.0898,-0.001139
3841.0216,0.000030
3841.9535,0.000372
3842.8853,-0.000163
3843.8171,-0.000322
3844.7490,0.000129
3845.6808,-0.000216
3846.6126,-0.000835
3847.5445,-0.000283
3848.4763,0.001097
3849.4082,0.001031
3850.3400,0.000100
3851.2718,-0.000382
3852.2037,-0.001060
3853.1355,-0.000940
3854.0673,0.000576
3854.9992,-0.000277
3855.9310,-0.003053
3856.8628,-0.001829
3857.7947,0.001282
3858.7265,0.002828
3859.6583,0.002771
3860.5902,0.001957
3861.5220,0.000763
3862.4538,0.000492
3863.3857,0.000213
3864.3175,-0.000119
3865.2493,0.000662
3866.1812,0.000956
3867.1130,0.000037
3868.0448,-0.000386
3868.9767,0.000714
3869.9085,0.001117
3870.8403,0.000342
3871.7722,-0.000435
3872.7040,-0.000426
3873.6358,0.000120
3874.5677,0.000642
3875.4995,0.000748
3876.4314,-0.000127
3877.3632,-0.000128
3878.2950,0.000372
3879.2269,0.000183
3880.1587,0.000299
3881.0905,0.001676
3882.0224,0.001689
3882.9542,0.000328
3883.8860,-0.000448
3884.8179,0.000130
3885.7497,0.000302
3886.6815,0.000238
3887.6134,0.000573
3888.5452,0.000928
3889.4770,0.000915
3890.4089,0.001298
3891.3407,0.001312
3892.2725,0.000228
3893.2044,-0.000352
3894.1362,-0.000270
3895.0680,0.000448
3895.9999,0.001158
3896.9317,0.000654
3897.8635,0.000657
3898.7954,0.000872
3899.7272,0.000499
3900.6590,0.000838
3901.5909,0.001012
3902.5227,0.000826
3903.4546,0.000986
3904.3864,0.000349
3905.3182,-0.000434
3906.2501,-0.000254
3907.1819,0.000434
3908.1137,0.000645
3909.0456,0.000894
3909.9774,0.000940
3910.9092,0.000130
3911.8411,0.000358
3912.7729,0.002257
3913.7047,0.002723
3914.6366,0.002290
3915.5684,0.002657
3916.5002,0.002907
3917.4321,0.002392
3918.3639,0.001399
3919.2957,0.000880
3920.2276,0.001192
3921.1594,0.001920
3922.0912,0.000970
3923.0231,0.000339
3923.9549,0.001031
3924.8867,0.000627
3925.8186,0.000067
3926.7504,0.000399
3927.6822,0.001119
3928.6141,0.000809
3929.5459,-0.000419
3930.4777,-0.000426
3931.4096,0.000868
3932.3414,0.001143
3933.2733,0.000087
3934.2051,0.000749
3935.1369,0.001739
3936.0688,0.000513
3937.0006,0.000721
3937.9324,0.002621
3938.8643,0.002894
3939.7961,0.001451
3940.7279,0.000837
3941.6598,0.001305
3942.5916,0.001973
3943.5234,0.001891
3944.4553,0.001646
3945.3871,0.001078
3946.3189,-0.000175
3947.2508,0.000006
3948.1826,0.000247
3949.1144,0.000621
3950.0463,0.001469
3950.9781,0.001296
3951.9099,0.001329
3952.8418,0.001251
3953.7736,0.000498
3954.7054,0.000611
3955.6373,0.001584
3956.5691,0.002253
3957.5009,0.002049
3958.4328,0.000568
3959.3646,-0.000287
3960.2965,0.000231
3961.2283,0.001358
3962.1601,0.001661
3963.0920,0.001362
3964.0238,0.001492
3964.9556,0.001413
3965.8875,0.001793
3966.8193,0.002248
3967.7511,0.002424
3968.6830,0.002646
3969.6148,0.001950
3970.5466,0.001335
3971.4785,0.001237
3972.4103,0.000870
3973.3421,0.000799
3974.2740,0.000464
3975.2058,-0.000346
3976.1376,0.000020
3977.0695,0.001084
3978.0013,0.001165
3978.9331,0.000414
3979.8650,0.000207
3980.7968,0.000239
3981.7286,0.000263
3982.6605,0.000437
3983.5923,0.000842
3984.5241,0.001580
3985.4560,0.002517
3986.3878,0.001954
3987.3197,0.000541
3988.2515,0.000387
3989.1833,0.001157
3990.1152,0.001759
3991.0470,0.001333
3991.9788,0.000679
3992.9107,0.000174
3993.8425,0.000013
3994.7743,0.001296
3995.7062,0.002071
3996.6380,0.001024
3997.5698,-0.000124
3998.5017,0.000280
3999.4335,0.001265
4000.3653,0.000879
