Wavenumber,Intensity
650.4205,0.396987
651.3523,0.391217
652.2841,0.401278
653.2160,0.408840
654.1478,0.390003
655.0796,0.385942
656.0115,0.390598
656.9433,0.395321
657.8751,0.380644
658.8070,0.371869
659.7388,0.371092
660.6706,0.386601
661.6025,0.399279
662.5343,0.392584
663.4661,0.376152
664.3980,0.380255
665.3298,0.383098
666.2616,0.376419
667.1935,0.368185
668.1253,0.376937
669.0571,0.376458
669.9890,0.372324
670.9208,0.375023
671.8526,0.372700
672.7845,0.366759
673.7163,0.367259
674.6481,0.364517
675.5800,0.357987
676.5118,0.355657
677.4437,0.364282
678.3755,0.368243
679.3073,0.370551
680.2392,0.364643
681.1710,0.361524
682.1028,0.361712
683.0347,0.360753
683.9665,0.352010
684.8983,0.349354
685.8302,0.346440
686.7620,0.347182
687.6938,0.351105
688.6257,0.354904
689.5575,0.354649
690.4893,0.346641
691.4212,0.334528
692.3530,0.336782
693.2848,0.342498
694.2167,0.344785
695.1485,0.342224
696.0803,0.337708
697.0122,0.332212
697.9440,0.332301
698.8758,0.333845
699.8077,0.329730
700.7395,0.330303
701.6713,0.332803
702.6032,0.327021
703.5350,0.324694
704.4669,0.322508
705.3987,0.323367
706.3305,0.326154
707.2624,0.327305
708.1942,0.326517
709.1260,0.322140
710.0579,0.314902
710.9897,0.316309
711.9215,0.317602
712.8534,0.316723
713.7852,0.313993
714.7170,0.315682
715.6489,0.313377
716.5807,0.311519
717.5125,0.309160
718.4444,0.307294
719.3762,0.303052
720.3080,0.302549
721.2399,0.305347
722.1717,0.304501
723.1035,0.299525
724.0354,0.301755
724.9672,0.302171
725.8990,0.300785
726.8309,0.298968
727.7627,0.296457
728.6945,0.293615
729.6264,0.292242
730.5582,0.290166
731.4901,0.289137
732.4219,0.288405
733.3537,0.287137
734.2856,0.284320
735.2174,0.282717
736.1492,0.280206
737.0811,0.280330
738.0129,0.281256
738.9447,0.280434
739.8766,0.276535
740.8084,0.273849
741.7402,0.272874
742.6721,0.272499
743.6039,0.271507
744.5357,0.270964
745.4676,0.270810
746.3994,0.268194
747.3312,0.266126
748.2631,0.266308
749.1949,0.264472
750.1267,0.260719
751.0586,0.259315
751.9904,0.258445
752.9222,0.257282
753.8541,0.258788
754.7859,0.257665
755.7177,0.255559
756.6496,0.253926
757.5814,0.253326
758.5132,0.252406
759.4451,0.251652
760.3769,0.249404
761.3088,0.246956
762.2406,0.245029
763.1724,0.244799
764.1043,0.243748
765.0361,0.242537
765.9679,0.241244
766.8998,0.240022
767.8316,0.238035
768.7634,0.236173
769.6953,0.234270
770.6271,0.235240
771.5589,0.234248
772.4908,0.231852
773.4226,0.230799
774.3544,0.229533
775.2863,0.227610
776.2181,0.225523
777.1499,0.223007
778.0818,0.223593
779.0136,0.223025
779.9454,0.222684
780.8773,0.221303
781.8091,0.219196
782.7409,0.217525
783.6728,0.215938
784.6046,0.215378
785.5364,0.215901
786.4683,0.214081
787.4001,0.211245
788.3320,0.209811
789.2638,0.209818
790.1956,0.208517
791.1275,0.206582
792.0593,0.204701
792.9911,0.204303
793.9230,0.203522
794.8548,0.202478
795.7866,0.200476
796.7185,0.198998
797.6503,0.197538
798.5821,0.195543
799.5140,0.194806
800.4458,0.195167
801.3776,0.192896
802.3095,0.190586
803.2413,0.189509
804.1731,0.189855
805.1050,0.189431
806.0368,0.187379
806.9686,0.185179
807.9005,0.184395
808.8323,0.183706
809.7641,0.181965
810.6960,0.178955
811.6278,0.177653
812.5596,0.177549
813.4915,0.177174
814.4233,0.176046
815.3552,0.174584
816.2870,0.172314
817.2188,0.170718
818.1507,0.170327
819.0825,0.168792
820.0143,0.167625
820.9462,0.166386
821.8780,0.164721
822.8098,0.163970
823.7417,0.162554
824.6735,0.161527
825.6053,0.161102
826.5372,0.160375
827.4690,0.158851
828.4008,0.157562
829.3327,0.156722
830.2645,0.155335
831.1963,0.154553
832.1282,0.153717
833.0600,0.152089
833.9918,0.150989
834.9237,0.150551
835.8555,0.149472
836.7873,0.148006
837.7192,0.146426
838.6510,0.144853
839.5828,0.143948
840.5147,0.143266
841.4465,0.142759
842.3784,0.141972
843.3102,0.140738
844.2420,0.139951
845.1739,0.139035
846.1057,0.137786
847.0375,0.136030
847.9694,0.134702
848.9012,0.134295
849.8330,0.133871
850.7649,0.133288
851.6967,0.132565
852.6285,0.131090
853.5604,0.130007
854.4922,0.129529
855.4240,0.128270
856.3559,0.127560
857.2877,0.127346
858.2195,0.127292
859.1514,0.126244
860.0832,0.125601
861.0150,0.125285
861.9469,0.124663
862.8787,0.124866
863.8105,0.124997
864.7424,0.124433
865.6742,0.124591
866.6060,0.125402
867.5379,0.126120
868.4697,0.126377
869.4016,0.127017
870.3334,0.128600
871.2652,0.131153
872.1971,0.133273
873.1289,0.135160
874.0607,0.138387
874.9926,0.142139
875.9244,0.144662
876.8562,0.146677
877.7881,0.147477
878.7199,0.146425
879.6517,0.143833
880.5836,0.139874
881.5154,0.134961
882.4472,0.129634
883.3791,0.124062
884.3109,0.118764
885.2427,0.114201
886.1746,0.110097
887.1064,0.106885
888.0382,0.104772
888.9701,0.102493
889.9019,0.099896
890.8337,0.097644
891.7656,0.095760
892.6974,0.094409
893.6292,0.093580
894.5611,0.092056
895.4929,0.090548
896.4247,0.089315
897.3566,0.088333
898.2884,0.087848
899.2203,0.087041
900.1521,0.085896
901.0839,0.085260
902.0158,0.084385
902.9476,0.083351
903.8794,0.082858
904.8113,0.082206
905.7431,0.081431
906.6749,0.080943
907.6068,0.080133
908.5386,0.079460
909.4704,0.078850
910.4023,0.077933
911.3341,0.077326
912.2659,0.076631
913.1978,0.075651
914.1296,0.075056
915.0614,0.074490
915.9933,0.074234
916.9251,0.073808
917.8569,0.073049
918.7888,0.072371
919.7206,0.071615
920.6524,0.070999
921.5843,0.070584
922.5161,0.070107
923.4479,0.069670
924.3798,0.069086
925.3116,0.068392
926.2435,0.067779
927.1753,0.067465
928.1071,0.067004
929.0390,0.066648
929.9708,0.066561
930.9026,0.066187
931.8345,0.065625
932.7663,0.065434
933.6981,0.065064
934.6300,0.064390
935.5618,0.063833
936.4936,0.063802
937.4255,0.063593
938.3573,0.063148
939.2891,0.062973
940.2210,0.062683
941.1528,0.062103
942.0846,0.062096
943.0165,0.061931
943.9483,0.061148
944.8801,0.060991
945.8120,0.061157
946.7438,0.060719
947.6756,0.060337
948.6075,0.059874
949.5393,0.059883
950.4711,0.059655
951.4030,0.059633
952.3348,0.059519
953.2667,0.059219
954.1985,0.058986
955.1303,0.058915
956.0622,0.058748
956.9940,0.058263
957.9258,0.058038
958.8577,0.058065
959.7895,0.057855
960.7213,0.057620
961.6532,0.057733
962.5850,0.057270
963.5168,0.056648
964.4487,0.056727
965.3805,0.056768
966.3123,0.056359
967.2442,0.055813
968.1760,0.055624
969.1078,0.055596
970.0397,0.055309
970.9715,0.054833
971.9033,0.054478
972.8352,0.054250
973.7670,0.053803
974.6988,0.053246
975.6307,0.053003
976.5625,0.053062
977.4943,0.052708
978.4262,0.052054
979.3580,0.051695
980.2899,0.051289
981.2217,0.050985
982.1535,0.050799
983.0854,0.050266
984.0172,0.049686
984.9490,0.049398
985.8809,0.049051
986.8127,0.048378
987.7445,0.047770
988.6764,0.047494
989.6082,0.047307
990.5400,0.047144
991.4719,0.047266
992.4037,0.047542
993.3355,0.047495
994.2674,0.047263
995.1992,0.047131
996.1310,0.046999
997.0629,0.046996
997.9947,0.047452
998.9265,0.047928
999.8584,0.048046
1000.7902,0.047994
1001.7220,0.048125
1002.6539,0.048531
1003.5857,0.048998
1004.5175,0.049622
1005.4494,0.050000
1006.3812,0.050007
1007.3131,0.049999
1008.2449,0.050160
1009.1767,0.050463
1010.1086,0.050472
1011.0404,0.050716
1011.9722,0.051172
1012.9041,0.051574
1013.8359,0.052405
1014.7677,0.053259
1015.6996,0.053746
1016.6314,0.054266
1017.5632,0.054872
1018.4951,0.055690
1019.4269,0.056685
1020.3587,0.057484
1021.2906,0.058032
1022.2224,0.058983
1023.1542,0.060428
1024.0861,0.061718
1025.0179,0.063067
1025.9497,0.064939
1026.8816,0.067320
1027.8134,0.069414
1028.7452,0.071492
1029.6771,0.074262
1030.6089,0.077525
1031.5407,0.081119
1032.4726,0.085439
1033.4044,0.090655
1034.3362,0.096629
1035.2681,0.103432
1036.1999,0.111118
1037.1318,0.119708
1038.0636,0.129099
1038.9954,0.139346
1039.9273,0.150407
1040.8591,0.161377
1041.7909,0.171151
1042.7228,0.178782
1043.6546,0.183722
1044.5864,0.185560
1045.5183,0.183302
1046.4501,0.177170
1047.3819,0.168171
1048.3138,0.157125
1049.2456,0.145168
1050.1774,0.132898
1051.1093,0.120867
1052.0411,0.109792
1052.9729,0.099773
1053.9048,0.090660
1054.8366,0.082677
1055.7684,0.076187
1056.7003,0.070919
1057.6321,0.066596
1058.5639,0.063095
1059.4958,0.060272
1060.4276,0.058090
1061.3594,0.056583
1062.2913,0.055495
1063.2231,0.054671
1064.1550,0.054296
1065.0868,0.054167
1066.0186,0.054024
1066.9505,0.054161
1067.8823,0.054500
1068.8141,0.054868
1069.7460,0.055551
1070.6778,0.056631
1071.6096,0.057927
1072.5415,0.059204
1073.4733,0.060754
1074.4051,0.062363
1075.3370,0.063998
1076.2688,0.065928
1077.2006,0.067966
1078.1325,0.070244
1079.0643,0.072733
1079.9961,0.074899
1080.9280,0.076974
1081.8598,0.079245
1082.7916,0.081280
1083.7235,0.082518
1084.6553,0.083411
1085.5871,0.083965
1086.5190,0.083700
1087.4508,0.082719
1088.3826,0.081349
1089.3145,0.079555
1090.2463,0.076934
1091.1782,0.074082
1092.1100,0.071291
1093.0418,0.068069
1093.9737,0.064791
1094.9055,0.061912
1095.8373,0.059256
1096.7692,0.056984
1097.7010,0.054982
1098.6328,0.052776
1099.5647,0.050793
1100.4965,0.049400
1101.4283,0.048236
1102.3602,0.047081
1103.2920,0.046043
1104.2238,0.045114
1105.1557,0.044363
1106.0875,0.043914
1107.0193,0.043488
1107.9512,0.042895
1108.8830,0.042276
1109.8148,0.042016
1110.7467,0.041770
1111.6785,0.041473
1112.6103,0.041257
1113.5422,0.041071
1114.4740,0.041146
1115.4058,0.041188
1116.3377,0.040937
1117.2695,0.040849
1118.2014,0.040894
1119.1332,0.040829
1120.0650,0.040691
1120.9969,0.040535
1121.9287,0.040806
1122.8605,0.041051
1123.7924,0.040832
1124.7242,0.040751
1125.6560,0.040877
1126.5879,0.040827
1127.5197,0.040739
1128.4515,0.040564
1129.3834,0.040303
1130.3152,0.040105
1131.2470,0.039995
1132.1789,0.040087
1133.1107,0.040167
1134.0425,0.040173
1134.9744,0.040059
1135.9062,0.039890
1136.8380,0.039872
1137.7699,0.039711
1138.7017,0.039510
1139.6335,0.039526
1140.5654,0.039818
1141.4972,0.039980
1142.4290,0.039765
1143.3609,0.039653
1144.2927,0.039759
1145.2246,0.039803
1146.1564,0.039691
1147.0882,0.039982
1148.0201,0.040471
1148.9519,0.040522
1149.8837,0.040482
1150.8156,0.040579
1151.7474,0.040675
1152.6792,0.040828
1153.6111,0.040860
1154.5429,0.040904
1155.4747,0.041099
1156.4066,0.041247
1157.3384,0.041335
1158.2702,0.041221
1159.2021,0.040992
1160.1339,0.040974
1161.0657,0.041056
1161.9976,0.041094
1162.9294,0.041019
1163.8612,0.040711
1164.7931,0.040591
1165.7249,0.040794
1166.6567,0.040861
1167.5886,0.040667
1168.5204,0.040436
1169.4522,0.040446
1170.3841,0.040524
1171.3159,0.040582
1172.2477,0.040685
1173.1796,0.040630
1174.1114,0.040660
1175.0433,0.040786
1175.9751,0.040770
1176.9069,0.040885
1177.8388,0.040812
1178.7706,0.040624
1179.7024,0.040694
1180.6343,0.040695
1181.5661,0.040785
1182.4979,0.040884
1183.4298,0.040782
1184.3616,0.040734
1185.2934,0.040736
1186.2253,0.040737
1187.1571,0.040741
1188.0889,0.040749
1189.0208,0.040710
1189.9526,0.040571
1190.8844,0.040628
1191.8163,0.040891
1192.7481,0.040906
1193.6799,0.040771
1194.6118,0.040637
1195.5436,0.040522
1196.4754,0.040619
1197.4073,0.040836
1198.3391,0.040856
1199.2709,0.040854
1200.2028,0.040881
1201.1346,0.040728
1202.0665,0.040608
1202.9983,0.040626
1203.9301,0.040736
1204.8620,0.040871
1205.7938,0.040993
1206.7256,0.041004
1207.6575,0.040940
1208.5893,0.040984
1209.5211,0.040865
1210.4530,0.040758
1211.3848,0.040881
1212.3166,0.040876
1213.2485,0.040693
1214.1803,0.040705
1215.1121,0.040962
1216.0440,0.041169
1216.9758,0.041307
1217.9076,0.041083
1218.8395,0.040881
1219.7713,0.041158
1220.7031,0.041236
1221.6350,0.041061
1222.5668,0.041009
1223.4986,0.041158
1224.4305,0.041369
1225.3623,0.041425
1226.2941,0.041324
1227.2260,0.041220
1228.1578,0.041282
1229.0897,0.041344
1230.0215,0.041551
1230.9533,0.041635
1231.8852,0.041293
1232.8170,0.041287
1233.7488,0.041706
1234.6807,0.041822
1235.6125,0.041725
1236.5443,0.041937
1237.4762,0.042119
1238.4080,0.042110
1239.3398,0.042096
1240.2717,0.042130
1241.2035,0.042393
1242.1353,0.042510
1243.0672,0.042310
1243.9990,0.042135
1244.9308,0.042196
1245.8627,0.042348
1246.7945,0.042460
1247.7263,0.042781
1248.6582,0.042895
1249.5900,0.042791
1250.5218,0.043034
1251.4537,0.043217
1252.3855,0.043225
1253.3173,0.043463
1254.2492,0.043649
1255.1810,0.043727
1256.1129,0.044111
1257.0447,0.044516
1257.9765,0.044622
1258.9084,0.044745
1259.8402,0.045184
1260.7720,0.045561
1261.7039,0.045710
1262.6357,0.045930
1263.5675,0.046317
1264.4994,0.046716
1265.4312,0.047132
1266.3630,0.047754
1267.2949,0.048175
1268.2267,0.048258
1269.1585,0.048517
1270.0904,0.049001
1271.0222,0.049413
1271.9540,0.049877
1272.8859,0.050311
1273.8177,0.050319
1274.7495,0.050246
1275.6814,0.050171
1276.6132,0.050073
1277.5450,0.050175
1278.4769,0.050039
1279.4087,0.049700
1280.3405,0.049409
1281.2724,0.048946
1282.2042,0.048471
1283.1361,0.048245
1284.0679,0.048134
1284.9997,0.047978
1285.9316,0.047691
1286.8634,0.047483
1287.7952,0.047541
1288.7271,0.047606
1289.6589,0.047476
1290.5907,0.047442
1291.5226,0.047529
1292.4544,0.047555
1293.3862,0.047624
1294.3181,0.047716
1295.2499,0.047861
1296.1817,0.047853
1297.1136,0.047979
1298.0454,0.048475
1298.9772,0.048432
1299.9091,0.048108
1300.8409,0.048270
1301.7727,0.048527
1302.7046,0.048716
1303.6364,0.048871
1304.5682,0.049043
1305.5001,0.049190
1306.4319,0.049432
1307.3637,0.049970
1308.2956,0.050234
1309.2274,0.050140
1310.1592,0.050166
1311.0911,0.050166
1312.0229,0.050257
1312.9548,0.050612
1313.8866,0.051060
1314.8184,0.051134
1315.7503,0.051036
1316.6821,0.050962
1317.6139,0.050996
1318.5458,0.051260
1319.4776,0.051591
1320.4094,0.051890
1321.3413,0.051997
1322.2731,0.052125
1323.2049,0.052114
1324.1368,0.051951
1325.0686,0.051908
1326.0004,0.051811
1326.9323,0.051701
1327.8641,0.051814
1328.7959,0.051970
1329.7278,0.051817
1330.6596,0.051594
1331.5914,0.051496
1332.5233,0.051244
1333.4551,0.050807
1334.3869,0.050520
1335.3188,0.050315
1336.2506,0.049943
1337.1824,0.049763
1338.1143,0.050040
1339.0461,0.050086
1339.9780,0.050000
1340.9098,0.050154
1341.8416,0.050156
1342.7735,0.049576
1343.7053,0.048779
1344.6371,0.048238
1345.5690,0.047992
1346.5008,0.047936
1347.4326,0.047743
1348.3645,0.047516
1349.2963,0.047555
1350.2281,0.047472
1351.1600,0.047333
1352.0918,0.047177
1353.0236,0.046834
1353.9555,0.046666
1354.8873,0.046538
1355.8191,0.046646
1356.7510,0.046961
1357.6828,0.046760
1358.6146,0.046340
1359.5465,0.046005
1360.4783,0.045733
1361.4101,0.045921
1362.3420,0.046743
1363.2738,0.047631
1364.2056,0.048544
1365.1375,0.048444
1366.0693,0.047463
1367.0012,0.047200
1367.9330,0.047415
1368.8648,0.047949
1369.7967,0.048769
1370.7285,0.049265
1371.6603,0.049509
1372.5922,0.050212
1373.5240,0.051094
1374.4558,0.052590
1375.3877,0.054782
1376.3195,0.055790
1377.2513,0.055507
1378.1832,0.055440
1379.1150,0.056067
1380.0468,0.056853
1380.9787,0.057340
1381.9105,0.057528
1382.8423,0.057575
1383.7742,0.057657
1384.7060,0.057651
1385.6378,0.057607
1386.5697,0.057613
1387.5015,0.057722
1388.4333,0.058482
1389.3652,0.058742
1390.2970,0.057628
1391.2288,0.056652
1392.1607,0.056141
1393.0925,0.055399
1394.0244,0.054712
1394.9562,0.055141
1395.8880,0.056760
1396.8199,0.056970
1397.7517,0.055785
1398.6835,0.055416
1399.6154,0.056240
1400.5472,0.057219
1401.4790,0.056685
1402.4109,0.055640
1403.3427,0.055251
1404.2745,0.055278
1405.2064,0.055918
1406.1382,0.057354
1407.0700,0.057581
1408.0019,0.056582
1408.9337,0.056430
1409.8655,0.056745
1410.7974,0.056836
1411.7292,0.057114
1412.6610,0.057189
1413.5929,0.057042
1414.5247,0.056492
1415.4565,0.055762
1416.3884,0.055414
1417.3202,0.055626
1418.2520,0.056186
1419.1839,0.056852
1420.1157,0.058517
1421.0476,0.059479
1421.9794,0.057222
1422.9112,0.055664
1423.8431,0.055405
1424.7749,0.055890
1425.7067,0.056289
1426.6386,0.055324
1427.5704,0.054427
1428.5022,0.054134
1429.4341,0.053637
1430.3659,0.053518
1431.2977,0.053900
1432.2296,0.053611
1433.1614,0.052355
1434.0932,0.051132
1435.0251,0.050552
1435.9569,0.050283
1436.8887,0.050894
1437.8206,0.053568
1438.7524,0.054060
1439.6842,0.051923
1440.6161,0.050842
1441.5479,0.050749
1442.4797,0.050740
1443.4116,0.050810
1444.3434,0.050845
1445.2752,0.051169
1446.2071,0.051572
1447.1389,0.052032
1448.0707,0.052889
1449.0026,0.054782
1449.9344,0.055918
1450.8663,0.055406
1451.7981,0.055104
1452.7299,0.055476
1453.6618,0.055825
1454.5936,0.054754
1455.5254,0.053342
1456.4573,0.053569
1457.3891,0.054755
1458.3209,0.056140
1459.2528,0.055748
1460.1846,0.054165
1461.1164,0.051804
1462.0483,0.049307
1462.9801,0.047674
1463.9119,0.046765
1464.8438,0.046216
1465.7756,0.046502
1466.7074,0.047101
1467.6393,0.045961
1468.5711,0.044839
1469.5029,0.044081
1470.4348,0.043592
1471.3666,0.043310
1472.2984,0.043043
1473.2303,0.044852
1474.1621,0.046946
1475.0939,0.046919
1476.0258,0.045704
1476.9576,0.045309
1477.8895,0.046526
1478.8213,0.046205
1479.7531,0.045344
1480.6850,0.045282
1481.6168,0.045765
1482.5486,0.046527
1483.4805,0.046656
1484.4123,0.045939
1485.3441,0.045464
1486.2760,0.044937
1487.2078,0.044674
1488.1396,0.045376
1489.0715,0.045916
1490.0033,0.045588
1490.9351,0.046322
1491.8670,0.046973
1492.7988,0.045978
1493.7306,0.044429
1494.6625,0.043337
1495.5943,0.042791
1496.5261,0.043021
1497.4580,0.045251
1498.3898,0.045533
1499.3216,0.044344
1500.2535,0.045058
1501.1853,0.044578
1502.1171,0.043272
1503.0490,0.043110
1503.9808,0.042516
1504.9127,0.041181
1505.8445,0.040401
1506.7763,0.042309
1507.7082,0.046903
1508.6400,0.048883
1509.5718,0.048138
1510.5037,0.046126
1511.4355,0.044686
1512.3673,0.043947
1513.2992,0.044062
1514.2310,0.044229
1515.1628,0.043284
1516.0947,0.043085
1517.0265,0.043794
1517.9583,0.044554
1518.8902,0.045868
1519.8220,0.044583
1520.7538,0.043120
1521.6857,0.044404
1522.6175,0.047562
1523.5493,0.047530
1524.4812,0.045913
1525.4130,0.045031
1526.3448,0.045601
1527.2767,0.046212
1528.2085,0.045569
1529.1403,0.045820
1530.0722,0.046216
1531.0040,0.045419
1531.9359,0.044952
1532.8677,0.045748
1533.7995,0.046537
1534.7314,0.047742
1535.6632,0.048121
1536.5950,0.046473
1537.5269,0.045135
1538.4587,0.043959
1539.3905,0.042965
1540.3224,0.045187
1541.2542,0.049779
1542.1860,0.049815
1543.1179,0.049892
1544.0497,0.050464
1544.9815,0.049375
1545.9134,0.049345
1546.8452,0.050311
1547.7770,0.049619
1548.7089,0.048718
1549.6407,0.048497
1550.5725,0.048967
1551.5044,0.050455
1552.4362,0.050303
1553.3680,0.049266
1554.2999,0.048635
1555.2317,0.049246
1556.1635,0.050787
1557.0954,0.049395
1558.0272,0.047797
1558.9591,0.050959
1559.8909,0.058622
1560.8227,0.060327
1561.7546,0.058741
1562.6864,0.055500
1563.6182,0.053282
1564.5501,0.052708
1565.4819,0.053332
1566.4137,0.054773
1567.3456,0.054979
1568.2774,0.054495
1569.2092,0.054612
1570.1411,0.056365
1571.0729,0.059815
1572.0047,0.059558
1572.9366,0.057485
1573.8684,0.056976
1574.8002,0.057320
1575.7321,0.057446
1576.6639,0.059199
1577.5957,0.064113
1578.5276,0.064890
1579.4594,0.063299
1580.3912,0.062583
1581.3231,0.062897
1582.2549,0.063663
1583.1867,0.064472
1584.1186,0.065315
1585.0504,0.066305
1585.9822,0.066939
1586.9141,0.067344
1587.8459,0.068557
1588.7778,0.070000
1589.7096,0.071171
1590.6414,0.071990
1591.5733,0.072885
1592.5051,0.074128
1593.4369,0.074909
1594.3688,0.075658
1595.3006,0.077014
1596.2324,0.078872
1597.1643,0.080234
1598.0961,0.081382
1599.0279,0.082532
1599.9598,0.083562
1600.8916,0.084912
1601.8234,0.086753
1602.7553,0.088616
1603.6871,0.090254
1604.6189,0.092234
1605.5508,0.093574
1606.4826,0.094514
1607.4144,0.096574
1608.3463,0.099538
1609.2781,0.101798
1610.2099,0.103328
1611.1418,0.105007
1612.0736,0.106586
1613.0054,0.107856
1613.9373,0.109046
1614.8691,0.110563
1615.8010,0.112617
1616.7328,0.116082
1617.6646,0.123788
1618.5965,0.129299
1619.5283,0.127408
1620.4601,0.126226
1621.3920,0.126784
1622.3238,0.128410
1623.2556,0.130785
1624.1875,0.135091
1625.1193,0.140026
1626.0511,0.140821
1626.9830,0.140187
1627.9148,0.141828
1628.8466,0.145330
1629.7785,0.147344
1630.7103,0.146555
1631.6421,0.145736
1632.5740,0.145979
1633.5058,0.146488
1634.4376,0.146352
1635.3695,0.149220
1636.3013,0.156890
1637.2331,0.162696
1638.1650,0.158987
1639.0968,0.156204
1640.0286,0.154026
1640.9605,0.152367
1641.8923,0.151790
1642.8242,0.151460
1643.7560,0.150471
1644.6878,0.148983
1645.6197,0.147125
1646.5515,0.147205
1647.4833,0.150751
1648.4152,0.152412
1649.3470,0.149381
1650.2788,0.144989
1651.2107,0.141045
1652.1425,0.138839
1653.0743,0.140185
1654.0062,0.148326
1654.9380,0.151920
1655.8698,0.146547
1656.8017,0.140213
1657.7335,0.135776
1658.6653,0.133446
1659.5972,0.131331
1660.5290,0.129212
1661.4608,0.127681
1662.3927,0.125915
1663.3245,0.124830
1664.2563,0.124992
1665.1882,0.122903
1666.1200,0.119411
1667.0518,0.117102
1667.9837,0.115169
1668.9155,0.113136
1669.8474,0.112404
1670.7792,0.112314
1671.7110,0.110792
1672.6429,0.108645
1673.5747,0.106396
1674.5065,0.103339
1675.4384,0.100617
1676.3702,0.100661
1677.3020,0.100649
1678.2339,0.097611
1679.1657,0.094187
1680.0975,0.091414
1681.0294,0.089646
1681.9612,0.088339
1682.8930,0.086422
1683.8249,0.084537
1684.7567,0.084510
1685.6885,0.086578
1686.6204,0.084623
1687.5522,0.080853
1688.4840,0.077957
1689.4159,0.076069
1690.3477,0.074559
1691.2795,0.072503
1692.2114,0.070758
1693.1432,0.069238
1694.0750,0.067311
1695.0069,0.065116
1695.9387,0.063208
1696.8706,0.063421
1697.8024,0.064503
1698.7342,0.062231
1699.6661,0.059034
1700.5979,0.057101
1701.5297,0.057948
1702.4616,0.058210
1703.3934,0.055794
1704.3252,0.053474
1705.2571,0.051820
1706.1889,0.051540
1707.1207,0.050813
1708.0526,0.049488
1708.9844,0.048092
1709.9162,0.046355
1710.8481,0.045135
1711.7799,0.044387
1712.7117,0.043629
1713.6436,0.042669
1714.5754,0.041254
1715.5072,0.040586
1716.4391,0.040891
1717.3709,0.040213
1718.3027,0.038894
1719.2346,0.039075
1720.1664,0.039238
1721.0982,0.037738
1722.0301,0.035905
1722.9619,0.034599
1723.8937,0.033799
1724.8256,0.033672
1725.7574,0.033225
1726.6893,0.032431
1727.6211,0.031710
1728.5529,0.031101
1729.4848,0.030535
1730.4166,0.029673
1731.3484,0.029476
1732.2803,0.029126
1733.2121,0.028202
1734.1439,0.027360
1735.0758,0.027793
1736.0076,0.029179
1736.9394,0.028059
1737.8713,0.026312
1738.8031,0.025443
1739.7349,0.025092
1740.6668,0.025077
1741.5986,0.025519
1742.5304,0.024987
1743.4623,0.024050
1744.3941,0.023685
1745.3259,0.024198
1746.2578,0.023711
1747.1896,0.023031
1748.1214,0.022786
1749.0533,0.022546
1749.9851,0.022403
1750.9169,0.022251
1751.8488,0.021044
1752.7806,0.021163
1753.7125,0.021403
1754.6443,0.020741
1755.5761,0.020733
1756.5080,0.020816
1757.4398,0.020447
1758.3716,0.020616
1759.3035,0.020480
1760.2353,0.019625
1761.1671,0.019372
1762.0990,0.018760
1763.0308,0.018395
1763.9626,0.018735
1764.8945,0.018273
1765.8263,0.017797
1766.7581,0.017717
1767.6900,0.017657
1768.6218,0.017643
1769.5536,0.018337
1770.4855,0.018188
1771.4173,0.017324
1772.3491,0.016784
1773.2810,0.016841
1774.2128,0.017515
1775.1446,0.017191
1776.0765,0.016184
1777.0083,0.016232
1777.9401,0.016451
1778.8720,0.015995
1779.8038,0.015883
1780.7357,0.015855
1781.6675,0.015684
1782.5993,0.015399
1783.5312,0.015567
1784.4630,0.015574
1785.3948,0.015061
1786.3267,0.015433
1787.2585,0.015669
1788.1903,0.015267
1789.1222,0.014757
1790.0540,0.014330
1790.9858,0.014015
1791.9177,0.014029
1792.8495,0.014214
1793.7813,0.014527
1794.7132,0.015398
1795.6450,0.015043
1796.5768,0.013847
1797.5087,0.013603
1798.4405,0.013679
1799.3723,0.013552
1800.3042,0.014001
1801.2360,0.014500
1802.1678,0.013896
1803.0997,0.013000
1804.0315,0.012739
1804.9633,0.012919
1805.8952,0.013036
1806.8270,0.013019
1807.7589,0.013403
1808.6907,0.012953
1809.6225,0.012407
1810.5544,0.012150
1811.4862,0.012264
1812.4180,0.012852
1813.3499,0.012698
1814.2817,0.012689
1815.2135,0.012281
1816.1454,0.011874
1817.0772,0.011826
1818.0090,0.011627
1818.9409,0.011763
1819.8727,0.012228
1820.8045,0.012428
1821.7364,0.012076
1822.6682,0.011736
1823.6000,0.011513
1824.5319,0.011003
1825.4637,0.010760
1826.3955,0.011744
1827.3274,0.012253
1828.2592,0.011584
1829.1910,0.010956
1830.1229,0.011114
1831.0547,0.011914
1831.9865,0.011831
1832.9184,0.010940
1833.8502,0.010657
1834.7821,0.010710
1835.7139,0.010912
1836.6457,0.011285
1837.5776,0.011263
1838.5094,0.011105
1839.4412,0.011315
1840.3731,0.011073
1841.3049,0.010431
1842.2367,0.010526
1843.1686,0.010713
1844.1004,0.010675
1845.0322,0.010679
1845.9641,0.011384
1846.8959,0.011366
1847.8277,0.010406
1848.7596,0.010252
1849.6914,0.010598
1850.6232,0.010427
1851.5551,0.010079
1852.4869,0.009882
1853.4187,0.009758
1854.3506,0.010306
1855.2824,0.010584
1856.2142,0.010152
1857.1461,0.009704
1858.0779,0.009737
1859.0097,0.010270
1859.9416,0.010642
1860.8734,0.010827
1861.8052,0.010294
1862.7371,0.009912
1863.6689,0.010339
1864.6008,0.010858
1865.5326,0.010217
1866.4644,0.009196
1867.3963,0.008907
1868.3281,0.008947
1869.2599,0.009630
1870.1918,0.010516
1871.1236,0.010684
1872.0554,0.010688
1872.9873,0.010436
1873.9191,0.010040
1874.8509,0.010121
1875.7828,0.010503
1876.7146,0.009867
1877.6464,0.008998
1878.5783,0.009472
1879.5101,0.010285
1880.4419,0.010483
1881.3738,0.009833
1882.3056,0.009465
1883.2374,0.010309
1884.1693,0.010693
1885.1011,0.010389
1886.0329,0.010221
1886.9648,0.010105
1887.8966,0.010016
1888.8284,0.010045
1889.7603,0.009599
1890.6921,0.009546
1891.6240,0.009523
1892.5558,0.008667
1893.4876,0.009094
1894.4195,0.009765
1895.3513,0.008734
1896.2831,0.007891
1897.2150,0.008110
1898.1468,0.008547
1899.0786,0.008868
1900.0105,0.009887
1900.9423,0.010875
1901.8741,0.010420
1902.8060,0.010276
1903.7378,0.010858
1904.6696,0.010414
1905.6015,0.009666
1906.5333,0.008729
1907.4651,0.008338
1908.3970,0.008436
1909.3288,0.008988
1910.2606,0.009576
1911.1925,0.009587
1912.1243,0.010025
1913.0561,0.009300
1913.9880,0.009258
1914.9198,0.010195
1915.8516,0.009424
1916.7835,0.008944
1917.7153,0.009202
1918.6472,0.009513
1919.5790,0.009286
1920.5108,0.009888
1921.4427,0.010404
1922.3745,0.009257
1923.3063,0.008946
1924.2382,0.009105
1925.1700,0.008372
1926.1018,0.008081
1927.0337,0.008043
1927.9655,0.008161
1928.8973,0.007966
1929.8292,0.008367
1930.7610,0.009275
1931.6928,0.008946
1932.6247,0.008670
1933.5565,0.009345
1934.4883,0.009249
1935.4202,0.009229
1936.3520,0.009296
1937.2838,0.007298
1938.2157,0.006448
1939.1475,0.008589
1940.0793,0.010970
1941.0112,0.009457
1941.9430,0.005578
1942.8748,0.004572
1943.8067,0.005986
1944.7385,0.005807
1945.6704,0.004837
1946.6022,0.006264
1947.5340,0.007832
1948.4659,0.008621
1949.3977,0.009933
1950.3295,0.009540
1951.2614,0.007667
1952.1932,0.007014
1953.1250,0.007495
1954.0569,0.007586
1954.9887,0.006698
1955.9205,0.006817
1956.8524,0.006570
1957.7842,0.005465
1958.7160,0.006540
1959.6479,0.006836
1960.5797,0.004935
1961.5115,0.006114
1962.4434,0.007902
1963.3752,0.006828
1964.3070,0.004752
1965.2389,0.004601
1966.1707,0.005287
1967.1025,0.004459
1968.0344,0.004336
1968.9662,0.005731
1969.8980,0.007098
1970.8299,0.006709
1971.7617,0.004893
1972.6936,0.005152
1973.6254,0.006255
1974.5572,0.004408
1975.4891,0.002840
1976.4209,0.005815
1977.3527,0.007730
1978.2846,0.004877
1979.2164,0.003139
1980.1482,0.005817
1981.0801,0.007715
1982.0119,0.006957
1982.9437,0.005830
1983.8756,0.005606
1984.8074,0.007514
1985.7392,0.006898
1986.6711,0.005709
1987.6029,0.007054
1988.5347,0.007285
1989.4666,0.007427
1990.3984,0.006504
1991.3302,0.005130
1992.2621,0.005516
1993.1939,0.007095
1994.1257,0.008408
1995.0576,0.007321
1995.9894,0.006488
1996.9212,0.008788
1997.8531,0.010236
1998.7849,0.008561
1999.7167,0.007279
2000.6486,0.006790
2001.5804,0.006884
2002.5123,0.008436
2003.4441,0.009135
2004.3759,0.008565
2005.3078,0.008512
2006.2396,0.008307
2007.1714,0.009186
2008.1033,0.010542
2009.0351,0.010096
2009.9669,0.007985
2010.8988,0.005888
2011.8306,0.004120
2012.7624,0.003241
2013.6943,0.005047
2014.6261,0.005690
2015.5579,0.003627
2016.4898,0.002980
2017.4216,0.003106
2018.3534,0.003376
2019.2853,0.002958
2020.2171,0.004256
2021.1489,0.006081
2022.0808,0.004442
2023.0126,0.003609
2023.9444,0.002885
2024.8763,0.003040
2025.8081,0.006217
2026.7399,0.009102
2027.6718,0.011130
2028.6036,0.010916
2029.5355,0.008743
2030.4673,0.008633
2031.3991,0.007238
2032.3310,0.004959
2033.2628,0.005133
2034.1946,0.003737
2035.1265,0.002110
2036.0583,0.003512
2036.9901,0.006000
2037.9220,0.005793
2038.8538,0.004638
2039.7856,0.004609
2040.7175,0.004179
2041.6493,0.004797
2042.5811,0.006852
2043.5130,0.009823
2044.4448,0.010542
2045.3766,0.008673
2046.3085,0.008338
2047.2403,0.009658
2048.1721,0.009593
2049.1040,0.008721
2050.0358,0.007533
2050.9676,0.006012
2051.8995,0.007878
2052.8313,0.009594
2053.7631,0.009748
2054.6950,0.011215
2055.6268,0.012271
2056.5587,0.012901
2057.4905,0.011846
2058.4223,0.010681
2059.3542,0.010800
2060.2860,0.010775
2061.2178,0.011653
2062.1497,0.011396
2063.0815,0.010199
2064.0133,0.011374
2064.9452,0.013318
2065.8770,0.014139
2066.8088,0.014090
2067.7407,0.012518
2068.6725,0.012175
2069.6043,0.013868
2070.5362,0.013682
2071.4680,0.012747
2072.3998,0.013756
2073.3317,0.015990
2074.2635,0.016698
2075.1953,0.014753
2076.1272,0.013295
2077.0590,0.012584
2077.9908,0.013046
2078.9227,0.013328
2079.8545,0.012809
2080.7863,0.014259
2081.7182,0.014426
2082.6500,0.013256
2083.5819,0.013351
2084.5137,0.013474
2085.4455,0.014543
2086.3774,0.015399
2087.3092,0.013793
2088.2410,0.012897
2089.1729,0.013834
2090.1047,0.014358
2091.0365,0.014586
2091.9684,0.014785
2092.9002,0.014286
2093.8320,0.014057
2094.7639,0.013596
2095.6957,0.013111
2096.6275,0.013460
2097.5594,0.012739
2098.4912,0.011488
2099.4230,0.012080
2100.3549,0.013086
2101.2867,0.014235
2102.2185,0.014565
2103.1504,0.014300
2104.0822,0.014738
2105.0140,0.015327
2105.9459,0.015380
2106.8777,0.015505
2107.8095,0.015894
2108.7414,0.015437
2109.6732,0.014826
2110.6051,0.013965
2111.5369,0.013442
2112.4687,0.014119
2113.4006,0.015062
2114.3324,0.014811
2115.2642,0.013631
2116.1961,0.013269
2117.1279,0.014631
2118.0597,0.016737
2118.9916,0.017171
2119.9234,0.015561
2120.8552,0.014105
2121.7871,0.014329
2122.7189,0.015055
2123.6507,0.015001
2124.5826,0.015611
2125.5144,0.016740
2126.4462,0.015447
2127.3781,0.014615
2128.3099,0.015594
2129.2417,0.014866
2130.1736,0.014761
2131.1054,0.014858
2132.0372,0.014392
2132.9691,0.015096
2133.9009,0.016636
2134.8327,0.015672
2135.7646,0.014531
2136.6964,0.015532
2137.6282,0.015308
2138.5601,0.012936
2139.4919,0.011511
2140.4238,0.013962
2141.3556,0.013728
2142.2874,0.010049
2143.2193,0.009605
2144.1511,0.010615
2145.0829,0.011663
2146.0148,0.010778
2146.9466,0.009068
2147.8784,0.010091
2148.8103,0.011008
2149.7421,0.006885
2150.6739,0.004501
2151.6058,0.009278
2152.5376,0.012510
2153.4694,0.010930
2154.4013,0.008544
2155.3331,0.006066
2156.2649,0.007445
2157.1968,0.010108
2158.1286,0.007388
2159.0604,0.007446
2159.9923,0.010100
2160.9241,0.006285
2161.8559,0.002745
2162.7878,0.004384
2163.7196,0.007157
2164.6514,0.007757
2165.5833,0.007597
2166.5151,0.008632
2167.4470,0.008084
2168.3788,0.006213
2169.3106,0.005255
2170.2425,0.005748
2171.1743,0.006367
2172.1061,0.005557
2173.0380,0.005723
2173.9698,0.007678
2174.9016,0.006798
2175.8335,0.003156
2176.7653,0.003914
2177.6971,0.008543
2178.6290,0.010092
2179.5608,0.010177
2180.4926,0.008715
2181.4245,0.008791
2182.3563,0.011529
2183.2881,0.013199
2184.2200,0.011695
2185.1518,0.008899
2186.0836,0.008267
2187.0155,0.009309
2187.9473,0.009104
2188.8791,0.008435
2189.8110,0.010659
2190.7428,0.012126
2191.6746,0.010029
2192.6065,0.006542
2193.5383,0.008360
2194.4702,0.009694
2195.4020,0.007882
2196.3338,0.007567
2197.2657,0.007630
2198.1975,0.007825
2199.1293,0.008512
2200.0612,0.010595
2200.9930,0.010029
2201.9248,0.008807
2202.8567,0.008793
2203.7885,0.008360
2204.7203,0.008364
2205.6522,0.009039
2206.5840,0.009286
2207.5158,0.010344
2208.4477,0.011366
2209.3795,0.010883
2210.3113,0.011415
2211.2432,0.012819
2212.1750,0.011764
2213.1068,0.008259
2214.0387,0.006252
2214.9705,0.007027
2215.9023,0.009118
2216.8342,0.007995
2217.7660,0.008213
2218.6978,0.011336
2219.6297,0.012166
2220.5615,0.009445
2221.4934,0.008190
2222.4252,0.009333
2223.3570,0.008973
2224.2889,0.009468
2225.2207,0.011568
2226.1525,0.012797
2227.0844,0.011126
2228.0162,0.010203
2228.9480,0.009909
2229.8799,0.009434
2230.8117,0.010164
2231.7435,0.012257
2232.6754,0.013127
2233.6072,0.010691
2234.5390,0.007697
2235.4709,0.009739
2236.4027,0.011577
2237.3345,0.011446
2238.2664,0.010454
2239.1982,0.010569
2240.1300,0.011316
2241.0619,0.011223
2241.9937,0.010267
2242.9255,0.009350
2243.8574,0.009834
2244.7892,0.011859
2245.7210,0.011419
2246.6529,0.009878
2247.5847,0.009870
2248.5166,0.010394
2249.4484,0.011204
2250.3802,0.010406
2251.3121,0.010060
2252.2439,0.010401
2253.1757,0.008532
2254.1076,0.009212
2255.0394,0.010778
2255.9712,0.011076
2256.9031,0.009808
2257.8349,0.009242
2258.7667,0.009659
2259.6986,0.010459
2260.6304,0.011853
2261.5622,0.010509
2262.4941,0.009682
2263.4259,0.010678
2264.3577,0.011129
2265.2896,0.009994
2266.2214,0.010116
2267.1532,0.010511
2268.0851,0.009488
2269.0169,0.009656
2269.9487,0.009529
2270.8806,0.009154
2271.8124,0.009524
2272.7442,0.010497
2273.6761,0.011111
2274.6079,0.010059
2275.5397,0.009456
2276.4716,0.010510
2277.4034,0.010278
2278.3353,0.009682
2279.2671,0.009201
2280.1989,0.009360
2281.1308,0.009795
2282.0626,0.009706
2282.9944,0.009066
2283.9263,0.009502
2284.8581,0.010782
2285.7899,0.010724
2286.7218,0.010385
2287.6536,0.010327
2288.5854,0.010013
2289.5173,0.010467
2290.4491,0.009963
2291.3809,0.009809
2292.3128,0.010202
2293.2446,0.010800
2294.1764,0.010708
2295.1083,0.010591
2296.0401,0.010911
2296.9719,0.011100
2297.9038,0.010205
2298.8356,0.009763
2299.7674,0.010080
2300.6993,0.010188
2301.6311,0.010774
2302.5629,0.010043
2303.4948,0.009668
2304.4266,0.009983
2305.3585,0.009570
2306.2903,0.009562
2307.2221,0.010257
2308.1540,0.010387
2309.0858,0.010427
2310.0176,0.010484
2310.9495,0.010372
2311.8813,0.009399
2312.8131,0.008487
2313.7450,0.009247
2314.6768,0.009785
2315.6086,0.009208
2316.5405,0.009155
2317.4723,0.009376
2318.4041,0.009333
2319.3360,0.009797
2320.2678,0.009994
2321.1996,0.009495
2322.1315,0.009255
2323.0633,0.009215
2323.9951,0.009400
2324.9270,0.009802
2325.8588,0.010120
2326.7906,0.010475
2327.7225,0.009885
2328.6543,0.009281
2329.5861,0.009392
2330.5180,0.008886
2331.4498,0.009386
2332.3817,0.009818
2333.3135,0.010233
2334.2453,0.010015
2335.1772,0.009317
2336.1090,0.009067
2337.0408,0.009060
2337.9727,0.008885
2338.9045,0.008726
2339.8363,0.008260
2340.7682,0.008656
2341.7000,0.009040
2342.6318,0.008433
2343.5637,0.007867
2344.4955,0.008082
2345.4273,0.008456
2346.3592,0.009520
2347.2910,0.009888
2348.2228,0.009567
2349.1547,0.008726
2350.0865,0.008541
2351.0183,0.008679
2351.9502,0.008791
2352.8820,0.008531
2353.8138,0.008092
2354.7457,0.008040
2355.6775,0.007488
2356.6093,0.007600
2357.5412,0.007675
2358.4730,0.007624
2359.4049,0.009046
2360.3367,0.009782
2361.2685,0.008712
2362.2004,0.007733
2363.1322,0.007736
2364.0640,0.008853
2364.9959,0.008678
2365.9277,0.006840
2366.8595,0.007241
2367.7914,0.008425
2368.7232,0.008563
2369.6550,0.007653
2370.5869,0.007116
2371.5187,0.006961
2372.4505,0.007313
2373.3824,0.008382
2374.3142,0.009460
2375.2460,0.008706
2376.1779,0.007746
2377.1097,0.007886
2378.0415,0.007966
2378.9734,0.007893
2379.9052,0.008121
2380.8370,0.007752
2381.7689,0.007155
2382.7007,0.007192
2383.6325,0.007760
2384.5644,0.008259
2385.4962,0.007934
2386.4281,0.006882
2387.3599,0.006678
2388.2917,0.007337
2389.2236,0.007810
2390.1554,0.007505
2391.0872,0.007064
2392.0191,0.006799
2392.9509,0.007555
2393.8827,0.008260
2394.8146,0.007715
2395.7464,0.006608
2396.6782,0.006848
2397.6101,0.007063
2398.5419,0.007351
2399.4737,0.007711
2400.4056,0.007677
2401.3374,0.007417
2402.2692,0.007482
2403.2011,0.006932
2404.1329,0.006119
2405.0647,0.006468
2405.9966,0.007050
2406.9284,0.006766
2407.8602,0.006253
2408.7921,0.006348
2409.7239,0.007032
2410.6557,0.006609
2411.5876,0.006227
2412.5194,0.006172
2413.4512,0.006374
2414.3831,0.007035
2415.3149,0.006646
2416.2468,0.006349
2417.1786,0.007495
2418.1104,0.007958
2419.0423,0.007544
2419.9741,0.006456
2420.9059,0.005758
2421.8378,0.005932
2422.7696,0.006076
2423.7014,0.006379
2424.6333,0.006583
2425.5651,0.006034
2426.4969,0.006311
2427.4288,0.007094
2428.3606,0.006156
2429.2924,0.005384
2430.2243,0.006010
2431.1561,0.006522
2432.0879,0.005551
2433.0198,0.005499
2433.9516,0.006984
2434.8834,0.006668
2435.8153,0.005762
2436.7471,0.006057
2437.6789,0.006194
2438.6108,0.005689
2439.5426,0.005098
2440.4744,0.004248
2441.4063,0.004058
2442.3381,0.004878
2443.2700,0.005434
2444.2018,0.005362
2445.1336,0.005606
2446.0655,0.006449
2446.9973,0.006557
2447.9291,0.004780
2448.8610,0.004073
2449.7928,0.005081
2450.7246,0.005737
2451.6565,0.005211
2452.5883,0.005134
2453.5201,0.005222
2454.4520,0.005718
2455.3838,0.006180
2456.3156,0.005935
2457.2475,0.005322
2458.1793,0.004867
2459.1111,0.005195
2460.0430,0.005915
2460.9748,0.005275
2461.9066,0.004452
2462.8385,0.004465
2463.7703,0.004183
2464.7021,0.003978
2465.6340,0.004377
2466.5658,0.005080
2467.4976,0.005660
2468.4295,0.005984
2469.3613,0.006041
2470.2932,0.006281
2471.2250,0.005652
2472.1568,0.005287
2473.0887,0.005609
2474.0205,0.005583
2474.9523,0.005545
2475.8842,0.004899
2476.8160,0.004348
2477.7478,0.004629
2478.6797,0.005214
2479.6115,0.004467
2480.5433,0.004019
2481.4752,0.004778
2482.4070,0.005540
2483.3388,0.005762
2484.2707,0.004783
2485.2025,0.004981
2486.1343,0.005315
2487.0662,0.005108
2487.9980,0.004820
2488.9298,0.004647
2489.8617,0.004931
2490.7935,0.004958
2491.7253,0.004924
2492.6572,0.004483
2493.5890,0.004365
2494.5208,0.005363
2495.4527,0.005472
2496.3845,0.004957
2497.3164,0.004830
2498.2482,0.004461
2499.1800,0.004493
2500.1119,0.004784
2501.0437,0.004882
2501.9755,0.005332
2502.9074,0.005274
2503.8392,0.005074
2504.7710,0.005532
2505.7029,0.005675
2506.6347,0.005759
2507.5665,0.005004
2508.4984,0.004195
2509.4302,0.004121
2510.3620,0.004092
2511.2939,0.003885
2512.2257,0.004562
2513.1575,0.004194
2514.0894,0.003869
2515.0212,0.004408
2515.9530,0.004317
2516.8849,0.005683
2517.8167,0.006896
2518.7485,0.005678
2519.6804,0.004524
2520.6122,0.004269
2521.5440,0.004211
2522.4759,0.004349
2523.4077,0.004634
2524.3396,0.004770
2525.2714,0.005016
2526.2032,0.004410
2527.1351,0.004128
2528.0669,0.004429
2528.9987,0.003981
2529.9306,0.004320
2530.8624,0.005415
2531.7942,0.004813
2532.7261,0.003544
2533.6579,0.003813
2534.5897,0.004218
2535.5216,0.004099
2536.4534,0.004651
2537.3852,0.005130
2538.3171,0.004609
2539.2489,0.003392
2540.1807,0.003265
2541.1126,0.004110
2542.0444,0.003824
2542.9762,0.003105
2543.9081,0.002812
2544.8399,0.002707
2545.7717,0.003137
2546.7036,0.003926
2547.6354,0.004641
2548.5672,0.005315
2549.4991,0.005167
2550.4309,0.004199
2551.3627,0.004079
2552.2946,0.004193
2553.2264,0.004340
2554.1583,0.003484
2555.0901,0.002659
2556.0219,0.003427
2556.9538,0.004789
2557.8856,0.004323
2558.8174,0.003035
2559.7493,0.002828
2560.6811,0.003613
2561.6129,0.004267
2562.5448,0.003299
2563.4766,0.002467
2564.4084,0.002964
2565.3403,0.003838
2566.2721,0.004122
2567.2039,0.003986
2568.1358,0.003649
2569.0676,0.003489
2569.9994,0.003839
2570.9313,0.003987
2571.8631,0.004142
2572.7949,0.004235
2573.7268,0.004158
2574.6586,0.003628
2575.5904,0.003880
2576.5223,0.004453
2577.4541,0.004432
2578.3859,0.003814
2579.3178,0.003427
2580.2496,0.003528
2581.1815,0.003368
2582.1133,0.003799
2583.0451,0.004797
2583.9770,0.004866
2584.9088,0.005081
2585.8406,0.005121
2586.7725,0.004484
2587.7043,0.004303
2588.6361,0.003904
2589.5680,0.003433
2590.4998,0.003574
2591.4316,0.003203
2592.3635,0.002561
2593.2953,0.003273
2594.2271,0.004887
2595.1590,0.005148
2596.0908,0.004696
2597.0226,0.004646
2597.9545,0.004090
2598.8863,0.003740
2599.8181,0.003722
2600.7500,0.003997
2601.6818,0.004303
2602.6136,0.004146
2603.5455,0.003676
2604.4773,0.004337
2605.4091,0.004186
2606.3410,0.003080
2607.2728,0.002986
2608.2047,0.003736
2609.1365,0.004001
2610.0683,0.003849
2611.0002,0.004007
2611.9320,0.003823
2612.8638,0.004034
2613.7957,0.003825
2614.7275,0.003269
2615.6593,0.003276
2616.5912,0.003791
2617.5230,0.004267
2618.4548,0.004898
2619.3867,0.004962
2620.3185,0.004539
2621.2503,0.004572
2622.1822,0.004077
2623.1140,0.003527
2624.0458,0.003838
2624.9777,0.004173
2625.9095,0.004162
2626.8413,0.004480
2627.7732,0.004252
2628.7050,0.004153
2629.6368,0.005087
2630.5687,0.005022
2631.5005,0.004225
2632.4323,0.004125
2633.3642,0.004136
2634.2960,0.004546
2635.2279,0.004453
2636.1597,0.004127
2637.0915,0.004659
2638.0234,0.005170
2638.9552,0.004901
2639.8870,0.004614
2640.8189,0.004735
2641.7507,0.005177
2642.6825,0.005621
2643.6144,0.005253
2644.5462,0.005101
2645.4780,0.005341
2646.4099,0.005201
2647.3417,0.004701
2648.2735,0.004610
2649.2054,0.004953
2650.1372,0.005209
2651.0690,0.005202
2652.0009,0.005198
2652.9327,0.005313
2653.8645,0.005180
2654.7964,0.005263
2655.7282,0.005165
2656.6600,0.004838
2657.5919,0.005171
2658.5237,0.005078
2659.4555,0.005011
2660.3874,0.005246
2661.3192,0.005352
2662.2511,0.005502
2663.1829,0.005461
2664.1147,0.005234
2665.0466,0.005132
2665.9784,0.005200
2666.9102,0.005308
2667.8421,0.005523
2668.7739,0.005731
2669.7057,0.005889
2670.6376,0.005901
2671.5694,0.005851
2672.5012,0.005839
2673.4331,0.005604
2674.3649,0.005574
2675.2967,0.005599
2676.2286,0.005587
2677.1604,0.005551
2678.0922,0.005674
2679.0241,0.005682
2679.9559,0.005763
2680.8877,0.005939
2681.8196,0.005960
2682.7514,0.005948
2683.6832,0.005926
2684.6151,0.005882
2685.5469,0.005855
2686.4787,0.005855
2687.4106,0.006144
2688.3424,0.006405
2689.2742,0.006300
2690.2061,0.005756
2691.1379,0.005740
2692.0698,0.006322
2693.0016,0.006709
2693.9334,0.007015
2694.8653,0.007002
2695.7971,0.006239
2696.7289,0.006001
2697.6608,0.006321
2698.5926,0.006457
2699.5244,0.006915
2700.4563,0.007238
2701.3881,0.007075
2702.3199,0.006817
2703.2518,0.006778
2704.1836,0.006958
2705.1154,0.007104
2706.0473,0.007051
2706.9791,0.006895
2707.9109,0.007072
2708.8428,0.007427
2709.7746,0.006886
2710.7064,0.006214
2711.6383,0.006736
2712.5701,0.007270
2713.5019,0.007077
2714.4338,0.007017
2715.3656,0.007236
2716.2974,0.007346
2717.2293,0.007245
2718.1611,0.006850
2719.0930,0.007146
2720.0248,0.007841
2720.9566,0.007615
2721.8885,0.007354
2722.8203,0.007517
2723.7521,0.007503
2724.6840,0.007624
2725.6158,0.007789
2726.5476,0.008164
2727.4795,0.008307
2728.4113,0.008111
2729.3431,0.008112
2730.2750,0.008261
2731.2068,0.008251
2732.1386,0.008056
2733.0705,0.008526
2734.0023,0.008933
2734.9341,0.008642
2735.8660,0.008612
2736.7978,0.008674
2737.7296,0.008389
2738.6615,0.008025
2739.5933,0.008499
2740.5251,0.009076
2741.4570,0.009188
2742.3888,0.009228
2743.3206,0.009128
2744.2525,0.008957
2745.1843,0.008671
2746.1162,0.008775
2747.0480,0.009203
2747.9798,0.009315
2748.9117,0.009199
2749.8435,0.009171
2750.7753,0.009193
2751.7072,0.009082
2752.6390,0.009299
2753.5708,0.009727
2754.5027,0.009454
2755.4345,0.008863
2756.3663,0.008982
2757.2982,0.009312
2758.2300,0.009173
2759.1618,0.009181
2760.0937,0.009382
2761.0255,0.009299
2761.9573,0.009496
2762.8892,0.010050
2763.8210,0.010420
2764.7528,0.010489
2765.6847,0.010173
2766.6165,0.009807
2767.5483,0.009765
2768.4802,0.009605
2769.4120,0.009710
2770.3438,0.010119
2771.2757,0.009996
2772.2075,0.010075
2773.1394,0.010482
2774.0712,0.010431
2775.0030,0.010112
2775.9349,0.010232
2776.8667,0.010759
2777.7985,0.010913
2778.7304,0.010774
2779.6622,0.010655
2780.5940,0.010492
2781.5259,0.010547
2782.4577,0.010888
2783.3895,0.011201
2784.3214,0.011065
2785.2532,0.011132
2786.1850,0.011495
2787.1169,0.011372
2788.0487,0.010838
2788.9805,0.010484
2789.9124,0.010737
2790.8442,0.011564
2791.7760,0.012095
2792.7079,0.012031
2793.6397,0.011968
2794.5715,0.011945
2795.5034,0.012170
2796.4352,0.012228
2797.3670,0.011874
2798.2989,0.011919
2799.2307,0.012458
2800.1626,0.013184
2801.0944,0.013425
2802.0262,0.013101
2802.9581,0.012854
2803.8899,0.012808
2804.8217,0.013246
2805.7536,0.013724
2806.6854,0.014005
2807.6172,0.013890
2808.5491,0.013883
2809.4809,0.014357
2810.4127,0.014455
2811.3446,0.014232
2812.2764,0.014468
2813.2082,0.015125
2814.1401,0.015286
2815.0719,0.014966
2816.0037,0.014413
2816.9356,0.014131
2817.8674,0.014318
2818.7992,0.014620
2819.7311,0.015138
2820.6629,0.015106
2821.5947,0.014641
2822.5266,0.015057
2823.4584,0.015721
2824.3902,0.015875
2825.3221,0.016153
2826.2539,0.016328
2827.1857,0.015897
2828.1176,0.015971
2829.0494,0.016682
2829.9813,0.017193
2830.9131,0.017491
2831.8449,0.017450
2832.7768,0.017386
2833.7086,0.017889
2834.6404,0.018332
2835.5723,0.018232
2836.5041,0.018409
2837.4359,0.018537
2838.3678,0.018424
2839.2996,0.018678
2840.2314,0.018849
2841.1633,0.018595
2842.0951,0.018680
2843.0269,0.019380
2843.9588,0.019854
2844.8906,0.019454
2845.8224,0.018982
2846.7543,0.019380
2847.6861,0.019601
2848.6179,0.019354
2849.5498,0.019653
2850.4816,0.020034
2851.4134,0.020538
2852.3453,0.021466
2853.2771,0.021698
2854.2089,0.021515
2855.1408,0.021494
2856.0726,0.021577
2857.0045,0.021691
2857.9363,0.021263
2858.8681,0.021176
2859.8000,0.021656
2860.7318,0.021671
2861.6636,0.022069
2862.5955,0.023254
2863.5273,0.024378
2864.4591,0.024671
2865.3910,0.024042
2866.3228,0.023672
2867.2546,0.024582
2868.1865,0.025680
2869.1183,0.026221
2870.0501,0.026808
2870.9820,0.026864
2871.9138,0.026767
2872.8456,0.027190
2873.7775,0.027761
2874.7093,0.028265
2875.6411,0.028459
2876.5730,0.028736
2877.5048,0.029472
2878.4366,0.030169
2879.3685,0.030557
2880.3003,0.030931
2881.2321,0.031275
2882.1640,0.031336
2883.0958,0.031000
2884.0277,0.031151
2884.9595,0.031733
2885.8913,0.032580
2886.8232,0.033246
2887.7550,0.033125
2888.6868,0.033358
2889.6187,0.033867
2890.5505,0.034290
2891.4823,0.034746
2892.4142,0.035103
2893.3460,0.036010
2894.2778,0.037141
2895.2097,0.037605
2896.1415,0.037545
2897.0733,0.037496
2898.0052,0.037405
2898.9370,0.037568
2899.8688,0.038274
2900.8007,0.038853
2901.7325,0.039049
2902.6643,0.039158
2903.5962,0.038867
2904.5280,0.038792
2905.4598,0.039648
2906.3917,0.040341
2907.3235,0.040546
2908.2553,0.040845
2909.1872,0.040628
2910.1190,0.039639
2911.0509,0.038356
2911.9827,0.037914
2912.9145,0.038289
2913.8464,0.038444
2914.7782,0.038244
2915.7100,0.037927
2916.6419,0.037550
2917.5737,0.037757
2918.5055,0.037971
2919.4374,0.037557
2920.3692,0.037634
2921.3010,0.038636
2922.2329,0.039018
2923.1647,0.038345
2924.0965,0.038263
2925.0284,0.038388
2925.9602,0.038252
2926.8920,0.039087
2927.8239,0.039211
2928.7557,0.039022
2929.6875,0.039833
2930.6194,0.040165
2931.5512,0.040265
2932.4830,0.040785
2933.4149,0.040847
2934.3467,0.041202
2935.2785,0.042007
2936.2104,0.042446
2937.1422,0.042428
2938.0741,0.042743
2939.0059,0.042859
2939.9377,0.042623
2940.8696,0.042632
2941.8014,0.042856
2942.7332,0.043378
2943.6651,0.044200
2944.5969,0.044444
2945.5287,0.044313
2946.4606,0.044294
2947.3924,0.044525
2948.3242,0.044681
2949.2561,0.045441
2950.1879,0.045787
2951.1197,0.045344
2952.0516,0.045430
2952.9834,0.046437
2953.9152,0.046717
2954.8471,0.046365
2955.7789,0.046890
2956.7107,0.047434
2957.6426,0.048138
2958.5744,0.048725
2959.5062,0.048844
2960.4381,0.049310
2961.3699,0.049937
2962.3017,0.051021
2963.2336,0.051932
2964.1654,0.052806
2965.0972,0.053444
2966.0291,0.054367
2966.9609,0.056510
2967.8928,0.058430
2968.8246,0.060165
2969.7564,0.061181
2970.6883,0.062616
2971.6201,0.065493
2972.5519,0.067738
2973.4838,0.069253
2974.4156,0.071654
2975.3474,0.073795
2976.2793,0.075324
2977.2111,0.077089
2978.1429,0.078908
2979.0748,0.080323
2980.0066,0.081048
2980.9384,0.081544
2981.8703,0.082803
2982.8021,0.083738
2983.7339,0.082468
2984.6658,0.081033
2985.5976,0.080376
2986.5294,0.079188
2987.4613,0.077538
2988.3931,0.076237
2989.3249,0.074782
2990.2568,0.073189
2991.1886,0.071914
2992.1204,0.070594
2993.0523,0.068852
2993.9841,0.066883
2994.9160,0.065511
2995.8478,0.064892
2996.7796,0.064301
2997.7115,0.063889
2998.6433,0.063223
2999.5751,0.061935
3000.5070,0.061528
3001.4388,0.062235
3002.3706,0.061912
3003.3025,0.061383
3004.2343,0.061047
3005.1661,0.061230
3006.0980,0.061916
3007.0298,0.062220
3007.9616,0.062060
3008.8935,0.061994
3009.8253,0.061698
3010.7571,0.061551
3011.6890,0.062331
3012.6208,0.063203
3013.5526,0.063808
3014.4845,0.064026
3015.4163,0.064010
3016.3481,0.064809
3017.2800,0.064914
3018.2118,0.064841
3019.1436,0.064915
3020.0755,0.065555
3021.0073,0.066416
3021.9392,0.067402
3022.8710,0.068428
3023.8028,0.068327
3024.7347,0.067973
3025.6665,0.068788
3026.5983,0.069341
3027.5302,0.068673
3028.4620,0.069273
3029.3938,0.071166
3030.3257,0.072551
3031.2575,0.072837
3032.1893,0.072846
3033.1212,0.074143
3034.0530,0.075641
3034.9848,0.076474
3035.9167,0.076464
3036.8485,0.075769
3037.7803,0.076522
3038.7122,0.078053
3039.6440,0.078704
3040.5758,0.079543
3041.5077,0.079980
3042.4395,0.080711
3043.3713,0.081115
3044.3032,0.082213
3045.2350,0.083663
3046.1668,0.084573
3047.0987,0.084447
3048.0305,0.084309
3048.9624,0.084777
3049.8942,0.084958
3050.8260,0.085394
3051.7579,0.087381
3052.6897,0.088861
3053.6215,0.088898
3054.5534,0.090017
3055.4852,0.091582
3056.4170,0.092110
3057.3489,0.093140
3058.2807,0.093627
3059.2125,0.093659
3060.1444,0.094833
3061.0762,0.096032
3062.0080,0.096522
3062.9399,0.097456
3063.8717,0.097972
3064.8035,0.099502
3065.7354,0.101520
3066.6672,0.102328
3067.5990,0.102564
3068.5309,0.103631
3069.4627,0.103959
3070.3945,0.103666
3071.3264,0.104526
3072.2582,0.106501
3073.1900,0.107772
3074.1219,0.108886
3075.0537,0.109999
3075.9856,0.110368
3076.9174,0.111450
3077.8492,0.113366
3078.7811,0.115163
3079.7129,0.115376
3080.6447,0.114983
3081.5766,0.115891
3082.5084,0.117022
3083.4402,0.118247
3084.3721,0.119153
3085.3039,0.120063
3086.2357,0.121673
3087.1676,0.122851
3088.0994,0.123208
3089.0312,0.124468
3089.9631,0.126159
3090.8949,0.127501
3091.8267,0.128527
3092.7586,0.128622
3093.6904,0.128482
3094.6222,0.129778
3095.5541,0.131151
3096.4859,0.132305
3097.4177,0.133230
3098.3496,0.134264
3099.2814,0.135978
3100.2132,0.137838
3101.1451,0.138697
3102.0769,0.140249
3103.0087,0.141566
3103.9406,0.142421
3104.8724,0.144146
3105.8043,0.144635
3106.7361,0.145073
3107.6679,0.147235
3108.5998,0.148097
3109.5316,0.149093
3110.4634,0.150801
3111.3953,0.151700
3112.3271,0.152559
3113.2589,0.154351
3114.1908,0.156546
3115.1226,0.158080
3116.0544,0.158540
3116.9863,0.159579
3117.9181,0.160714
3118.8499,0.162107
3119.7818,0.163404
3120.7136,0.164889
3121.6454,0.165264
3122.5773,0.165490
3123.5091,0.166971
3124.4409,0.168130
3125.3728,0.168522
3126.3046,0.170650
3127.2364,0.173680
3128.1683,0.175429
3129.1001,0.175816
3130.0319,0.176371
3130.9638,0.178017
3131.8956,0.180347
3132.8275,0.180474
3133.7593,0.181472
3134.6911,0.184022
3135.6230,0.186253
3136.5548,0.187068
3137.4866,0.188778
3138.4185,0.190386
3139.3503,0.191253
3140.2821,0.191254
3141.2140,0.192707
3142.1458,0.194110
3143.0776,0.195069
3144.0095,0.196542
3144.9413,0.198929
3145.8731,0.199997
3146.8050,0.201097
3147.7368,0.201987
3148.6686,0.203408
3149.6005,0.204821
3150.5323,0.206520
3151.4641,0.207832
3152.3960,0.209380
3153.3278,0.210499
3154.2596,0.211053
3155.1915,0.212913
3156.1233,0.215368
3157.0551,0.216473
3157.9870,0.217959
3158.9188,0.218817
3159.8507,0.219860
3160.7825,0.221205
3161.7143,0.222665
3162.6462,0.224544
3163.5780,0.226674
3164.5098,0.226876
3165.4417,0.227405
3166.3735,0.228938
3167.3053,0.230358
3168.2372,0.231466
3169.1690,0.233078
3170.1008,0.234321
3171.0327,0.237356
3171.9645,0.240121
3172.8963,0.240728
3173.8282,0.241637
3174.7600,0.243281
3175.6918,0.243537
3176.6237,0.245421
3177.5555,0.245436
3178.4873,0.245789
3179.4192,0.247410
3180.3510,0.249552
3181.2828,0.250030
3182.2147,0.252302
3183.1465,0.254261
3184.0783,0.254772
3185.0102,0.255119
3185.9420,0.259146
3186.8739,0.260122
3187.8057,0.258896
3188.7375,0.259969
3189.6694,0.262503
3190.6012,0.263655
3191.5330,0.264459
3192.4649,0.264889
3193.3967,0.266593
3194.3285,0.266841
3195.2604,0.268208
3196.1922,0.270643
3197.1240,0.272600
3198.0559,0.272907
3198.9877,0.274415
3199.9195,0.274881
3200.8514,0.276357
3201.7832,0.278142
3202.7150,0.278544
3203.6469,0.277859
3204.5787,0.278628
3205.5105,0.280359
3206.4424,0.282655
3207.3742,0.283455
3208.3060,0.283532
3209.2379,0.283851
3210.1697,0.284933
3211.1015,0.286133
3212.0334,0.288079
3212.9652,0.290321
3213.8971,0.291058
3214.8289,0.288052
3215.7607,0.288544
3216.6926,0.291785
3217.6244,0.292463
3218.5562,0.292689
3219.4881,0.294357
3220.4199,0.293661
3221.3517,0.294781
3222.2836,0.295808
3223.2154,0.295317
3224.1472,0.294584
3225.0791,0.296362
3226.0109,0.297895
3226.9427,0.299236
3227.8746,0.299584
3228.8064,0.300876
3229.7382,0.300881
3230.6701,0.300945
3231.6019,0.300536
3232.5337,0.301137
3233.4656,0.301286
3234.3974,0.300986
3235.3292,0.302368
3236.2611,0.305044
3237.1929,0.304677
3238.1247,0.304560
3239.0566,0.303973
3239.9884,0.304267
3240.9202,0.305139
3241.8521,0.307224
3242.7839,0.305284
3243.7158,0.305087
3244.6476,0.306095
3245.5794,0.308545
3246.5113,0.308410
3247.4431,0.307440
3248.3749,0.307379
3249.3068,0.308823
3250.2386,0.307535
3251.1704,0.307401
3252.1023,0.308511
3253.0341,0.310555
3253.9659,0.310774
3254.8978,0.311683
3255.8296,0.310225
3256.7614,0.309015
3257.6933,0.308588
3258.6251,0.310121
3259.5569,0.309528
3260.4888,0.309909
3261.4206,0.311478
3262.3524,0.310632
3263.2843,0.309654
3264.2161,0.310327
3265.1479,0.310857
3266.0798,0.311088
3267.0116,0.309944
3267.9434,0.310781
3268.8753,0.311856
3269.8071,0.312868
3270.7390,0.311933
3271.6708,0.310749
3272.6026,0.310707
3273.5345,0.311193
3274.4663,0.308476
3275.3981,0.309935
3276.3300,0.311125
3277.2618,0.312268
3278.1936,0.312402
3279.1255,0.312176
3280.0573,0.309973
3280.9891,0.310675
3281.9210,0.311145
3282.8528,0.311383
3283.7846,0.310502
3284.7165,0.311441
3285.6483,0.311706
3286.5801,0.311086
3287.5120,0.310218
3288.4438,0.311880
3289.3756,0.311361
3290.3075,0.311339
3291.2393,0.311010
3292.1711,0.310816
3293.1030,0.311150
3294.0348,0.313191
3294.9666,0.312361
3295.8985,0.311049
3296.8303,0.310811
3297.7622,0.312347
3298.6940,0.311199
3299.6258,0.309179
3300.5577,0.307697
3301.4895,0.309123
3302.4213,0.310780
3303.3532,0.311828
3304.2850,0.312674
3305.2168,0.312573
3306.1487,0.310910
3307.0805,0.310886
3308.0123,0.310103
3308.9442,0.309610
3309.8760,0.309587
3310.8078,0.311296
3311.7397,0.311685
3312.6715,0.311322
3313.6033,0.310714
3314.5352,0.310153
3315.4670,0.310217
3316.3988,0.310498
3317.3307,0.311264
3318.2625,0.312457
3319.1943,0.310871
3320.1262,0.309442
3321.0580,0.309657
3321.9898,0.312741
3322.9217,0.310845
3323.8535,0.309861
3324.7854,0.312595
3325.7172,0.314612
3326.6490,0.313348
3327.5809,0.311206
3328.5127,0.308612
3329.4445,0.309284
3330.3764,0.308228
3331.3082,0.308468
3332.2400,0.307946
3333.1719,0.308791
3334.1037,0.308500
3335.0355,0.311095
3335.9674,0.312137
3336.8992,0.310663
3337.8310,0.311169
3338.7629,0.310583
3339.6947,0.308653
3340.6265,0.310839
3341.5584,0.312087
3342.4902,0.309224
3343.4220,0.306417
3344.3539,0.306633
3345.2857,0.307841
3346.2175,0.308970
3347.1494,0.309925
3348.0812,0.309419
3349.0130,0.308025
3349.9449,0.308696
3350.8767,0.309305
3351.8086,0.309258
3352.7404,0.307131
3353.6722,0.306589
3354.6041,0.305536
3355.5359,0.306835
3356.4677,0.306994
3357.3996,0.306030
3358.3314,0.304970
3359.2632,0.307840
3360.1951,0.306419
3361.1269,0.305015
3362.0587,0.304097
3362.9906,0.304570
3363.9224,0.303778
3364.8542,0.304462
3365.7861,0.305753
3366.7179,0.306358
3367.6497,0.305774
3368.5816,0.305368
3369.5134,0.303349
3370.4452,0.304965
3371.3771,0.306402
3372.3089,0.305910
3373.2407,0.301459
3374.1726,0.298184
3375.1044,0.298703
3376.0362,0.300168
3376.9681,0.300817
3377.8999,0.300377
3378.8317,0.298086
3379.7636,0.298896
3380.6954,0.297288
3381.6273,0.297455
3382.5591,0.297180
3383.4909,0.296657
3384.4228,0.295911
3385.3546,0.298072
3386.2864,0.297406
3387.2183,0.295722
3388.1501,0.293404
3389.0819,0.292538
3390.0138,0.292291
3390.9456,0.292905
3391.8774,0.292342
3392.8093,0.293388
3393.7411,0.292993
3394.6729,0.291395
3395.6048,0.289789
3396.5366,0.288710
3397.4684,0.287013
3398.4003,0.286509
3399.3321,0.285984
3400.2639,0.286694
3401.1958,0.285891
3402.1276,0.283125
3403.0594,0.278819
3403.9913,0.276923
3404.9231,0.276568
3405.8549,0.279544
3406.7868,0.281525
3407.7186,0.277625
3408.6505,0.274944
3409.5823,0.276581
3410.5141,0.274695
3411.4460,0.272127
3412.3778,0.272568
3413.3096,0.271632
3414.2415,0.269760
3415.1733,0.268434
3416.1051,0.266993
3417.0370,0.267295
3417.9688,0.264752
3418.9006,0.263650
3419.8325,0.263970
3420.7643,0.265520
3421.6961,0.265527
3422.6280,0.262608
3423.5598,0.260700
3424.4916,0.262081
3425.4235,0.261383
3426.3553,0.260314
3427.2871,0.259609
3428.2190,0.258594
3429.1508,0.254979
3430.0826,0.253367
3431.0145,0.253490
3431.9463,0.254845
3432.8781,0.254326
3433.8100,0.250840
3434.7418,0.249556
3435.6737,0.251061
3436.6055,0.248013
3437.5373,0.245897
3438.4692,0.244421
3439.4010,0.241800
3440.3328,0.239597
3441.2647,0.239960
3442.1965,0.239949
3443.1283,0.240497
3444.0602,0.239891
3444.9920,0.239211
3445.9238,0.239181
3446.8557,0.238394
3447.7875,0.234394
3448.7193,0.232032
3449.6512,0.230575
3450.5830,0.230397
3451.5148,0.228020
3452.4467,0.227349
3453.3785,0.226878
3454.3103,0.225989
3455.2422,0.225893
3456.1740,0.225952
3457.1058,0.224629
3458.0377,0.221028
3458.9695,0.218328
3459.9013,0.220472
3460.8332,0.222089
3461.7650,0.221449
3462.6969,0.219402
3463.6287,0.217765
3464.5605,0.214557
3465.4924,0.216216
3466.4242,0.217483
3467.3560,0.215192
3468.2879,0.213111
3469.2197,0.209058
3470.1515,0.205835
3471.0834,0.204688
3472.0152,0.203478
3472.9470,0.203836
3473.8789,0.203853
3474.8107,0.202602
3475.7425,0.200222
3476.6744,0.199936
3477.6062,0.199784
3478.5380,0.198294
3479.4699,0.195556
3480.4017,0.196248
3481.3335,0.197695
3482.2654,0.196726
3483.1972,0.193965
3484.1290,0.191731
3485.0609,0.191391
3485.9927,0.193004
3486.9245,0.191863
3487.8564,0.189924
3488.7882,0.188348
3489.7201,0.188206
3490.6519,0.187479
3491.5837,0.186697
3492.5156,0.184497
3493.4474,0.183008
3494.3792,0.182706
3495.3111,0.182484
3496.2429,0.180207
3497.1747,0.176351
3498.1066,0.175725
3499.0384,0.177270
3499.9702,0.175752
3500.9021,0.176574
3501.8339,0.176272
3502.7657,0.173151
3503.6976,0.171219
3504.6294,0.169986
3505.5612,0.168112
3506.4931,0.166291
3507.4249,0.166792
3508.3567,0.167865
3509.2886,0.166142
3510.2204,0.163885
3511.1522,0.162553
3512.0841,0.161844
3513.0159,0.160337
3513.9477,0.160463
3514.8796,0.162495
3515.8114,0.163172
3516.7432,0.159900
3517.6751,0.156844
3518.6069,0.154929
3519.5388,0.154641
3520.4706,0.154699
3521.4024,0.151856
3522.3343,0.151624
3523.2661,0.153815
3524.1979,0.152655
3525.1298,0.150666
3526.0616,0.147893
3526.9934,0.145228
3527.9253,0.144803
3528.8571,0.144174
3529.7889,0.142598
3530.7208,0.142412
3531.6526,0.142269
3532.5844,0.141079
3533.5163,0.138028
3534.4481,0.137037
3535.3799,0.137319
3536.3118,0.137104
3537.2436,0.137536
3538.1754,0.138354
3539.1073,0.136364
3540.0391,0.133905
3540.9709,0.132678
3541.9028,0.133114
3542.8346,0.132823
3543.7664,0.131193
3544.6983,0.130186
3545.6301,0.130052
3546.5620,0.127815
3547.4938,0.125065
3548.4256,0.124360
3549.3575,0.124512
3550.2893,0.124348
3551.2211,0.123719
3552.1530,0.122809
3553.0848,0.121406
3554.0166,0.120232
3554.9485,0.118842
3555.8803,0.116751
3556.8121,0.116929
3557.7440,0.116943
3558.6758,0.115904
3559.6076,0.113899
3560.5395,0.111716
3561.4713,0.111026
3562.4031,0.110621
3563.3350,0.109744
3564.2668,0.108867
3565.1986,0.107644
3566.1305,0.107046
3567.0623,0.107179
3567.9941,0.109218
3568.9260,0.110864
3569.8578,0.109356
3570.7896,0.106231
3571.7215,0.103659
3572.6533,0.101852
3573.5852,0.100390
3574.5170,0.099301
3575.4488,0.098349
3576.3807,0.097931
3577.3125,0.098125
3578.2443,0.097160
3579.1762,0.095507
3580.1080,0.095037
3581.0398,0.093882
3581.9717,0.093201
3582.9035,0.094140
3583.8353,0.092964
3584.7672,0.090739
3585.6990,0.089207
3586.6308,0.088586
3587.5627,0.089124
3588.4945,0.087873
3589.4263,0.086537
3590.3582,0.087283
3591.2900,0.086220
3592.2218,0.084001
3593.1537,0.084100
3594.0855,0.085143
3595.0173,0.084493
3595.9492,0.083453
3596.8810,0.082071
3597.8128,0.081638
3598.7447,0.081661
3599.6765,0.079848
3600.6084,0.077481
3601.5402,0.076463
3602.4720,0.075412
3603.4039,0.074445
3604.3357,0.074899
3605.2675,0.074745
3606.1994,0.074271
3607.1312,0.073047
3608.0630,0.071180
3608.9949,0.071853
3609.9267,0.072776
3610.8585,0.072030
3611.7904,0.070166
3612.7222,0.068423
3613.6540,0.068322
3614.5859,0.068212
3615.5177,0.067015
3616.4495,0.065402
3617.3814,0.064345
3618.3132,0.063313
3619.2450,0.062526
3620.1769,0.062681
3621.1087,0.062225
3622.0405,0.061315
3622.9724,0.061582
3623.9042,0.061007
3624.8360,0.059816
3625.7679,0.059344
3626.6997,0.059100
3627.6316,0.058523
3628.5634,0.057602
3629.4952,0.055629
3630.4271,0.054393
3631.3589,0.056118
3632.2907,0.058174
3633.2226,0.057866
3634.1544,0.054896
3635.0862,0.052432
3636.0181,0.052034
3636.9499,0.052262
3637.8817,0.052140
3638.8136,0.051602
3639.7454,0.049880
3640.6772,0.048189
3641.6091,0.047896
3642.5409,0.048070
3643.4727,0.046958
3644.4046,0.044699
3645.3364,0.043833
3646.2682,0.044427
3647.2001,0.043601
3648.1319,0.041227
3649.0637,0.039997
3649.9956,0.039844
3650.9274,0.040083
3651.8592,0.039142
3652.7911,0.039187
3653.7229,0.040581
3654.6547,0.039387
3655.5866,0.037211
3656.5184,0.036709
3657.4503,0.035309
3658.3821,0.033188
3659.3139,0.033130
3660.2458,0.033893
3661.1776,0.033390
3662.1094,0.031728
3663.0413,0.030243
3663.9731,0.029334
3664.9049,0.029701
3665.8368,0.028939
3666.7686,0.027924
3667.7004,0.028352
3668.6323,0.027517
3669.5641,0.025584
3670.4959,0.023719
3671.4278,0.021669
3672.3596,0.022019
3673.2914,0.023994
3674.2233,0.023258
3675.1551,0.021725
3676.0869,0.020551
3677.0188,0.019640
3677.9506,0.019259
3678.8824,0.018892
3679.8143,0.018647
3680.7461,0.018545
3681.6779,0.017403
3682.6098,0.016561
3683.5416,0.016873
3684.4735,0.016808
3685.4053,0.016276
3686.3371,0.015259
3687.2690,0.014079
3688.2008,0.013457
3689.1326,0.012996
3690.0645,0.012586
3690.9963,0.012062
3691.9281,0.010559
3692.8600,0.009970
3693.7918,0.011038
3694.7236,0.012019
3695.6555,0.011292
3696.5873,0.009958
3697.5191,0.009246
3698.4510,0.008736
3699.3828,0.009193
3700.3146,0.009938
3701.2465,0.009697
3702.1783,0.008232
3703.1101,0.006859
3704.0420,0.006112
3704.9738,0.006459
3705.9056,0.006881
3706.8375,0.006294
3707.7693,0.005655
3708.7011,0.005339
3709.6330,0.005169
3710.5648,0.004755
3711.4967,0.004715
3712.4285,0.005973
3713.3603,0.006190
3714.2922,0.004427
3715.2240,0.004144
3716.1558,0.005003
3717.0877,0.005031
3718.0195,0.004693
3718.9513,0.004891
3719.8832,0.004753
3720.8150,0.003703
3721.7468,0.003239
3722.6787,0.003549
3723.6105,0.003446
3724.5423,0.003778
3725.4742,0.004368
3726.4060,0.004857
3727.3378,0.004310
3728.2697,0.002692
3729.2015,0.002516
3730.1333,0.004103
3731.0652,0.004142
3731.9970,0.002890
3732.9288,0.002706
3733.8607,0.002675
3734.7925,0.002266
3735.7243,0.002065
3736.6562,0.001426
3737.5880,0.000649
3738.5199,0.001391
3739.4517,0.001997
3740.3835,0.002249
3741.3154,0.003348
3742.2472,0.003953
3743.1790,0.003466
3744.1109,0.003332
3745.0427,0.002706
3745.9745,0.001215
3746.9064,-0.000447
3747.8382,-0.000326
3748.7700,0.001536
3749.7019,0.002819
3750.6337,0.002495
3751.5655,0.000713
3752.4974,0.000178
3753.4292,0.001581
3754.3610,0.001523
3755.2929,0.001673
3756.2247,0.001813
3757.1565,0.000890
3758.0884,0.001376
3759.0202,0.002059
3759.9520,0.001810
3760.8839,0.002249
3761.8157,0.002405
3762.7475,0.001880
3763.6794,0.001872
3764.6112,0.002193
3765.5431,0.002172
3766.4749,0.002048
3767.4067,0.002441
3768.3386,0.002749
3769.2704,0.002648
3770.2022,0.002357
3771.1341,0.001381
3772.0659,0.000499
3772.9977,0.001351
3773.9296,0.001945
3774.8614,0.001085
3775.7932,0.000862
3776.7251,0.001754
3777.6569,0.001804
3778.5887,0.001042
3779.5206,0.001439
3780.4524,0.001898
3781.3842,0.002091
3782.3161,0.002482
3783.2479,0.002695
3784.1797,0.003193
3785.1116,0.003734
3786.0434,0.003051
3786.9752,0.001455
3787.9071,0.001055
3788.8389,0.001317
3789.7707,0.001394
3790.7026,0.001646
3791.6344,0.001779
3792.5662,0.001295
3793.4981,0.000835
3794.4299,0.001207
3795.3618,0.001193
3796.2936,0.000804
3797.2254,0.001672
3798.1573,0.001898
3799.0891,0.000762
3800.0209,0.000411
3800.9528,0.000404
3801.8846,0.000430
3802.8164,0.000963
3803.7483,0.001572
3804.6801,0.001048
3805.6119,0.001045
3806.5438,0.001919
3807.4756,0.002089
3808.4074,0.001292
3809.3393,0.000848
3810.2711,0.001259
3811.2029,0.001386
3812.1348,0.000816
3813.0666,0.000875
3813.9984,0.001507
3814.9303,0.000447
3815.8621,-0.000484
3816.7939,0.000351
3817.7258,0.000436
3818.6576,0.000276
3819.5894,0.001837
3820.5213,0.002955
3821.4531,0.001908
3822.3850,0.000050
3823.3168,-0.000135
3824.2486,0.000461
3825.1805,0.001138
3826.1123,0.001161
3827.0441,0.000731
3827.9760,0.000655
3828.9078,0.000317
3829.8396,0.000579
3830.7715,0.001579
3831.7033,0.001130
3832.6351,0.000210
3833.5670,-0.000160
3834.4988,-0.000403
3835.4306,0.000019
3836.3625,0.000437
3837.2943,-0.000182
3838.2261,-0.001195
3839.1580,-0.001268
3840.0898,-0.001601
3841.0216,-0.000994
3841.9535,0.000713
3842.8853,0.000353
3843.8171,0.000715
3844.7490,0.001660
3845.6808,0.000874
3846.6126,-0.000025
3847.5445,0.000240
3848.4763,0.000675
3849.4082,0.001007
3850.3400,0.000506
3851.2718,-0.000447
3852.2037,-0.000155
3853.1355,-0.000538
3854.0673,-0.001921
3854.9992,-0.001519
3855.9310,0.000210
3856.8628,0.000147
3857.7947,0.000579
3858.7265,0.002246
3859.6583,0.001446
3860.5902,0.000909
3861.5220,0.001383
3862.4538,0.000871
3863.3857,0.000606
3864.3175,0.000893
3865.2493,0.000487
3866.1812,0.000295
3867.1130,-0.000095
3868.0448,-0.000570
3868.9767,0.001109
3869.9085,0.001192
3870.8403,-0.000226
3871.7722,-0.000479
3872.7040,0.000367
3873.6358,0.001192
3874.5677,0.000977
3875.4995,-0.000413
3876.4314,-0.000280
3877.3632,0.001448
3878.2950,0.001789
3879.2269,0.001614
3880.1587,0.001314
3881.0905,0.000142
3882.0224,0.000434
3882.9542,0.001551
3883.8860,0.001642
3884.8179,0.001221
3885.7497,-0.000077
3886.6815,0.000290
3887.6134,0.000802
3888.5452,-0.000184
3889.4770,0.000495
3890.4089,0.001368
3891.3407,0.001578
3892.2725,0.001800
3893.2044,0.001578
3894.1362,0.001132
3895.0680,0.001040
3895.9999,0.001602
3896.9317,0.001271
3897.8635,0.001039
3898.7954,0.001694
3899.7272,0.001006
3900.6590,-0.000805
3901.5909,-0.001476
3902.5227,-0.000343
3903.4546,0.001006
3904.3864,0.001122
3905.3182,0.000112
3906.2501,0.000473
3907.1819,0.000344
3908.1137,0.000332
3909.0456,0.000738
3909.9774,0.002025
3910.9092,0.001689
3911.8411,0.000313
3912.7729,0.000205
3913.7047,0.000204
3914.6366,0.000323
3915.5684,0.000329
3916.5002,0.000964
3917.4321,0.000653
3918.3639,0.000625
3919.2957,0.001419
3920.2276,0.001453
3921.1594,0.000874
3922.0912,0.000367
3923.0231,0.000944
3923.9549,0.001949
3924.8867,0.000658
3925.8186,-0.000055
3926.7504,-0.000314
3927.6822,-0.000595
3928.6141,0.000431
3929.5459,0.001527
3930.4777,0.001937
3931.4096,0.001604
3932.3414,0.001493
3933.2733,0.001324
3934.2051,0.000664
3935.1369,0.000447
3936.0688,0.001614
3937.0006,0.001677
3937.9324,0.000682
3938.8643,0.000989
3939.7961,0.001436
3940.7279,0.000852
3941.6598,0.000103
3942.5916,0.000564
3943.5234,0.000618
3944.4553,0.000694
3945.3871,0.000919
3946.3189,0.001496
3947.2508,0.001589
3948.1826,0.000687
3949.1144,0.000928
3950.0463,0.000582
3950.9781,-0.000275
3951.9099,0.000158
3952.8418,0.000778
3953.7736,0.001203
3954.7054,0.001526
3955.6373,0.001621
3956.5691,0.000796
3957.5009,0.000491
3958.4328,0.000855
3959.3646,0.000886
3960.2965,0.000362
3961.2283,0.000569
3962.1601,0.000663
3963.0920,0.000361
3964.0238,0.001337
3964.9556,0.002145
3965.8875,0.001792
3966.8193,0.001724
3967.7511,0.001921
3968.6830,0.001639
3969.6148,0.001036
3970.5466,0.000490
3971.4785,0.000462
3972.4103,0.000555
3973.3421,0.000593
3974.2740,0.001662
3975.2058,0.002691
3976.1376,0.001696
3977.0695,0.000790
3978.0013,0.000478
3978.9331,0.000213
3979.8650,0.000675
3980.7968,0.000797
3981.7286,0.000798
3982.6605,0.000884
3983.5923,0.000959
3984.5241,0.000845
3985.4560,0.000444
3986.3878,0.000121
3987.3197,0.001591
3988.2515,0.002269
3989.1833,0.000770
3990.1152,0.000062
3991.0470,-0.000153
3991.9788,0.000290
3992.9107,0.000700
3993.8425,0.000332
3994.7743,-0.000017
3995.7062,0.000400
3996.6380,0.000859
3997.5698,0.000826
3998.5017,0.000746
3999.4335,0.000918
4000.3653,0.001414
