Wavenumber,Intensity
650.4205,0.382912
651.3523,0.383625
652.2841,0.375417
653.2160,0.359838
654.1478,0.360998
655.0796,0.375417
656.0115,0.384308
656.9433,0.386581
657.8751,0.381538
658.8070,0.378966
659.7388,0.372379
660.6706,0.369750
661.6025,0.371750
662.5343,0.371157
663.4661,0.368728
664.3980,0.363125
665.3298,0.362166
666.2616,0.369610
667.1935,0.371258
668.1253,0.366403
669.0571,0.370891
669.9890,0.363711
670.9208,0.354054
671.8526,0.352367
672.7845,0.349255
673.7163,0.347611
674.6481,0.354858
675.5800,0.357533
676.5118,0.345999
677.4437,0.342999
678.3755,0.347409
679.3073,0.346513
680.2392,0.341777
681.1710,0.343441
682.1028,0.346571
683.0347,0.341970
683.9665,0.339855
684.8983,0.341793
685.8302,0.340022
686.7620,0.338750
687.6938,0.336049
688.6257,0.333634
689.5575,0.337224
690.4893,0.338959
691.4212,0.334453
692.3530,0.328037
693.2848,0.322323
694.2167,0.322976
695.1485,0.325660
696.0803,0.327644
697.0122,0.324188
697.9440,0.319416
698.8758,0.320329
699.8077,0.321730
700.7395,0.317490
701.6713,0.316257
702.6032,0.318068
703.5350,0.314178
704.4669,0.310381
705.3987,0.312253
706.3305,0.314215
707.2624,0.312125
708.1942,0.307064
709.1260,0.306157
710.0579,0.307066
710.9897,0.305712
711.9215,0.305052
712.8534,0.304440
713.7852,0.301384
714.7170,0.299981
715.6489,0.299677
716.5807,0.298497
717.5125,0.293514
718.4444,0.292107
719.3762,0.292859
720.3080,0.292886
721.2399,0.293105
722.1717,0.292195
723.1035,0.291733
724.0354,0.289735
724.9672,0.287085
725.8990,0.285666
726.8309,0.282980
727.7627,0.281518
728.6945,0.280196
729.6264,0.277529
730.5582,0.275851
731.4901,0.274838
732.4219,0.273648
733.3537,0.272808
734.2856,0.271885
735.2174,0.271279
736.1492,0.270515
737.0811,0.270418
738.0129,0.269262
738.9447,0.267952
739.8766,0.266734
740.8084,0.264821
741.7402,0.262095
742.6721,0.261563
743.6039,0.260846
744.5357,0.259553
745.4676,0.258313
746.3994,0.257283
747.3312,0.256074
748.2631,0.253035
749.1949,0.251778
750.1267,0.251588
751.0586,0.249213
751.9904,0.249791
752.9222,0.247984
753.8541,0.246196
754.7859,0.245663
755.7177,0.242574
756.6496,0.240240
757.5814,0.239305
758.5132,0.238413
759.4451,0.237986
760.3769,0.236594
761.3088,0.235697
762.2406,0.234787
763.1724,0.232920
764.1043,0.230948
765.0361,0.229864
765.9679,0.229913
766.8998,0.229000
767.8316,0.227214
768.7634,0.228005
769.6953,0.227444
770.6271,0.223184
771.5589,0.221185
772.4908,0.221325
773.4226,0.219852
774.3544,0.218197
775.2863,0.216472
776.2181,0.214728
777.1499,0.214301
778.0818,0.213288
779.0136,0.212020
779.9454,0.210723
780.8773,0.208659
781.8091,0.208776
782.7409,0.209741
783.6728,0.208937
784.6046,0.205724
785.5364,0.203160
786.4683,0.202222
787.4001,0.202248
788.3320,0.201054
789.2638,0.199012
790.1956,0.197492
791.1275,0.195898
792.0593,0.194218
792.9911,0.193147
793.9230,0.192650
794.8548,0.192762
795.7866,0.191585
796.7185,0.190096
797.6503,0.189062
798.5821,0.188632
799.5140,0.187729
800.4458,0.186263
801.3776,0.184985
802.3095,0.184491
803.2413,0.183301
804.1731,0.181122
805.1050,0.180444
806.0368,0.180091
806.9686,0.178694
807.9005,0.177291
808.8323,0.175502
809.7641,0.173484
810.6960,0.172418
811.6278,0.171425
812.5596,0.169568
813.4915,0.167792
814.4233,0.167591
815.3552,0.167693
816.2870,0.165567
817.2188,0.163436
818.1507,0.162656
819.0825,0.161769
820.0143,0.160203
820.9462,0.158806
821.8780,0.157331
822.8098,0.156257
823.7417,0.154968
824.6735,0.154838
825.6053,0.153570
826.5372,0.151482
827.4690,0.150758
828.4008,0.150366
829.3327,0.148582
830.2645,0.147544
831.1963,0.147722
832.1282,0.146640
833.0600,0.145218
833.9918,0.144670
834.9237,0.143519
835.8555,0.142354
836.7873,0.142005
837.7192,0.141527
838.6510,0.140612
839.5828,0.139257
840.5147,0.137236
841.4465,0.135712
842.3784,0.134722
843.3102,0.133991
844.2420,0.133289
845.1739,0.132561
846.1057,0.131974
847.0375,0.131648
847.9694,0.130996
848.9012,0.129585
849.8330,0.127480
850.7649,0.126229
851.6967,0.126325
852.6285,0.126603
853.5604,0.126502
854.4922,0.125550
855.4240,0.123974
856.3559,0.123119
857.2877,0.122670
858.2195,0.122156
859.1514,0.122277
860.0832,0.122405
861.0150,0.122183
861.9469,0.122190
862.8787,0.122392
863.8105,0.122643
864.7424,0.122266
865.6742,0.122831
866.6060,0.123510
867.5379,0.124790
868.4697,0.127067
869.4016,0.128931
870.3334,0.130960
871.2652,0.133848
872.1971,0.138301
873.1289,0.142738
874.0607,0.146394
874.9926,0.151044
875.9244,0.155903
876.8562,0.158716
877.7881,0.159436
878.7199,0.158438
879.6517,0.155724
880.5836,0.150714
881.5154,0.143967
882.4472,0.137521
883.3791,0.131617
884.3109,0.125244
885.2427,0.118602
886.1746,0.113080
887.1064,0.108403
888.0382,0.104300
888.9701,0.100847
889.9019,0.098509
890.8337,0.096928
891.7656,0.094646
892.6974,0.091898
893.6292,0.090393
894.5611,0.089216
895.4929,0.087721
896.4247,0.086978
897.3566,0.086192
898.2884,0.084870
899.2203,0.084167
900.1521,0.083960
901.0839,0.083406
902.0158,0.081965
902.9476,0.080478
903.8794,0.080110
904.8113,0.080034
905.7431,0.079310
906.6749,0.078226
907.6068,0.077248
908.5386,0.076753
909.4704,0.076316
910.4023,0.075984
911.3341,0.075767
912.2659,0.075126
913.1978,0.074890
914.1296,0.074859
915.0614,0.074259
915.9933,0.073358
916.9251,0.072699
917.8569,0.072525
918.7888,0.072713
919.7206,0.072638
920.6524,0.071852
921.5843,0.070993
922.5161,0.070346
923.4479,0.070117
924.3798,0.070074
925.3116,0.069782
926.2435,0.069034
927.1753,0.068231
928.1071,0.067720
929.0390,0.067840
929.9708,0.067403
930.9026,0.066631
931.8345,0.066267
932.7663,0.065986
933.6981,0.065935
934.6300,0.065531
935.5618,0.064794
936.4936,0.064168
937.4255,0.064059
938.3573,0.064195
939.2891,0.064024
940.2210,0.063668
941.1528,0.063121
942.0846,0.062942
943.0165,0.062912
943.9483,0.062592
944.8801,0.062090
945.8120,0.061587
946.7438,0.061420
947.6756,0.061310
948.6075,0.060973
949.5393,0.060752
950.4711,0.060582
951.4030,0.060244
952.3348,0.059948
953.2667,0.059366
954.1985,0.058670
955.1303,0.058606
956.0622,0.058754
956.9940,0.058574
957.9258,0.058387
958.8577,0.058251
959.7895,0.058189
960.7213,0.058214
961.6532,0.058056
962.5850,0.057816
963.5168,0.057985
964.4487,0.058040
965.3805,0.057666
966.3123,0.057517
967.2442,0.057459
968.1760,0.057134
969.1078,0.057039
970.0397,0.057326
970.9715,0.057183
971.9033,0.056932
972.8352,0.056980
973.7670,0.057176
974.6988,0.057121
975.6307,0.057147
976.5625,0.057406
977.4943,0.057303
978.4262,0.057266
979.3580,0.057349
980.2899,0.057209
981.2217,0.057533
982.1535,0.057783
983.0854,0.057827
984.0172,0.057947
984.9490,0.058047
985.8809,0.058391
986.8127,0.058482
987.7445,0.058889
988.6764,0.059329
989.6082,0.059273
990.5400,0.059332
991.4719,0.059486
992.4037,0.059621
993.3355,0.059867
994.2674,0.060040
995.1992,0.060345
996.1310,0.060456
997.0629,0.060341
997.9947,0.060317
998.9265,0.060511
999.8584,0.060639
1000.7902,0.060750
1001.7220,0.061125
1002.6539,0.061526
1003.5857,0.061849
1004.5175,0.062206
1005.4494,0.062491
1006.3812,0.062567
1007.3131,0.062858
1008.2449,0.063564
1009.1767,0.064221
1010.1086,0.064675
1011.0404,0.065188
1011.9722,0.065943
1012.9041,0.066818
1013.8359,0.068028
1014.7677,0.069104
1015.6996,0.069935
1016.6314,0.070856
1017.5632,0.071904
1018.4951,0.073048
1019.4269,0.074248
1020.3587,0.075694
1021.2906,0.077367
1022.2224,0.079287
1023.1542,0.081656
1024.0861,0.084342
1025.0179,0.086919
1025.9497,0.089713
1026.8816,0.092747
1027.8134,0.096314
1028.7452,0.100482
1029.6771,0.104964
1030.6089,0.109754
1031.5407,0.115625
1032.4726,0.122169
1033.4044,0.129339
1034.3362,0.137877
1035.2681,0.147925
1036.1999,0.158901
1037.1318,0.170749
1038.0636,0.183658
1038.9954,0.196923
1039.9273,0.210217
1040.8591,0.223043
1041.7909,0.234327
1042.7228,0.242571
1043.6546,0.247154
1044.5864,0.247848
1045.5183,0.244216
1046.4501,0.236205
1047.3819,0.224912
1048.3138,0.211678
1049.2456,0.197090
1050.1774,0.181992
1051.1093,0.166957
1052.0411,0.152984
1052.9729,0.140349
1053.9048,0.128744
1054.8366,0.118484
1055.7684,0.109694
1056.7003,0.102458
1057.6321,0.096633
1058.5639,0.091858
1059.4958,0.087843
1060.4276,0.084425
1061.3594,0.081963
1062.2913,0.080311
1063.2231,0.079090
1064.1550,0.078247
1065.0868,0.077775
1066.0186,0.077699
1066.9505,0.077855
1067.8823,0.078168
1068.8141,0.078729
1069.7460,0.079692
1070.6778,0.080875
1071.6096,0.082018
1072.5415,0.083510
1073.4733,0.085431
1074.4051,0.087457
1075.3370,0.089837
1076.2688,0.092121
1077.2006,0.094394
1078.1325,0.097196
1079.0643,0.100156
1079.9961,0.102758
1080.9280,0.105111
1081.8598,0.107137
1082.7916,0.108975
1083.7235,0.110260
1084.6553,0.110975
1085.5871,0.110950
1086.5190,0.109851
1087.4508,0.108217
1088.3826,0.105803
1089.3145,0.102462
1090.2463,0.098893
1091.1782,0.095210
1092.1100,0.091047
1093.0418,0.086731
1093.9737,0.082830
1094.9055,0.079112
1095.8373,0.075365
1096.7692,0.072127
1097.7010,0.069373
1098.6328,0.066882
1099.5647,0.064789
1100.4965,0.062802
1101.4283,0.060911
1102.3602,0.059544
1103.2920,0.058247
1104.2238,0.057045
1105.1557,0.056199
1106.0875,0.055532
1107.0193,0.054707
1107.9512,0.053964
1108.8830,0.053161
1109.8148,0.052254
1110.7467,0.051653
1111.6785,0.051368
1112.6103,0.051023
1113.5422,0.050598
1114.4740,0.050299
1115.4058,0.050142
1116.3377,0.050115
1117.2695,0.049941
1118.2014,0.049753
1119.1332,0.049558
1120.0650,0.049452
1120.9969,0.049372
1121.9287,0.049389
1122.8605,0.049184
1123.7924,0.048943
1124.7242,0.048912
1125.6560,0.048742
1126.5879,0.048495
1127.5197,0.048537
1128.4515,0.048649
1129.3834,0.048459
1130.3152,0.048287
1131.2470,0.048304
1132.1789,0.048170
1133.1107,0.047988
1134.0425,0.047814
1134.9744,0.047537
1135.9062,0.047277
1136.8380,0.047135
1137.7699,0.047096
1138.7017,0.046903
1139.6335,0.046910
1140.5654,0.046647
1141.4972,0.046260
1142.4290,0.046317
1143.3609,0.046395
1144.2927,0.046247
1145.2246,0.045930
1146.1564,0.045857
1147.0882,0.045964
1148.0201,0.045957
1148.9519,0.045918
1149.8837,0.045888
1150.8156,0.045738
1151.7474,0.045624
1152.6792,0.045915
1153.6111,0.045976
1154.5429,0.045711
1155.4747,0.045428
1156.4066,0.045284
1157.3384,0.045308
1158.2702,0.045064
1159.2021,0.044601
1160.1339,0.044560
1161.0657,0.044616
1161.9976,0.044216
1162.9294,0.043745
1163.8612,0.043597
1164.7931,0.043271
1165.7249,0.042825
1166.6567,0.042643
1167.5886,0.042406
1168.5204,0.042083
1169.4522,0.041970
1170.3841,0.041859
1171.3159,0.041753
1172.2477,0.041723
1173.1796,0.041614
1174.1114,0.041531
1175.0433,0.041333
1175.9751,0.041258
1176.9069,0.041406
1177.8388,0.041413
1178.7706,0.041267
1179.7024,0.041322
1180.6343,0.041467
1181.5661,0.041573
1182.4979,0.041569
1183.4298,0.041321
1184.3616,0.041059
1185.2934,0.041098
1186.2253,0.041350
1187.1571,0.041513
1188.0889,0.041544
1189.0208,0.041368
1189.9526,0.041113
1190.8844,0.041101
1191.8163,0.041418
1192.7481,0.041434
1193.6799,0.041250
1194.6118,0.041226
1195.5436,0.041311
1196.4754,0.041161
1197.4073,0.041134
1198.3391,0.041351
1199.2709,0.041436
1200.2028,0.041491
1201.1346,0.041473
1202.0665,0.041487
1202.9983,0.041514
1203.9301,0.041238
1204.8620,0.041285
1205.7938,0.041524
1206.7256,0.041581
1207.6575,0.041601
1208.5893,0.041587
1209.5211,0.041719
1210.4530,0.041641
1211.3848,0.041754
1212.3166,0.041752
1213.2485,0.041797
1214.1803,0.041824
1215.1121,0.041835
1216.0440,0.041893
1216.9758,0.041849
1217.9076,0.041750
1218.8395,0.041771
1219.7713,0.041904
1220.7031,0.041896
1221.6350,0.042031
1222.5668,0.042381
1223.4986,0.042448
1224.4305,0.042424
1225.3623,0.042741
1226.2941,0.042867
1227.2260,0.042901
1228.1578,0.042754
1229.0897,0.042792
1230.0215,0.042930
1230.9533,0.042950
1231.8852,0.043058
1232.8170,0.043186
1233.7488,0.043163
1234.6807,0.043239
1235.6125,0.043488
1236.5443,0.043681
1237.4762,0.043653
1238.4080,0.043577
1239.3398,0.043621
1240.2717,0.043744
1241.2035,0.043907
1242.1353,0.044005
1243.0672,0.044059
1243.9990,0.044307
1244.9308,0.044634
1245.8627,0.044650
1246.7945,0.044605
1247.7263,0.044823
1248.6582,0.045120
1249.5900,0.045142
1250.5218,0.045268
1251.4537,0.045617
1252.3855,0.045982
1253.3173,0.046103
1254.2492,0.046105
1255.1810,0.046484
1256.1129,0.046957
1257.0447,0.047359
1257.9765,0.047540
1258.9084,0.047563
1259.8402,0.047810
1260.7720,0.048397
1261.7039,0.049075
1262.6357,0.049646
1263.5675,0.049894
1264.4994,0.050254
1265.4312,0.050749
1266.3630,0.051173
1267.2949,0.051788
1268.2267,0.052319
1269.1585,0.052569
1270.0904,0.052924
1271.0222,0.053408
1271.9540,0.053796
1272.8859,0.054048
1273.8177,0.054263
1274.7495,0.054196
1275.6814,0.054141
1276.6132,0.054136
1277.5450,0.053780
1278.4769,0.053497
1279.4087,0.053034
1280.3405,0.052575
1281.2724,0.052197
1282.2042,0.051672
1283.1361,0.051376
1284.0679,0.051237
1284.9997,0.051052
1285.9316,0.050832
1286.8634,0.050568
1287.7952,0.050618
1288.7271,0.050657
1289.6589,0.050495
1290.5907,0.050404
1291.5226,0.050405
1292.4544,0.050627
1293.3862,0.050848
1294.3181,0.051018
1295.2499,0.050933
1296.1817,0.050984
1297.1136,0.051434
1298.0454,0.051613
1298.9772,0.051589
1299.9091,0.051827
1300.8409,0.051985
1301.7727,0.052281
1302.7046,0.052647
1303.6364,0.052984
1304.5682,0.053223
1305.5001,0.053223
1306.4319,0.053481
1307.3637,0.053792
1308.2956,0.053887
1309.2274,0.053858
1310.1592,0.054163
1311.0911,0.054487
1312.0229,0.054748
1312.9548,0.055126
1313.8866,0.055687
1314.8184,0.056074
1315.7503,0.055954
1316.6821,0.056017
1317.6139,0.056565
1318.5458,0.056622
1319.4776,0.056574
1320.4094,0.056781
1321.3413,0.057011
1322.2731,0.057048
1323.2049,0.056861
1324.1368,0.056950
1325.0686,0.057188
1326.0004,0.057198
1326.9323,0.057252
1327.8641,0.057215
1328.7959,0.056920
1329.7278,0.056643
1330.6596,0.056664
1331.5914,0.056595
1332.5233,0.056364
1333.4551,0.055991
1334.3869,0.055756
1335.3188,0.055524
1336.2506,0.055121
1337.1824,0.054725
1338.1143,0.054578
1339.0461,0.054543
1339.9780,0.054847
1340.9098,0.055175
1341.8416,0.054771
1342.7735,0.053919
1343.7053,0.053338
1344.6371,0.053001
1345.5690,0.052698
1346.5008,0.052563
1347.4326,0.052591
1348.3645,0.052236
1349.2963,0.051652
1350.2281,0.051657
1351.1600,0.051785
1352.0918,0.051410
1353.0236,0.051013
1353.9555,0.050896
1354.8873,0.050989
1355.8191,0.051221
1356.7510,0.051309
1357.6828,0.051199
1358.6146,0.050852
1359.5465,0.050587
1360.4783,0.050385
1361.4101,0.050479
1362.3420,0.051084
1363.2738,0.051624
1364.2056,0.052500
1365.1375,0.052623
1366.0693,0.052278
1367.0012,0.052547
1367.9330,0.053075
1368.8648,0.053662
1369.7967,0.054618
1370.7285,0.055157
1371.6603,0.055368
1372.5922,0.056286
1373.5240,0.057744
1374.4558,0.059421
1375.3877,0.061166
1376.3195,0.062468
1377.2513,0.062787
1378.1832,0.063274
1379.1150,0.064146
1380.0468,0.064582
1380.9787,0.064849
1381.9105,0.064991
1382.8423,0.065104
1383.7742,0.065398
1384.7060,0.065338
1385.6378,0.064949
1386.5697,0.064725
1387.5015,0.065261
1388.4333,0.066335
1389.3652,0.065682
1390.2970,0.064210
1391.2288,0.063321
1392.1607,0.062938
1393.0925,0.062369
1394.0244,0.061591
1394.9562,0.061825
1395.8880,0.063124
1396.8199,0.063110
1397.7517,0.062607
1398.6835,0.062556
1399.6154,0.063256
1400.5472,0.064473
1401.4790,0.064124
1402.4109,0.063044
1403.3427,0.062629
1404.2745,0.062717
1405.2064,0.063492
1406.1382,0.064875
1407.0700,0.065268
1408.0019,0.064932
1408.9337,0.064598
1409.8655,0.064430
1410.7974,0.064697
1411.7292,0.065189
1412.6610,0.065502
1413.5929,0.065223
1414.5247,0.064645
1415.4565,0.064054
1416.3884,0.063540
1417.3202,0.063794
1418.2520,0.064617
1419.1839,0.065034
1420.1157,0.065968
1421.0476,0.066326
1421.9794,0.064908
1422.9112,0.063619
1423.8431,0.063417
1424.7749,0.064169
1425.7067,0.063997
1426.6386,0.062774
1427.5704,0.061879
1428.5022,0.061089
1429.4341,0.060355
1430.3659,0.060500
1431.2977,0.060816
1432.2296,0.059758
1433.1614,0.058496
1434.0932,0.057647
1435.0251,0.056982
1435.9569,0.056584
1436.8887,0.057534
1437.8206,0.060008
1438.7524,0.059319
1439.6842,0.057494
1440.6161,0.056934
1441.5479,0.056798
1442.4797,0.056665
1443.4116,0.056754
1444.3434,0.056907
1445.2752,0.057224
1446.2071,0.057809
1447.1389,0.058426
1448.0707,0.059595
1449.0026,0.061634
1449.9344,0.062350
1450.8663,0.061863
1451.7981,0.061568
1452.7299,0.061669
1453.6618,0.061429
1454.5936,0.060242
1455.5254,0.059125
1456.4573,0.058687
1457.3891,0.059307
1458.3209,0.060764
1459.2528,0.060287
1460.1846,0.057947
1461.1164,0.055114
1462.0483,0.052896
1462.9801,0.051552
1463.9119,0.050623
1464.8438,0.049844
1465.7756,0.049529
1466.7074,0.048905
1467.6393,0.047804
1468.5711,0.047012
1469.5029,0.045974
1470.4348,0.045026
1471.3666,0.044657
1472.2984,0.044771
1473.2303,0.045777
1474.1621,0.046569
1475.0939,0.046576
1476.0258,0.046113
1476.9576,0.046345
1477.8895,0.046545
1478.8213,0.045855
1479.7531,0.045930
1480.6850,0.046076
1481.6168,0.045911
1482.5486,0.046062
1483.4805,0.045995
1484.4123,0.045588
1485.3441,0.045169
1486.2760,0.044871
1487.2078,0.044617
1488.1396,0.044637
1489.0715,0.044843
1490.0033,0.044581
1490.9351,0.044704
1491.8670,0.044938
1492.7988,0.043816
1493.7306,0.042026
1494.6625,0.041102
1495.5943,0.041073
1496.5261,0.041388
1497.4580,0.042277
1498.3898,0.042047
1499.3216,0.041698
1500.2535,0.041487
1501.1853,0.040699
1502.1171,0.040694
1503.0490,0.040720
1503.9808,0.039726
1504.9127,0.038439
1505.8445,0.038260
1506.7763,0.040347
1507.7082,0.042884
1508.6400,0.042897
1509.5718,0.042035
1510.5037,0.041075
1511.4355,0.040633
1512.3673,0.040288
1513.2992,0.040147
1514.2310,0.039972
1515.1628,0.039659
1516.0947,0.039437
1517.0265,0.039429
1517.9583,0.040164
1518.8902,0.041149
1519.8220,0.040396
1520.7538,0.039716
1521.6857,0.040328
1522.6175,0.041376
1523.5493,0.041670
1524.4812,0.040701
1525.4130,0.040191
1526.3448,0.041360
1527.2767,0.042061
1528.2085,0.041554
1529.1403,0.041436
1530.0722,0.041131
1531.0040,0.040293
1531.9359,0.040151
1532.8677,0.040864
1533.7995,0.041926
1534.7314,0.042600
1535.6632,0.041899
1536.5950,0.040768
1537.5269,0.039848
1538.4587,0.039526
1539.3905,0.040082
1540.3224,0.041752
1541.2542,0.044018
1542.1860,0.044467
1543.1179,0.044825
1544.0497,0.044858
1544.9815,0.043832
1545.9134,0.043816
1546.8452,0.044086
1547.7770,0.043328
1548.7089,0.042874
1549.6407,0.042810
1550.5725,0.043404
1551.5044,0.044374
1552.4362,0.044100
1553.3680,0.043646
1554.2999,0.043776
1555.2317,0.044321
1556.1635,0.044054
1557.0954,0.042957
1558.0272,0.043451
1558.9591,0.046841
1559.8909,0.051840
1560.8227,0.053040
1561.7546,0.050981
1562.6864,0.048283
1563.6182,0.047232
1564.5501,0.047174
1565.4819,0.047654
1566.4137,0.048484
1567.3456,0.048294
1568.2774,0.047960
1569.2092,0.048670
1570.1411,0.050876
1571.0729,0.052678
1572.0047,0.051530
1572.9366,0.050333
1573.8684,0.050294
1574.8002,0.050768
1575.7321,0.051351
1576.6639,0.053145
1577.5957,0.056315
1578.5276,0.056542
1579.4594,0.055661
1580.3912,0.055563
1581.3231,0.055773
1582.2549,0.056504
1583.1867,0.057449
1584.1186,0.057866
1585.0504,0.058310
1585.9822,0.059043
1586.9141,0.060066
1587.8459,0.061129
1588.7778,0.061747
1589.7096,0.062564
1590.6414,0.063636
1591.5733,0.064583
1592.5051,0.065295
1593.4369,0.066116
1594.3688,0.067481
1595.3006,0.068832
1596.2324,0.069717
1597.1643,0.070860
1598.0961,0.072187
1599.0279,0.073377
1599.9598,0.074626
1600.8916,0.075725
1601.8234,0.076761
1602.7553,0.078583
1603.6871,0.080394
1604.6189,0.081453
1605.5508,0.082678
1606.4826,0.084351
1607.4144,0.086019
1608.3463,0.088159
1609.2781,0.090629
1610.2099,0.092602
1611.1418,0.094181
1612.0736,0.095372
1613.0054,0.096404
1613.9373,0.097532
1614.8691,0.098760
1615.8010,0.101037
1616.7328,0.104890
1617.6646,0.111486
1618.5965,0.116708
1619.5283,0.115101
1620.4601,0.113259
1621.3920,0.113967
1622.3238,0.116170
1623.2556,0.119262
1624.1875,0.123958
1625.1193,0.128593
1626.0511,0.129013
1626.9830,0.128495
1627.9148,0.130339
1628.8466,0.134323
1629.7785,0.136057
1630.7103,0.134911
1631.6421,0.134302
1632.5740,0.134480
1633.5058,0.135032
1634.4376,0.135778
1635.3695,0.137327
1636.3013,0.144957
1637.2331,0.152104
1638.1650,0.149055
1639.0968,0.146108
1640.0286,0.144258
1640.9605,0.142922
1641.8923,0.142010
1642.8242,0.140714
1643.7560,0.139368
1644.6878,0.138188
1645.6197,0.137763
1646.5515,0.139166
1647.4833,0.141990
1648.4152,0.141709
1649.3470,0.138497
1650.2788,0.134830
1651.2107,0.131809
1652.1425,0.130461
1653.0743,0.133354
1654.0062,0.142070
1654.9380,0.143260
1655.8698,0.136371
1656.8017,0.130948
1657.7335,0.127294
1658.6653,0.124641
1659.5972,0.122578
1660.5290,0.120861
1661.4608,0.119497
1662.3927,0.118324
1663.3245,0.117368
1664.2563,0.116966
1665.1882,0.115081
1666.1200,0.112115
1667.0518,0.109772
1667.9837,0.107681
1668.9155,0.105757
1669.8474,0.105265
1670.7792,0.104989
1671.7110,0.102579
1672.6429,0.100265
1673.5747,0.097815
1674.5065,0.095208
1675.4384,0.093802
1676.3702,0.093819
1677.3020,0.092620
1678.2339,0.089767
1679.1657,0.086866
1680.0975,0.084326
1681.0294,0.083195
1681.9612,0.082295
1682.8930,0.080263
1683.8249,0.078723
1684.7567,0.078543
1685.6885,0.078012
1686.6204,0.075970
1687.5522,0.073676
1688.4840,0.071434
1689.4159,0.069608
1690.3477,0.068204
1691.2795,0.066827
1692.2114,0.064875
1693.1432,0.062770
1694.0750,0.061243
1695.0069,0.059462
1695.9387,0.057933
1696.8706,0.057932
1697.8024,0.056699
1698.7342,0.054193
1699.6661,0.052628
1700.5979,0.052589
1701.5297,0.053750
1702.4616,0.051694
1703.3934,0.049135
1704.3252,0.047876
1705.2571,0.047419
1706.1889,0.046263
1707.1207,0.044680
1708.0526,0.044195
1708.9844,0.043327
1709.9162,0.042313
1710.8481,0.041619
1711.7799,0.040486
1712.7117,0.038828
1713.6436,0.037204
1714.5754,0.036389
1715.5072,0.036563
1716.4391,0.036374
1717.3709,0.035357
1718.3027,0.035144
1719.2346,0.035290
1720.1664,0.034287
1721.0982,0.033006
1722.0301,0.032264
1722.9619,0.031699
1723.8937,0.030984
1724.8256,0.030670
1725.7574,0.030329
1726.6893,0.029409
1727.6211,0.028492
1728.5529,0.027822
1729.4848,0.027099
1730.4166,0.026714
1731.3484,0.026814
1732.2803,0.026359
1733.2121,0.025630
1734.1439,0.025198
1735.0758,0.024863
1736.0076,0.024390
1736.9394,0.023760
1737.8713,0.023423
1738.8031,0.023051
1739.7349,0.022568
1740.6668,0.022540
1741.5986,0.022566
1742.5304,0.022321
1743.4623,0.021901
1744.3941,0.021414
1745.3259,0.021191
1746.2578,0.020910
1747.1896,0.020496
1748.1214,0.020420
1749.0533,0.020769
1749.9851,0.020735
1750.9169,0.020363
1751.8488,0.020269
1752.7806,0.019649
1753.7125,0.018714
1754.6443,0.018711
1755.5761,0.018507
1756.5080,0.018022
1757.4398,0.018206
1758.3716,0.018463
1759.3035,0.017972
1760.2353,0.017589
1761.1671,0.017811
1762.0990,0.018261
1763.0308,0.018154
1763.9626,0.017798
1764.8945,0.017216
1765.8263,0.016614
1766.7581,0.016320
1767.6900,0.015718
1768.6218,0.015060
1769.5536,0.015177
1770.4855,0.015368
1771.4173,0.015097
1772.3491,0.014977
1773.2810,0.014941
1774.2128,0.015211
1775.1446,0.015057
1776.0765,0.014814
1777.0083,0.014924
1777.9401,0.014885
1778.8720,0.014699
1779.8038,0.014209
1780.7357,0.013810
1781.6675,0.013912
1782.5993,0.014020
1783.5312,0.013751
1784.4630,0.013676
1785.3948,0.013695
1786.3267,0.013949
1787.2585,0.013950
1788.1903,0.013287
1789.1222,0.013108
1790.0540,0.013253
1790.9858,0.012935
1791.9177,0.012861
1792.8495,0.013115
1793.7813,0.012849
1794.7132,0.012460
1795.6450,0.012495
1796.5768,0.012781
1797.5087,0.012608
1798.4405,0.012272
1799.3723,0.012378
1800.3042,0.012499
1801.2360,0.012621
1802.1678,0.012511
1803.0997,0.012290
1804.0315,0.012218
1804.9633,0.011822
1805.8952,0.011814
1806.8270,0.012252
1807.7589,0.012030
1808.6907,0.011654
1809.6225,0.011589
1810.5544,0.011418
1811.4862,0.011100
1812.4180,0.010772
1813.3499,0.010843
1814.2817,0.011037
1815.2135,0.011427
1816.1454,0.011260
1817.0772,0.010668
1818.0090,0.011051
1818.9409,0.011560
1819.8727,0.011078
1820.8045,0.010455
1821.7364,0.010569
1822.6682,0.010729
1823.6000,0.010368
1824.5319,0.009805
1825.4637,0.009832
1826.3955,0.010743
1827.3274,0.011511
1828.2592,0.011127
1829.1910,0.010449
1830.1229,0.010181
1831.0547,0.009805
1831.9865,0.008990
1832.9184,0.008906
1833.8502,0.009349
1834.7821,0.010154
1835.7139,0.010206
1836.6457,0.009495
1837.5776,0.009310
1838.5094,0.009312
1839.4412,0.009443
1840.3731,0.009308
1841.3049,0.009007
1842.2367,0.009400
1843.1686,0.009669
1844.1004,0.009746
1845.0322,0.009514
1845.9641,0.009877
1846.8959,0.009797
1847.8277,0.009073
1848.7596,0.008719
1849.6914,0.009225
1850.6232,0.009069
1851.5551,0.008774
1852.4869,0.008856
1853.4187,0.009075
1854.3506,0.009837
1855.2824,0.009772
1856.2142,0.009041
1857.1461,0.009170
1858.0779,0.009610
1859.0097,0.009791
1859.9416,0.010001
1860.8734,0.009865
1861.8052,0.009694
1862.7371,0.010042
1863.6689,0.008955
1864.6008,0.008045
1865.5326,0.008639
1866.4644,0.008468
1867.3963,0.008168
1868.3281,0.008404
1869.2599,0.008455
1870.1918,0.008742
1871.1236,0.009342
1872.0554,0.009647
1872.9873,0.009508
1873.9191,0.008994
1874.8509,0.008842
1875.7828,0.008459
1876.7146,0.007957
1877.6464,0.007952
1878.5783,0.007689
1879.5101,0.007779
1880.4419,0.009291
1881.3738,0.009368
1882.3056,0.009219
1883.2374,0.009353
1884.1693,0.008974
1885.1011,0.009221
1886.0329,0.009193
1886.9648,0.008857
1887.8966,0.008683
1888.8284,0.008478
1889.7603,0.008030
1890.6921,0.007817
1891.6240,0.008259
1892.5558,0.008640
1893.4876,0.008933
1894.4195,0.008763
1895.3513,0.008291
1896.2831,0.007519
1897.2150,0.006841
1898.1468,0.007948
1899.0786,0.008318
1900.0105,0.007438
1900.9423,0.008461
1901.8741,0.009718
1902.8060,0.009603
1903.7378,0.009325
1904.6696,0.008444
1905.6015,0.007840
1906.5333,0.009038
1907.4651,0.010076
1908.3970,0.009457
1909.3288,0.008185
1910.2606,0.007372
1911.1925,0.007335
1912.1243,0.008020
1913.0561,0.008457
1913.9880,0.007899
1914.9198,0.007081
1915.8516,0.008513
1916.7835,0.010889
1917.7153,0.011395
1918.6472,0.011044
1919.5790,0.011372
1920.5108,0.009957
1921.4427,0.007223
1922.3745,0.007821
1923.3063,0.009585
1924.2382,0.008971
1925.1700,0.006956
1926.1018,0.007227
1927.0337,0.008002
1927.9655,0.007829
1928.8973,0.008483
1929.8292,0.009037
1930.7610,0.009174
1931.6928,0.009502
1932.6247,0.009286
1933.5565,0.009183
1934.4883,0.008774
1935.4202,0.008027
1936.3520,0.006486
1937.2838,0.005309
1938.2157,0.006441
1939.1475,0.006403
1940.0793,0.005591
1941.0112,0.005929
1941.9430,0.005905
1942.8748,0.005056
1943.8067,0.005653
1944.7385,0.006827
1945.6704,0.006497
1946.6022,0.006399
1947.5340,0.005481
1948.4659,0.005002
1949.3977,0.006375
1950.3295,0.005784
1951.2614,0.005420
1952.1932,0.004740
1953.1250,0.002713
1954.0569,0.004824
1954.9887,0.009019
1955.9205,0.009812
1956.8524,0.006940
1957.7842,0.003985
1958.7160,0.003793
1959.6479,0.003744
1960.5797,0.004707
1961.5115,0.006025
1962.4434,0.005377
1963.3752,0.004425
1964.3070,0.005001
1965.2389,0.005445
1966.1707,0.005551
1967.1025,0.005250
1968.0344,0.002604
1968.9662,0.001397
1969.8980,0.002660
1970.8299,0.003316
1971.7617,0.004347
1972.6936,0.005599
1973.6254,0.004224
1974.5572,0.002574
1975.4891,0.000662
1976.4209,-0.000163
1977.3527,0.002538
1978.2846,0.002984
1979.2164,0.000999
1980.1482,0.003389
1981.0801,0.005449
1982.0119,0.003790
1982.9437,0.001592
1983.8756,0.001565
1984.8074,0.004566
1985.7392,0.006353
1986.6711,0.008144
1987.6029,0.006739
1988.5347,0.005444
1989.4666,0.006453
1990.3984,0.004786
1991.3302,0.004986
1992.2621,0.007504
1993.1939,0.009079
1994.1257,0.007295
1995.0576,0.004835
1995.9894,0.006235
1996.9212,0.008144
1997.8531,0.007777
1998.7849,0.007304
1999.7167,0.007222
2000.6486,0.007867
2001.5804,0.008114
2002.5123,0.005361
2003.4441,0.004589
2004.3759,0.005565
2005.3078,0.006203
2006.2396,0.006166
2007.1714,0.006450
2008.1033,0.006002
2009.0351,0.004778
2009.9669,0.005968
2010.8988,0.007589
2011.8306,0.005582
2012.7624,0.005822
2013.6943,0.007515
2014.6261,0.006347
2015.5579,0.004819
2016.4898,0.004037
2017.4216,0.004532
2018.3534,0.004879
2019.2853,0.003472
2020.2171,0.003344
2021.1489,0.006439
2022.0808,0.007380
2023.0126,0.007433
2023.9444,0.007073
2024.8763,0.005491
2025.8081,0.004706
2026.7399,0.004879
2027.6718,0.007523
2028.6036,0.009606
2029.5355,0.006688
2030.4673,0.003102
2031.3991,0.004214
2032.3310,0.007097
2033.2628,0.007119
2034.1946,0.003850
2035.1265,-0.000202
2036.0583,0.000203
2036.9901,0.004923
2037.9220,0.004673
2038.8538,0.004025
2039.7856,0.006556
2040.7175,0.008149
2041.6493,0.007350
2042.5811,0.008598
2043.5130,0.008443
2044.4448,0.007980
2045.3766,0.008114
2046.3085,0.007622
2047.2403,0.007951
2048.1721,0.010071
2049.1040,0.008392
2050.0358,0.007262
2050.9676,0.010476
2051.8995,0.011379
2052.8313,0.008493
2053.7631,0.007010
2054.6950,0.008900
2055.6268,0.012117
2056.5587,0.012846
2057.4905,0.010455
2058.4223,0.010577
2059.3542,0.010752
2060.2860,0.008865
2061.2178,0.008845
2062.1497,0.011392
2063.0815,0.012094
2064.0133,0.011091
2064.9452,0.010197
2065.8770,0.010606
2066.8088,0.011307
2067.7407,0.010407
2068.6725,0.011431
2069.6043,0.012267
2070.5362,0.011778
2071.4680,0.012930
2072.3998,0.013659
2073.3317,0.013221
2074.2635,0.012712
2075.1953,0.012563
2076.1272,0.011596
2077.0590,0.013263
2077.9908,0.014374
2078.9227,0.013813
2079.8545,0.013715
2080.7863,0.013756
2081.7182,0.012822
2082.6500,0.012032
2083.5819,0.011097
2084.5137,0.011928
2085.4455,0.012596
2086.3774,0.012589
2087.3092,0.011916
2088.2410,0.012604
2089.1729,0.012547
2090.1047,0.012128
2091.0365,0.012583
2091.9684,0.011836
2092.9002,0.012786
2093.8320,0.013791
2094.7639,0.013065
2095.6957,0.013305
2096.6275,0.013171
2097.5594,0.012806
2098.4912,0.012153
2099.4230,0.012979
2100.3549,0.015264
2101.2867,0.014115
2102.2185,0.011854
2103.1504,0.011178
2104.0822,0.012011
2105.0140,0.013616
2105.9459,0.014857
2106.8777,0.013936
2107.8095,0.013090
2108.7414,0.014319
2109.6732,0.014400
2110.6051,0.012361
2111.5369,0.010855
2112.4687,0.010700
2113.4006,0.011094
2114.3324,0.011901
2115.2642,0.012818
2116.1961,0.013020
2117.1279,0.012678
2118.0597,0.013134
2118.9916,0.014078
2119.9234,0.014268
2120.8552,0.013218
2121.7871,0.012846
2122.7189,0.013494
2123.6507,0.013606
2124.5826,0.012999
2125.5144,0.012951
2126.4462,0.013425
2127.3781,0.014338
2128.3099,0.013486
2129.2417,0.011953
2130.1736,0.013298
2131.1054,0.013198
2132.0372,0.012262
2132.9691,0.012278
2133.9009,0.012811
2134.8327,0.013712
2135.7646,0.014753
2136.6964,0.014883
2137.6282,0.013257
2138.5601,0.011609
2139.4919,0.008729
2140.4238,0.010116
2141.3556,0.011291
2142.2874,0.008303
2143.2193,0.007061
2144.1511,0.007757
2145.0829,0.007620
2146.0148,0.007546
2146.9466,0.008465
2147.8784,0.008351
2148.8103,0.009352
2149.7421,0.012424
2150.6739,0.010183
2151.6058,0.008503
2152.5376,0.009129
2153.4694,0.007187
2154.4013,0.006695
2155.3331,0.006919
2156.2649,0.004283
2157.1968,0.003941
2158.1286,0.006821
2159.0604,0.007281
2159.9923,0.007122
2160.9241,0.006790
2161.8559,0.005026
2162.7878,0.003764
2163.7196,0.005389
2164.6514,0.008137
2165.5833,0.007155
2166.5151,0.005719
2167.4470,0.004537
2168.3788,0.005706
2169.3106,0.009335
2170.2425,0.010320
2171.1743,0.008125
2172.1061,0.003205
2173.0380,0.003505
2173.9698,0.006784
2174.9016,0.006009
2175.8335,0.005295
2176.7653,0.006629
2177.6971,0.005148
2178.6290,0.001294
2179.5608,0.003946
2180.4926,0.009265
2181.4245,0.008500
2182.3563,0.006034
2183.2881,0.008205
2184.2200,0.010908
2185.1518,0.010011
2186.0836,0.007709
2187.0155,0.005395
2187.9473,0.005891
2188.8791,0.006952
2189.8110,0.007575
2190.7428,0.008368
2191.6746,0.008351
2192.6065,0.007569
2193.5383,0.005616
2194.4702,0.005003
2195.4020,0.007928
2196.3338,0.007253
2197.2657,0.006646
2198.1975,0.006263
2199.1293,0.006627
2200.0612,0.009329
2200.9930,0.010075
2201.9248,0.008257
2202.8567,0.008493
2203.7885,0.009528
2204.7203,0.010052
2205.6522,0.010524
2206.5840,0.008928
2207.5158,0.007841
2208.4477,0.008809
2209.3795,0.008365
2210.3113,0.007722
2211.2432,0.007553
2212.1750,0.009158
2213.1068,0.010836
2214.0387,0.010429
2214.9705,0.009831
2215.9023,0.009673
2216.8342,0.009862
2217.7660,0.008957
2218.6978,0.008282
2219.6297,0.009211
2220.5615,0.009288
2221.4934,0.009468
2222.4252,0.010441
2223.3570,0.007493
2224.2889,0.004809
2225.2207,0.006756
2226.1525,0.008042
2227.0844,0.008556
2228.0162,0.008714
2228.9480,0.009544
2229.8799,0.009805
2230.8117,0.010483
2231.7435,0.011572
2232.6754,0.009722
2233.6072,0.008926
2234.5390,0.010715
2235.4709,0.009682
2236.4027,0.008196
2237.3345,0.009609
2238.2664,0.009488
2239.1982,0.008736
2240.1300,0.008746
2241.0619,0.009572
2241.9937,0.009647
2242.9255,0.009322
2243.8574,0.009179
2244.7892,0.009218
2245.7210,0.008002
2246.6529,0.008372
2247.5847,0.009105
2248.5166,0.009759
2249.4484,0.009233
2250.3802,0.008232
2251.3121,0.007781
2252.2439,0.008009
2253.1757,0.008057
2254.1076,0.008187
2255.0394,0.008164
2255.9712,0.007994
2256.9031,0.009118
2257.8349,0.011198
2258.7667,0.011579
2259.6986,0.009933
2260.6304,0.010034
2261.5622,0.010166
2262.4941,0.009252
2263.4259,0.009602
2264.3577,0.010115
2265.2896,0.009725
2266.2214,0.009104
2267.1532,0.009062
2268.0851,0.008688
2269.0169,0.008487
2269.9487,0.008379
2270.8806,0.009843
2271.8124,0.010431
2272.7442,0.008928
2273.6761,0.007899
2274.6079,0.007930
2275.5397,0.008101
2276.4716,0.008395
2277.4034,0.008992
2278.3353,0.009859
2279.2671,0.010137
2280.1989,0.009260
2281.1308,0.008785
2282.0626,0.009008
2282.9944,0.009810
2283.9263,0.009373
2284.8581,0.008512
2285.7899,0.009221
2286.7218,0.009900
2287.6536,0.009257
2288.5854,0.008142
2289.5173,0.008275
2290.4491,0.008434
2291.3809,0.008007
2292.3128,0.008323
2293.2446,0.009038
2294.1764,0.009253
2295.1083,0.008506
2296.0401,0.007731
2296.9719,0.008583
2297.9038,0.009001
2298.8356,0.009450
2299.7674,0.009629
2300.6993,0.009366
2301.6311,0.009821
2302.5629,0.009712
2303.4948,0.009381
2304.4266,0.009420
2305.3585,0.009418
2306.2903,0.008559
2307.2221,0.008557
2308.1540,0.008961
2309.0858,0.008622
2310.0176,0.008115
2310.9495,0.007994
2311.8813,0.008461
2312.8131,0.008830
2313.7450,0.008875
2314.6768,0.009551
2315.6086,0.010230
2316.5405,0.009621
2317.4723,0.009091
2318.4041,0.009330
2319.3360,0.009472
2320.2678,0.008817
2321.1996,0.008094
2322.1315,0.008238
2323.0633,0.009145
2323.9951,0.009377
2324.9270,0.009814
2325.8588,0.009087
2326.7906,0.008207
2327.7225,0.007862
2328.6543,0.007685
2329.5861,0.008358
2330.5180,0.008195
2331.4498,0.007756
2332.3817,0.008349
2333.3135,0.009220
2334.2453,0.009029
2335.1772,0.008392
2336.1090,0.007610
2337.0408,0.007747
2337.9727,0.008031
2338.9045,0.007558
2339.8363,0.007590
2340.7682,0.007944
2341.7000,0.008420
2342.6318,0.008520
2343.5637,0.008475
2344.4955,0.008280
2345.4273,0.008347
2346.3592,0.008226
2347.2910,0.007749
2348.2228,0.008306
2349.1547,0.008634
2350.0865,0.008632
2351.0183,0.008315
2351.9502,0.007455
2352.8820,0.007265
2353.8138,0.007074
2354.7457,0.007256
2355.6775,0.008100
2356.6093,0.008412
2357.5412,0.007317
2358.4730,0.007538
2359.4049,0.008599
2360.3367,0.008479
2361.2685,0.006824
2362.2004,0.006123
2363.1322,0.005998
2364.0640,0.005671
2364.9959,0.006006
2365.9277,0.005997
2366.8595,0.006321
2367.7914,0.006750
2368.7232,0.006768
2369.6550,0.006509
2370.5869,0.007679
2371.5187,0.007904
2372.4505,0.007433
2373.3824,0.007418
2374.3142,0.007759
2375.2460,0.008126
2376.1779,0.007983
2377.1097,0.007304
2378.0415,0.006815
2378.9734,0.006469
2379.9052,0.006452
2380.8370,0.006592
2381.7689,0.006863
2382.7007,0.007090
2383.6325,0.006667
2384.5644,0.006633
2385.4962,0.006688
2386.4281,0.007151
2387.3599,0.007309
2388.2917,0.006848
2389.2236,0.006342
2390.1554,0.006331
2391.0872,0.006523
2392.0191,0.006541
2392.9509,0.006552
2393.8827,0.006723
2394.8146,0.006667
2395.7464,0.006744
2396.6782,0.006855
2397.6101,0.006917
2398.5419,0.006954
2399.4737,0.007104
2400.4056,0.007313
2401.3374,0.007448
2402.2692,0.007064
2403.2011,0.006861
2404.1329,0.006537
2405.0647,0.006031
2405.9966,0.006628
2406.9284,0.006719
2407.8602,0.006222
2408.7921,0.006782
2409.7239,0.007326
2410.6557,0.006732
2411.5876,0.005509
2412.5194,0.005363
2413.4512,0.005711
2414.3831,0.005493
2415.3149,0.005934
2416.2468,0.006308
2417.1786,0.005634
2418.1104,0.005271
2419.0423,0.005456
2419.9741,0.005738
2420.9059,0.005724
2421.8378,0.005288
2422.7696,0.005023
2423.7014,0.004873
2424.6333,0.005889
2425.5651,0.005865
2426.4969,0.005509
2427.4288,0.005666
2428.3606,0.005878
2429.2924,0.006562
2430.2243,0.006325
2431.1561,0.006056
2432.0879,0.005774
2433.0198,0.005295
2433.9516,0.005165
2434.8834,0.005634
2435.8153,0.006012
2436.7471,0.005735
2437.6789,0.006078
2438.6108,0.006220
2439.5426,0.006116
2440.4744,0.006111
2441.4063,0.006506
2442.3381,0.005758
2443.2700,0.005007
2444.2018,0.004731
2445.1336,0.004590
2446.0655,0.004802
2446.9973,0.005631
2447.9291,0.006010
2448.8610,0.005713
2449.7928,0.005354
2450.7246,0.005447
2451.6565,0.006254
2452.5883,0.006156
2453.5201,0.004704
2454.4520,0.004391
2455.3838,0.005340
2456.3156,0.005602
2457.2475,0.005191
2458.1793,0.005456
2459.1111,0.005652
2460.0430,0.004894
2460.9748,0.004462
2461.9066,0.004895
2462.8385,0.005397
2463.7703,0.004706
2464.7021,0.004858
2465.6340,0.005433
2466.5658,0.004514
2467.4976,0.004344
2468.4295,0.004662
2469.3613,0.004710
2470.2932,0.005373
2471.2250,0.005790
2472.1568,0.005565
2473.0887,0.006024
2474.0205,0.005152
2474.9523,0.003747
2475.8842,0.004655
2476.8160,0.005659
2477.7478,0.006081
2478.6797,0.006178
2479.6115,0.005351
2480.5433,0.004694
2481.4752,0.004249
2482.4070,0.004317
2483.3388,0.005591
2484.2707,0.005879
2485.2025,0.005081
2486.1343,0.004841
2487.0662,0.005361
2487.9980,0.006043
2488.9298,0.005221
2489.8617,0.004405
2490.7935,0.004995
2491.7253,0.005858
2492.6572,0.006217
2493.5890,0.005674
2494.5208,0.005059
2495.4527,0.004777
2496.3845,0.004773
2497.3164,0.004869
2498.2482,0.004995
2499.1800,0.005222
2500.1119,0.005703
2501.0437,0.005597
2501.9755,0.006448
2502.9074,0.007064
2503.8392,0.005631
2504.7710,0.004713
2505.7029,0.004611
2506.6347,0.004566
2507.5665,0.005272
2508.4984,0.006118
2509.4302,0.005825
2510.3620,0.004969
2511.2939,0.004593
2512.2257,0.004764
2513.1575,0.005120
2514.0894,0.004969
2515.0212,0.004165
2515.9530,0.004399
2516.8849,0.005250
2517.8167,0.005192
2518.7485,0.005622
2519.6804,0.006338
2520.6122,0.005409
2521.5440,0.003894
2522.4759,0.003826
2523.4077,0.004777
2524.3396,0.005364
2525.2714,0.005320
2526.2032,0.005586
2527.1351,0.006231
2528.0669,0.007028
2528.9987,0.006698
2529.9306,0.005300
2530.8624,0.005274
2531.7942,0.005389
2532.7261,0.004855
2533.6579,0.004837
2534.5897,0.004902
2535.5216,0.004588
2536.4534,0.004617
2537.3852,0.005199
2538.3171,0.005528
2539.2489,0.004859
2540.1807,0.004015
2541.1126,0.004385
2542.0444,0.004706
2542.9762,0.004480
2543.9081,0.004556
2544.8399,0.004496
2545.7717,0.004708
2546.7036,0.005063
2547.6354,0.004670
2548.5672,0.004819
2549.4991,0.005813
2550.4309,0.005657
2551.3627,0.004626
2552.2946,0.004151
2553.2264,0.004360
2554.1583,0.004247
2555.0901,0.004636
2556.0219,0.004429
2556.9538,0.003770
2557.8856,0.004721
2558.8174,0.005364
2559.7493,0.005090
2560.6811,0.005204
2561.6129,0.004611
2562.5448,0.003915
2563.4766,0.003780
2564.4084,0.004723
2565.3403,0.005034
2566.2721,0.004614
2567.2039,0.004486
2568.1358,0.004587
2569.0676,0.004899
2569.9994,0.005336
2570.9313,0.005694
2571.8631,0.005504
2572.7949,0.005042
2573.7268,0.005092
2574.6586,0.004590
2575.5904,0.004394
2576.5223,0.005178
2577.4541,0.005182
2578.3859,0.004701
2579.3178,0.004011
2580.2496,0.004115
2581.1815,0.005018
2582.1133,0.005142
2583.0451,0.005014
2583.9770,0.004711
2584.9088,0.004713
2585.8406,0.005390
2586.7725,0.005565
2587.7043,0.005393
2588.6361,0.004817
2589.5680,0.004344
2590.4998,0.004383
2591.4316,0.004317
2592.3635,0.004253
2593.2953,0.004606
2594.2271,0.005123
2595.1590,0.005148
2596.0908,0.005184
2597.0226,0.005093
2597.9545,0.004663
2598.8863,0.004609
2599.8181,0.004596
2600.7500,0.004408
2601.6818,0.004785
2602.6136,0.004764
2603.5455,0.004421
2604.4773,0.004242
2605.4091,0.004868
2606.3410,0.005907
2607.2728,0.006144
2608.2047,0.005391
2609.1365,0.004767
2610.0683,0.005055
2611.0002,0.005144
2611.9320,0.004978
2612.8638,0.005163
2613.7957,0.004987
2614.7275,0.004412
2615.6593,0.004784
2616.5912,0.005164
2617.5230,0.005022
2618.4548,0.005196
2619.3867,0.005130
2620.3185,0.004419
2621.2503,0.004686
2622.1822,0.005518
2623.1140,0.005708
2624.0458,0.005846
2624.9777,0.005803
2625.9095,0.005137
2626.8413,0.004977
2627.7732,0.004845
2628.7050,0.004697
2629.6368,0.005192
2630.5687,0.005654
2631.5005,0.005337
2632.4323,0.005017
2633.3642,0.005169
2634.2960,0.005454
2635.2279,0.005596
2636.1597,0.005644
2637.0915,0.005829
2638.0234,0.005803
2638.9552,0.005761
2639.8870,0.006278
2640.8189,0.006906
2641.7507,0.006651
2642.6825,0.005925
2643.6144,0.005630
2644.5462,0.006106
2645.4780,0.006443
2646.4099,0.006211
2647.3417,0.006202
2648.2735,0.006405
2649.2054,0.006665
2650.1372,0.006534
2651.0690,0.006414
2652.0009,0.006455
2652.9327,0.006222
2653.8645,0.006028
2654.7964,0.006297
2655.7282,0.006583
2656.6600,0.006543
2657.5919,0.006979
2658.5237,0.007260
2659.4555,0.007057
2660.3874,0.006634
2661.3192,0.006357
2662.2511,0.006525
2663.1829,0.006857
2664.1147,0.007044
2665.0466,0.007358
2665.9784,0.007225
2666.9102,0.006595
2667.8421,0.006353
2668.7739,0.006487
2669.7057,0.006852
2670.6376,0.006930
2671.5694,0.007011
2672.5012,0.007557
2673.4331,0.007510
2674.3649,0.007228
2675.2967,0.007367
2676.2286,0.007297
2677.1604,0.006836
2678.0922,0.006896
2679.0241,0.007446
2679.9559,0.007823
2680.8877,0.008205
2681.8196,0.008202
2682.7514,0.007695
2683.6832,0.007567
2684.6151,0.007701
2685.5469,0.007596
2686.4787,0.007611
2687.4106,0.008057
2688.3424,0.008351
2689.2742,0.008201
2690.2061,0.008290
2691.1379,0.008478
2692.0698,0.008488
2693.0016,0.008575
2693.9334,0.008642
2694.8653,0.008151
2695.7971,0.007889
2696.7289,0.008310
2697.6608,0.008367
2698.5926,0.008013
2699.5244,0.008155
2700.4563,0.008551
2701.3881,0.008755
2702.3199,0.008641
2703.2518,0.008639
2704.1836,0.008906
2705.1154,0.009040
2706.0473,0.009416
2706.9791,0.009560
2707.9109,0.009435
2708.8428,0.009561
2709.7746,0.009678
2710.7064,0.009553
2711.6383,0.009297
2712.5701,0.009227
2713.5019,0.009039
2714.4338,0.009032
2715.3656,0.009270
2716.2974,0.009193
2717.2293,0.008863
2718.1611,0.009033
2719.0930,0.009812
2720.0248,0.010213
2720.9566,0.010215
2721.8885,0.010114
2722.8203,0.009783
2723.7521,0.009963
2724.6840,0.010657
2725.6158,0.010695
2726.5476,0.010105
2727.4795,0.010090
2728.4113,0.010459
2729.3431,0.010524
2730.2750,0.010534
2731.2068,0.010864
2732.1386,0.010951
2733.0705,0.010867
2734.0023,0.010895
2734.9341,0.010887
2735.8660,0.010562
2736.7978,0.010382
2737.7296,0.010897
2738.6615,0.011412
2739.5933,0.011353
2740.5251,0.010927
2741.4570,0.010801
2742.3888,0.010932
2743.3206,0.011005
2744.2525,0.011251
2745.1843,0.011403
2746.1162,0.011498
2747.0480,0.011346
2747.9798,0.011298
2748.9117,0.011372
2749.8435,0.011118
2750.7753,0.011497
2751.7072,0.011895
2752.6390,0.011691
2753.5708,0.012002
2754.5027,0.012250
2755.4345,0.012061
2756.3663,0.012014
2757.2982,0.012123
2758.2300,0.012165
2759.1618,0.012169
2760.0937,0.012165
2761.0255,0.012315
2761.9573,0.012377
2762.8892,0.012012
2763.8210,0.011820
2764.7528,0.012016
2765.6847,0.012184
2766.6165,0.012240
2767.5483,0.012367
2768.4802,0.012694
2769.4120,0.012562
2770.3438,0.012350
2771.2757,0.012418
2772.2075,0.012538
2773.1394,0.012652
2774.0712,0.012738
2775.0030,0.012789
2775.9349,0.012808
2776.8667,0.013078
2777.7985,0.013208
2778.7304,0.013120
2779.6622,0.013154
2780.5940,0.012998
2781.5259,0.012984
2782.4577,0.013165
2783.3895,0.013257
2784.3214,0.013507
2785.2532,0.013607
2786.1850,0.013631
2787.1169,0.013563
2788.0487,0.013631
2788.9805,0.013783
2789.9124,0.013748
2790.8442,0.013935
2791.7760,0.014589
2792.7079,0.015254
2793.6397,0.015420
2794.5715,0.015522
2795.5034,0.015398
2796.4352,0.015307
2797.3670,0.015558
2798.2989,0.015565
2799.2307,0.015274
2800.1626,0.015268
2801.0944,0.015876
2802.0262,0.016373
2802.9581,0.016253
2803.8899,0.016125
2804.8217,0.016561
2805.7536,0.016810
2806.6854,0.016539
2807.6172,0.016663
2808.5491,0.017543
2809.4809,0.017985
2810.4127,0.017864
2811.3446,0.017692
2812.2764,0.017544
2813.2082,0.018212
2814.1401,0.018411
2815.0719,0.017718
2816.0037,0.018028
2816.9356,0.018639
2817.8674,0.018988
2818.7992,0.019295
2819.7311,0.019154
2820.6629,0.019143
2821.5947,0.019290
2822.5266,0.019686
2823.4584,0.020137
2824.3902,0.020225
2825.3221,0.020313
2826.2539,0.020682
2827.1857,0.020891
2828.1176,0.020802
2829.0494,0.020705
2829.9813,0.020612
2830.9131,0.020711
2831.8449,0.021078
2832.7768,0.021122
2833.7086,0.020926
2834.6404,0.021624
2835.5723,0.022276
2836.5041,0.022178
2837.4359,0.022404
2838.3678,0.023034
2839.2996,0.023533
2840.2314,0.023644
2841.1633,0.023360
2842.0951,0.023391
2843.0269,0.023696
2843.9588,0.023788
2844.8906,0.024080
2845.8224,0.024692
2846.7543,0.024881
2847.6861,0.024455
2848.6179,0.024352
2849.5498,0.024556
2850.4816,0.024750
2851.4134,0.025079
2852.3453,0.025537
2853.2771,0.025376
2854.2089,0.025301
2855.1408,0.026260
2856.0726,0.026593
2857.0045,0.026386
2857.9363,0.026569
2858.8681,0.026603
2859.8000,0.026864
2860.7318,0.028004
2861.6636,0.028994
2862.5955,0.029425
2863.5273,0.030078
2864.4591,0.030442
2865.3910,0.030445
2866.3228,0.031306
2867.2546,0.031940
2868.1865,0.031542
2869.1183,0.031736
2870.0501,0.032477
2870.9820,0.033256
2871.9138,0.034180
2872.8456,0.035334
2873.7775,0.036005
2874.7093,0.036163
2875.6411,0.036220
2876.5730,0.036344
2877.5048,0.037280
2878.4366,0.038342
2879.3685,0.038835
2880.3003,0.039066
2881.2321,0.039505
2882.1640,0.040089
2883.0958,0.040752
2884.0277,0.041208
2884.9595,0.041225
2885.8913,0.041650
2886.8232,0.042497
2887.7550,0.042821
2888.6868,0.042920
2889.6187,0.043276
2890.5505,0.043610
2891.4823,0.043700
2892.4142,0.044207
2893.3460,0.045259
2894.2778,0.046063
2895.2097,0.046519
2896.1415,0.046713
2897.0733,0.046791
2898.0052,0.046940
2898.9370,0.046899
2899.8688,0.047585
2900.8007,0.048382
2901.7325,0.048141
2902.6643,0.047572
2903.5962,0.048130
2904.5280,0.049328
2905.4598,0.049041
2906.3917,0.048515
2907.3235,0.048521
2908.2553,0.047893
2909.1872,0.047251
2910.1190,0.047070
2911.0509,0.047211
2911.9827,0.046655
2912.9145,0.045459
2913.8464,0.044789
2914.7782,0.045022
2915.7100,0.044893
2916.6419,0.044002
2917.5737,0.044339
2918.5055,0.044974
2919.4374,0.044691
2920.3692,0.044255
2921.3010,0.043913
2922.2329,0.043870
2923.1647,0.043676
2924.0965,0.043965
2925.0284,0.044646
2925.9602,0.045269
2926.8920,0.046067
2927.8239,0.046570
2928.7557,0.046584
2929.6875,0.046961
2930.6194,0.047351
2931.5512,0.047887
2932.4830,0.047856
2933.4149,0.047189
2934.3467,0.047201
2935.2785,0.047805
2936.2104,0.048307
2937.1422,0.048479
2938.0741,0.048469
2939.0059,0.048554
2939.9377,0.048607
2940.8696,0.049091
2941.8014,0.049724
2942.7332,0.049791
2943.6651,0.049901
2944.5969,0.050040
2945.5287,0.050178
2946.4606,0.050186
2947.3924,0.049863
2948.3242,0.049730
2949.2561,0.049712
2950.1879,0.049684
2951.1197,0.050313
2952.0516,0.050931
2952.9834,0.050636
2953.9152,0.050482
2954.8471,0.050432
2955.7789,0.050740
2956.7107,0.052032
2957.6426,0.053057
2958.5744,0.053315
2959.5062,0.053851
2960.4381,0.054598
2961.3699,0.054709
2962.3017,0.055160
2963.2336,0.056050
2964.1654,0.056935
2965.0972,0.059031
2966.0291,0.061312
2966.9609,0.062718
2967.8928,0.064141
2968.8246,0.066367
2969.7564,0.068792
2970.6883,0.071167
2971.6201,0.074349
2972.5519,0.077321
2973.4838,0.078970
2974.4156,0.080573
2975.3474,0.083558
2976.2793,0.086875
2977.2111,0.088740
2978.1429,0.090161
2979.0748,0.091755
2980.0066,0.092648
2980.9384,0.092653
2981.8703,0.091856
2982.8021,0.090594
2983.7339,0.089259
2984.6658,0.088092
2985.5976,0.086860
2986.5294,0.084825
2987.4613,0.081809
2988.3931,0.078601
2989.3249,0.076311
2990.2568,0.075173
2991.1886,0.073746
2992.1204,0.071462
2993.0523,0.069284
2993.9841,0.067443
2994.9160,0.065192
2995.8478,0.063214
2996.7796,0.061981
2997.7115,0.061803
2998.6433,0.061591
2999.5751,0.061265
3000.5070,0.060952
3001.4388,0.059352
3002.3706,0.058159
3003.3025,0.057549
3004.2343,0.056806
3005.1661,0.056726
3006.0980,0.057299
3007.0298,0.057339
3007.9616,0.056724
3008.8935,0.056937
3009.8253,0.057641
3010.7571,0.058208
3011.6890,0.058831
3012.6208,0.058864
3013.5526,0.058737
3014.4845,0.059102
3015.4163,0.059586
3016.3481,0.059619
3017.2800,0.060278
3018.2118,0.061365
3019.1436,0.060793
3020.0755,0.060350
3021.0073,0.061826
3021.9392,0.062168
3022.8710,0.062120
3023.8028,0.063174
3024.7347,0.063769
3025.6665,0.063653
3026.5983,0.064324
3027.5302,0.064603
3028.4620,0.064306
3029.3938,0.064328
3030.3257,0.065145
3031.2575,0.066226
3032.1893,0.067406
3033.1212,0.068434
3034.0530,0.068658
3034.9848,0.068768
3035.9167,0.069430
3036.8485,0.070241
3037.7803,0.071101
3038.7122,0.070743
3039.6440,0.070251
3040.5758,0.071905
3041.5077,0.073551
3042.4395,0.074207
3043.3713,0.074631
3044.3032,0.074278
3045.2350,0.074562
3046.1668,0.075738
3047.0987,0.076594
3048.0305,0.077376
3048.9624,0.078353
3049.8942,0.079213
3050.8260,0.079505
3051.7579,0.079399
3052.6897,0.079065
3053.6215,0.079910
3054.5534,0.081573
3055.4852,0.081937
3056.4170,0.082388
3057.3489,0.083394
3058.2807,0.084711
3059.2125,0.085796
3060.1444,0.086594
3061.0762,0.086994
3062.0080,0.087225
3062.9399,0.087949
3063.8717,0.088393
3064.8035,0.088544
3065.7354,0.089543
3066.6672,0.091152
3067.5990,0.092079
3068.5309,0.092130
3069.4627,0.092563
3070.3945,0.093953
3071.3264,0.095532
3072.2582,0.096461
3073.1900,0.097032
3074.1219,0.098034
3075.0537,0.099570
3075.9856,0.100219
3076.9174,0.100453
3077.8492,0.100832
3078.7811,0.102327
3079.7129,0.103586
3080.6447,0.104391
3081.5766,0.105181
3082.5084,0.105989
3083.4402,0.106625
3084.3721,0.106583
3085.3039,0.107169
3086.2357,0.109398
3087.1676,0.110887
3088.0994,0.111111
3089.0312,0.111146
3089.9631,0.112192
3090.8949,0.113507
3091.8267,0.115424
3092.7586,0.116705
3093.6904,0.117141
3094.6222,0.117922
3095.5541,0.117905
3096.4859,0.117812
3097.4177,0.119275
3098.3496,0.121229
3099.2814,0.123123
3100.2132,0.123789
3101.1451,0.124000
3102.0769,0.124954
3103.0087,0.126189
3103.9406,0.127954
3104.8724,0.129050
3105.8043,0.129354
3106.7361,0.130693
3107.6679,0.132677
3108.5998,0.133396
3109.5316,0.133411
3110.4634,0.134797
3111.3953,0.136869
3112.3271,0.138171
3113.2589,0.139204
3114.1908,0.140893
3115.1226,0.141688
3116.0544,0.142276
3116.9863,0.142724
3117.9181,0.143819
3118.8499,0.145640
3119.7818,0.147189
3120.7136,0.147208
3121.6454,0.147790
3122.5773,0.149350
3123.5091,0.150725
3124.4409,0.151181
3125.3728,0.151580
3126.3046,0.153360
3127.2364,0.156349
3128.1683,0.158118
3129.1001,0.158431
3130.0319,0.159190
3130.9638,0.160692
3131.8956,0.161849
3132.8275,0.164072
3133.7593,0.165800
3134.6911,0.166071
3135.6230,0.165625
3136.5548,0.166482
3137.4866,0.169479
3138.4185,0.171858
3139.3503,0.172718
3140.2821,0.174112
3141.2140,0.174981
3142.1458,0.175415
3143.0776,0.176098
3144.0095,0.176931
3144.9413,0.178125
3145.8731,0.179515
3146.8050,0.180384
3147.7368,0.181066
3148.6686,0.182604
3149.6005,0.186110
3150.5323,0.187415
3151.4641,0.187758
3152.3960,0.189564
3153.3278,0.191442
3154.2596,0.191439
3155.1915,0.191865
3156.1233,0.193451
3157.0551,0.194642
3157.9870,0.195818
3158.9188,0.197345
3159.8507,0.198396
3160.7825,0.200618
3161.7143,0.202057
3162.6462,0.203259
3163.5780,0.204271
3164.5098,0.205632
3165.4417,0.206499
3166.3735,0.208368
3167.3053,0.210335
3168.2372,0.211355
3169.1690,0.212797
3170.1008,0.214579
3171.0327,0.215332
3171.9645,0.215730
3172.8963,0.216111
3173.8282,0.218677
3174.7600,0.220567
3175.6918,0.220771
3176.6237,0.221069
3177.5555,0.222671
3178.4873,0.224605
3179.4192,0.226568
3180.3510,0.227212
3181.2828,0.228551
3182.2147,0.229690
3183.1465,0.230329
3184.0783,0.231631
3185.0102,0.233955
3185.9420,0.235097
3186.8739,0.235995
3187.8057,0.237173
3188.7375,0.240367
3189.6694,0.240663
3190.6012,0.239238
3191.5330,0.239709
3192.4649,0.242224
3193.3967,0.243543
3194.3285,0.245822
3195.2604,0.246935
3196.1922,0.247577
3197.1240,0.248636
3198.0559,0.249643
3198.9877,0.248146
3199.9195,0.248978
3200.8514,0.252976
3201.7832,0.255077
3202.7150,0.255954
3203.6469,0.257397
3204.5787,0.256103
3205.5105,0.256463
3206.4424,0.258257
3207.3742,0.260536
3208.3060,0.261485
3209.2379,0.261591
3210.1697,0.261904
3211.1015,0.262602
3212.0334,0.263335
3212.9652,0.264949
3213.8971,0.265810
3214.8289,0.267105
3215.7607,0.268491
3216.6926,0.269538
3217.6244,0.270058
3218.5562,0.272010
3219.4881,0.272061
3220.4199,0.272309
3221.3517,0.273831
3222.2836,0.274969
3223.2154,0.274987
3224.1472,0.274697
3225.0791,0.275228
3226.0109,0.277726
3226.9427,0.276526
3227.8746,0.276276
3228.8064,0.278338
3229.7382,0.279244
3230.6701,0.279649
3231.6019,0.281271
3232.5337,0.281412
3233.4656,0.283043
3234.3974,0.282371
3235.3292,0.282026
3236.2611,0.282289
3237.1929,0.281523
3238.1247,0.281403
3239.0566,0.282091
3239.9884,0.282796
3240.9202,0.285607
3241.8521,0.285999
3242.7839,0.285971
3243.7158,0.287026
3244.6476,0.287240
3245.5794,0.286717
3246.5113,0.287205
3247.4431,0.287380
3248.3749,0.288359
3249.3068,0.289127
3250.2386,0.288946
3251.1704,0.288539
3252.1023,0.290412
3253.0341,0.290425
3253.9659,0.290293
3254.8978,0.289834
3255.8296,0.289297
3256.7614,0.289167
3257.6933,0.289069
3258.6251,0.288470
3259.5569,0.289774
3260.4888,0.291060
3261.4206,0.291522
3262.3524,0.292610
3263.2843,0.294972
3264.2161,0.295157
3265.1479,0.293378
3266.0798,0.292076
3267.0116,0.293413
3267.9434,0.292445
3268.8753,0.293358
3269.8071,0.294500
3270.7390,0.293991
3271.6708,0.293156
3272.6026,0.293426
3273.5345,0.292636
3274.4663,0.292373
3275.3981,0.289465
3276.3300,0.290298
3277.2618,0.293430
3278.1936,0.294304
3279.1255,0.293308
3280.0573,0.293597
3280.9891,0.292829
3281.9210,0.294022
3282.8528,0.294080
3283.7846,0.294018
3284.7165,0.293244
3285.6483,0.294633
3286.5801,0.297004
3287.5120,0.298532
3288.4438,0.296764
3289.3756,0.295226
3290.3075,0.293511
3291.2393,0.294034
3292.1711,0.294043
3293.1030,0.295372
3294.0348,0.296491
3294.9666,0.295473
3295.8985,0.295211
3296.8303,0.297914
3297.7622,0.299251
3298.6940,0.298327
3299.6258,0.295237
3300.5577,0.294702
3301.4895,0.295263
3302.4213,0.296531
3303.3532,0.296763
3304.2850,0.297065
3305.2168,0.295786
3306.1487,0.295062
3307.0805,0.294019
3308.0123,0.293324
3308.9442,0.293590
3309.8760,0.295839
3310.8078,0.295837
3311.7397,0.294481
3312.6715,0.295249
3313.6033,0.298728
3314.5352,0.299185
3315.4670,0.298492
3316.3988,0.295915
3317.3307,0.298089
3318.2625,0.299080
3319.1943,0.297820
3320.1262,0.298094
3321.0580,0.297860
3321.9898,0.297065
3322.9217,0.296122
3323.8535,0.295920
3324.7854,0.298540
3325.7172,0.296776
3326.6490,0.295300
3327.5809,0.296292
3328.5127,0.298292
3329.4445,0.297952
3330.3764,0.295758
3331.3082,0.294082
3332.2400,0.296703
3333.1719,0.299824
3334.1037,0.300965
3335.0355,0.299988
3335.9674,0.298516
3336.8992,0.299156
3337.8310,0.299325
3338.7629,0.297373
3339.6947,0.298051
3340.6265,0.296744
3341.5584,0.294540
3342.4902,0.294722
3343.4220,0.299063
3344.3539,0.299022
3345.2857,0.299939
3346.2175,0.298731
3347.1494,0.297461
3348.0812,0.297580
3349.0130,0.299067
3349.9449,0.299173
3350.8767,0.301487
3351.8086,0.300961
3352.7404,0.298654
3353.6722,0.297244
3354.6041,0.297940
3355.5359,0.300093
3356.4677,0.299506
3357.3996,0.296392
3358.3314,0.296791
3359.2632,0.298494
3360.1951,0.300156
3361.1269,0.297867
3362.0587,0.296831
3362.9906,0.297348
3363.9224,0.296438
3364.8542,0.295274
3365.7861,0.295368
3366.7179,0.295161
3367.6497,0.296034
3368.5816,0.293455
3369.5134,0.291800
3370.4452,0.288823
3371.3771,0.290870
3372.3089,0.293919
3373.2407,0.292812
3374.1726,0.291103
3375.1044,0.291496
3376.0362,0.291527
3376.9681,0.291847
3377.8999,0.292021
3378.8317,0.291787
3379.7636,0.291824
3380.6954,0.291770
3381.6273,0.290090
3382.5591,0.289139
3383.4909,0.287787
3384.4228,0.289934
3385.3546,0.290025
3386.2864,0.290043
3387.2183,0.287652
3388.1501,0.289512
3389.0819,0.288740
3390.0138,0.286034
3390.9456,0.286047
3391.8774,0.284659
3392.8093,0.284673
3393.7411,0.284226
3394.6729,0.281648
3395.6048,0.281157
3396.5366,0.279533
3397.4684,0.280611
3398.4003,0.281019
3399.3321,0.282720
3400.2639,0.278306
3401.1958,0.275391
3402.1276,0.276250
3403.0594,0.276191
3403.9913,0.273277
3404.9231,0.272068
3405.8549,0.272629
3406.7868,0.272539
3407.7186,0.270626
3408.6505,0.268762
3409.5823,0.267974
3410.5141,0.269653
3411.4460,0.269661
3412.3778,0.267609
3413.3096,0.267227
3414.2415,0.269079
3415.1733,0.268050
3416.1051,0.264856
3417.0370,0.261875
3417.9688,0.261530
3418.9006,0.261668
3419.8325,0.260261
3420.7643,0.258996
3421.6961,0.259946
3422.6280,0.258777
3423.5598,0.259448
3424.4916,0.259234
3425.4235,0.258173
3426.3553,0.254881
3427.2871,0.253726
3428.2190,0.254966
3429.1508,0.255737
3430.0826,0.251671
3431.0145,0.250344
3431.9463,0.251060
3432.8781,0.251211
3433.8100,0.248377
3434.7418,0.247316
3435.6737,0.244998
3436.6055,0.243589
3437.5373,0.243945
3438.4692,0.243746
3439.4010,0.237498
3440.3328,0.236051
3441.2647,0.236166
3442.1965,0.237598
3443.1283,0.235665
3444.0602,0.235245
3444.9920,0.234949
3445.9238,0.233864
3446.8557,0.232927
3447.7875,0.233152
3448.7193,0.232075
3449.6512,0.233541
3450.5830,0.232071
3451.5148,0.227403
3452.4467,0.226952
3453.3785,0.229081
3454.3103,0.226127
3455.2422,0.222778
3456.1740,0.221635
3457.1058,0.220888
3458.0377,0.219652
3458.9695,0.218621
3459.9013,0.218067
3460.8332,0.220316
3461.7650,0.217503
3462.6969,0.215047
3463.6287,0.214169
3464.5605,0.214956
3465.4924,0.214443
3466.4242,0.213540
3467.3560,0.208996
3468.2879,0.207251
3469.2197,0.207081
3470.1515,0.207862
3471.0834,0.204129
3472.0152,0.200972
3472.9470,0.201852
3473.8789,0.203144
3474.8107,0.202458
3475.7425,0.201620
3476.6744,0.197245
3477.6062,0.197163
3478.5380,0.196832
3479.4699,0.194100
3480.4017,0.192932
3481.3335,0.192668
3482.2654,0.189938
3483.1972,0.190142
3484.1290,0.192808
3485.0609,0.191140
3485.9927,0.188529
3486.9245,0.187232
3487.8564,0.186495
3488.7882,0.187923
3489.7201,0.184459
3490.6519,0.182640
3491.5837,0.182405
3492.5156,0.182222
3493.4474,0.181889
3494.3792,0.181348
3495.3111,0.178308
3496.2429,0.175593
3497.1747,0.176901
3498.1066,0.178606
3499.0384,0.176206
3499.9702,0.171700
3500.9021,0.170015
3501.8339,0.170427
3502.7657,0.170749
3503.6976,0.171987
3504.6294,0.170355
3505.5612,0.169017
3506.4931,0.167657
3507.4249,0.163475
3508.3567,0.162387
3509.2886,0.163093
3510.2204,0.163782
3511.1522,0.164176
3512.0841,0.161660
3513.0159,0.160934
3513.9477,0.158518
3514.8796,0.155686
3515.8114,0.153509
3516.7432,0.150744
3517.6751,0.150518
3518.6069,0.152151
3519.5388,0.151988
3520.4706,0.151414
3521.4024,0.149027
3522.3343,0.148771
3523.2661,0.147341
3524.1979,0.146888
3525.1298,0.145754
3526.0616,0.143652
3526.9934,0.143544
3527.9253,0.146952
3528.8571,0.147897
3529.7889,0.145713
3530.7208,0.142429
3531.6526,0.140587
3532.5844,0.139796
3533.5163,0.138524
3534.4481,0.136351
3535.3799,0.135200
3536.3118,0.135410
3537.2436,0.135162
3538.1754,0.132162
3539.1073,0.129930
3540.0391,0.129328
3540.9709,0.130392
3541.9028,0.130206
3542.8346,0.130376
3543.7664,0.129529
3544.6983,0.128355
3545.6301,0.126854
3546.5620,0.124798
3547.4938,0.122289
3548.4256,0.121617
3549.3575,0.121135
3550.2893,0.120609
3551.2211,0.119442
3552.1530,0.118438
3553.0848,0.116780
3554.0166,0.118387
3554.9485,0.119107
3555.8803,0.116467
3556.8121,0.113691
3557.7440,0.113835
3558.6758,0.113470
3559.6076,0.112185
3560.5395,0.112150
3561.4713,0.111202
3562.4031,0.106189
3563.3350,0.104004
3564.2668,0.106521
3565.1986,0.107372
3566.1305,0.105464
3567.0623,0.104690
3567.9941,0.103827
3568.9260,0.102969
3569.8578,0.103167
3570.7896,0.101430
3571.7215,0.098126
3572.6533,0.097457
3573.5852,0.097223
3574.5170,0.096182
3575.4488,0.095607
3576.3807,0.097661
3577.3125,0.097148
3578.2443,0.093727
3579.1762,0.092658
3580.1080,0.093722
3581.0398,0.092823
3581.9717,0.091312
3582.9035,0.088353
3583.8353,0.087584
3584.7672,0.086413
3585.6990,0.084486
3586.6308,0.085125
3587.5627,0.085624
3588.4945,0.083906
3589.4263,0.083957
3590.3582,0.082623
3591.2900,0.080598
3592.2218,0.079041
3593.1537,0.079595
3594.0855,0.081650
3595.0173,0.079898
3595.9492,0.078179
3596.8810,0.078864
3597.8128,0.076752
3598.7447,0.075439
3599.6765,0.076586
3600.6084,0.077373
3601.5402,0.076020
3602.4720,0.073555
3603.4039,0.071873
3604.3357,0.073845
3605.2675,0.074322
3606.1994,0.071386
3607.1312,0.069460
3608.0630,0.069270
3608.9949,0.067617
3609.9267,0.065846
3610.8585,0.066225
3611.7904,0.067705
3612.7222,0.067826
3613.6540,0.065220
3614.5859,0.062952
3615.5177,0.062545
3616.4495,0.063909
3617.3814,0.064759
3618.3132,0.065000
3619.2450,0.063709
3620.1769,0.062908
3621.1087,0.063265
3622.0405,0.060346
3622.9724,0.058454
3623.9042,0.057521
3624.8360,0.056294
3625.7679,0.055584
3626.6997,0.056099
3627.6316,0.054737
3628.5634,0.054064
3629.4952,0.053482
3630.4271,0.051871
3631.3589,0.052155
3632.2907,0.052436
3633.2226,0.051218
3634.1544,0.047911
3635.0862,0.046654
3636.0181,0.047804
3636.9499,0.048658
3637.8817,0.049856
3638.8136,0.050253
3639.7454,0.048233
3640.6772,0.046098
3641.6091,0.045020
3642.5409,0.044557
3643.4727,0.044438
3644.4046,0.044434
3645.3364,0.043214
3646.2682,0.041204
3647.2001,0.041133
3648.1319,0.041216
3649.0637,0.039451
3649.9956,0.038332
3650.9274,0.038442
3651.8592,0.036037
3652.7911,0.035332
3653.7229,0.035280
3654.6547,0.033803
3655.5866,0.033376
3656.5184,0.034514
3657.4503,0.034503
3658.3821,0.033956
3659.3139,0.033350
3660.2458,0.032580
3661.1776,0.032459
3662.1094,0.031128
3663.0413,0.029685
3663.9731,0.029015
3664.9049,0.027957
3665.8368,0.027915
3666.7686,0.027728
3667.7004,0.026899
3668.6323,0.026165
3669.5641,0.024601
3670.4959,0.022938
3671.4278,0.023100
3672.3596,0.022870
3673.2914,0.020747
3674.2233,0.021024
3675.1551,0.021769
3676.0869,0.020804
3677.0188,0.017850
3677.9506,0.015434
3678.8824,0.015944
3679.8143,0.016552
3680.7461,0.015946
3681.6779,0.015531
3682.6098,0.015695
3683.5416,0.015350
3684.4735,0.014496
3685.4053,0.013671
3686.3371,0.013337
3687.2690,0.013028
3688.2008,0.012019
3689.1326,0.011375
3690.0645,0.011688
3690.9963,0.012317
3691.9281,0.012350
3692.8600,0.011558
3693.7918,0.011658
3694.7236,0.012037
3695.6555,0.011298
3696.5873,0.009837
3697.5191,0.007800
3698.4510,0.007084
3699.3828,0.008361
3700.3146,0.008222
3701.2465,0.008056
3702.1783,0.007987
3703.1101,0.007815
3704.0420,0.007632
3704.9738,0.007925
3705.9056,0.008141
3706.8375,0.006856
3707.7693,0.006187
3708.7011,0.006380
3709.6330,0.005447
3710.5648,0.004857
3711.4967,0.004570
3712.4285,0.004165
3713.3603,0.003516
3714.2922,0.003587
3715.2240,0.004988
3716.1558,0.005001
3717.0877,0.003617
3718.0195,0.004103
3718.9513,0.005218
3719.8832,0.004518
3720.8150,0.003381
3721.7468,0.003014
3722.6787,0.003258
3723.6105,0.003894
3724.5423,0.004080
3725.4742,0.003981
3726.4060,0.004270
3727.3378,0.004598
3728.2697,0.003342
3729.2015,0.001779
3730.1333,0.000948
3731.0652,0.001071
3731.9970,0.002606
3732.9288,0.002965
3733.8607,0.002117
3734.7925,0.002749
3735.7243,0.001784
3736.6562,-0.000941
3737.5880,0.000892
3738.5199,0.003619
3739.4517,0.003023
3740.3835,0.002610
3741.3154,0.002165
3742.2472,0.001295
3743.1790,0.001515
3744.1109,0.001051
3745.0427,0.000092
3745.9745,-0.000415
3746.9064,-0.002443
3747.8382,-0.002200
3748.7700,0.000629
3749.7019,0.001825
3750.6337,0.001637
3751.5655,0.001355
3752.4974,-0.000309
3753.4292,-0.001278
3754.3610,-0.000093
3755.2929,0.001205
3756.2247,0.001883
3757.1565,0.001504
3758.0884,0.001070
3759.0202,0.001530
3759.9520,0.002302
3760.8839,0.002249
3761.8157,0.001746
3762.7475,0.001831
3763.6794,0.001917
3764.6112,0.001491
3765.5431,0.001267
3766.4749,0.001441
3767.4067,0.002042
3768.3386,0.001926
3769.2704,0.002168
3770.2022,0.002271
3771.1341,0.002060
3772.0659,0.000509
3772.9977,0.000003
3773.9296,0.001183
3774.8614,0.002104
3775.7932,0.002115
3776.7251,0.001556
3777.6569,0.001583
3778.5887,0.002141
3779.5206,0.002361
3780.4524,0.002397
3781.3842,0.002853
3782.3161,0.002637
3783.2479,0.001404
3784.1797,0.000478
3785.1116,0.001428
3786.0434,0.002085
3786.9752,0.001655
3787.9071,0.002047
3788.8389,0.003144
3789.7707,0.003477
3790.7026,0.002881
3791.6344,0.002426
3792.5662,0.001907
3793.4981,0.001060
3794.4299,0.001356
3795.3618,0.002116
3796.2936,0.001954
3797.2254,0.001332
3798.1573,0.000718
3799.0891,0.000799
3800.0209,0.002098
3800.9528,0.002885
3801.8846,0.001094
3802.8164,-0.000339
3803.7483,0.000408
3804.6801,0.000683
3805.6119,-0.000345
3806.5438,0.000436
3807.4756,0.001922
3808.4074,0.001394
3809.3393,0.000182
3810.2711,0.000857
3811.2029,0.001601
3812.1348,0.001484
3813.0666,0.001260
3813.9984,0.000756
3814.9303,0.000789
3815.8621,0.000889
3816.7939,0.000341
3817.7258,-0.000094
3818.6576,-0.000127
3819.5894,0.000170
3820.5213,0.000444
3821.4531,0.000902
3822.3850,0.000475
3823.3168,-0.000356
3824.2486,-0.000122
3825.1805,0.001200
3826.1123,0.001996
3827.0441,0.001640
3827.9760,0.000692
3828.9078,0.000396
3829.8396,0.000848
3830.7715,0.001104
3831.7033,0.001700
3832.6351,0.002112
3833.5670,0.000114
3834.4988,-0.001313
3835.4306,-0.000735
3836.3625,-0.000669
3837.2943,-0.000752
3838.2261,-0.001348
3839.1580,-0.001626
3840.0898,-0.001151
3841.0216,-0.001521
3841.9535,-0.001215
3842.8853,-0.000193
3843.8171,0.000211
3844.7490,0.001111
3845.6808,0.001248
3846.6126,0.000627
3847.5445,0.001235
3848.4763,0.001306
3849.4082,0.000404
3850.3400,0.000373
3851.2718,-0.000296
3852.2037,-0.001618
3853.1355,-0.001807
3854.0673,-0.000338
3854.9992,0.000092
3855.9310,-0.000451
3856.8628,0.000010
3857.7947,-0.000453
3858.7265,0.000549
3859.6583,0.002442
3860.5902,0.001653
3861.5220,-0.000334
3862.4538,-0.000407
3863.3857,0.000203
3864.3175,0.000051
3865.2493,0.000116
3866.1812,0.000677
3867.1130,0.000929
3868.0448,0.000515
3868.9767,-0.000480
3869.9085,-0.000738
3870.8403,0.000194
3871.7722,0.001645
3872.7040,0.001687
3873.6358,0.000972
3874.5677,0.000583
3875.4995,0.000169
3876.4314,0.000844
3877.3632,0.000854
3878.2950,-0.000078
3879.2269,0.000659
3880.1587,0.001423
3881.0905,0.001485
3882.0224,0.001040
3882.9542,0.000309
3883.8860,0.000176
3884.8179,0.000544
3885.7497,-0.000081
3886.6815,-0.000931
3887.6134,-0.001017
3888.5452,-0.000140
3889.4770,0.001260
3890.4089,0.001603
3891.3407,0.000966
3892.2725,0.001238
3893.2044,0.001350
3894.1362,-0.000276
3895.0680,-0.000140
3895.9999,0.000697
3896.9317,0.000366
3897.8635,0.000504
3898.7954,0.000411
3899.7272,-0.000333
3900.6590,-0.000599
3901.5909,-0.000593
3902.5227,-0.000254
3903.4546,0.001179
3904.3864,0.001215
3905.3182,0.000943
3906.2501,0.001764
3907.1819,0.001582
3908.1137,0.000139
3909.0456,0.000605
3909.9774,0.001456
3910.9092,0.000404
3911.8411,-0.000096
3912.7729,0.000893
3913.7047,0.000772
3914.6366,0.000400
3915.5684,0.001282
3916.5002,0.001444
3917.4321,0.000942
3918.3639,0.000958
3919.2957,0.001613
3920.2276,0.002150
3921.1594,0.000971
3922.0912,-0.000392
3923.0231,0.000133
3923.9549,0.000137
3924.8867,-0.001017
3925.8186,-0.000409
3926.7504,0.000888
3927.6822,0.001377
3928.6141,0.001547
3929.5459,0.000545
3930.4777,-0.000013
3931.4096,0.001041
3932.3414,0.001585
3933.2733,0.000841
3934.2051,0.000014
3935.1369,0.000493
3936.0688,0.001149
3937.0006,0.001772
3937.9324,0.002192
3938.8643,0.001782
3939.7961,0.001637
3940.7279,0.001055
3941.6598,0.000580
3942.5916,0.001221
3943.5234,0.000834
3944.4553,-0.000023
3945.3871,0.000367
3946.3189,0.000891
3947.2508,0.000236
3948.1826,0.000106
3949.1144,0.001470
3950.0463,0.001956
3950.9781,0.001406
3951.9099,0.001369
3952.8418,0.001419
3953.7736,0.001005
3954.7054,0.001309
3955.6373,0.001270
3956.5691,0.000840
3957.5009,0.001926
3958.4328,0.001982
3959.3646,0.000647
3960.2965,0.000600
3961.2283,0.001052
3962.1601,0.001124
3963.0920,0.001262
3964.0238,0.001297
3964.9556,0.000894
3965.8875,0.000359
3966.8193,0.000540
3967.7511,0.001122
3968.6830,0.000895
3969.6148,0.000334
3970.5466,0.000380
3971.4785,0.000163
3972.4103,-0.000334
3973.3421,0.000543
3974.2740,0.001570
3975.2058,0.000932
3976.1376,0.000451
3977.0695,0.000858
3978.0013,0.001328
3978.9331,0.002174
3979.8650,0.002341
3980.7968,0.001334
3981.7286,-0.000386
3982.6605,-0.001396
3983.5923,-0.000236
3984.5241,0.001422
3985.4560,0.002104
3986.3878,0.002232
3987.3197,0.002407
3988.2515,0.002064
3989.1833,0.000930
3990.1152,0.000817
3991.0470,0.001253
3991.9788,0.000572
3992.9107,0.000627
3993.8425,0.002068
3994.7743,0.002044
3995.7062,0.000763
3996.6380,0.000884
3997.5698,0.001137
3998.5017,0.000618
3999.4335,0.000912
4000.3653,0.001608
