Wavenumber,Intensity
650.4205,0.381732
651.3523,0.402458
652.2841,0.408925
653.2160,0.407427
654.1478,0.392059
655.0796,0.394288
656.0115,0.388366
656.9433,0.385402
657.8751,0.387040
658.8070,0.386833
659.7388,0.390744
660.6706,0.394761
661.6025,0.379981
662.5343,0.379495
663.4661,0.381234
664.3980,0.380011
665.3298,0.373380
666.2616,0.372305
667.1935,0.374060
668.1253,0.387819
669.0571,0.384846
669.9890,0.374584
670.9208,0.373385
671.8526,0.372358
672.7845,0.372339
673.7163,0.376088
674.6481,0.373839
675.5800,0.369267
676.5118,0.366571
677.4437,0.364303
678.3755,0.360768
679.3073,0.363638
680.2392,0.367335
681.1710,0.362589
682.1028,0.358549
683.0347,0.358405
683.9665,0.356400
684.8983,0.357757
685.8302,0.353017
686.7620,0.346503
687.6938,0.346439
688.6257,0.350091
689.5575,0.348249
690.4893,0.346428
691.4212,0.344054
692.3530,0.346246
693.2848,0.345034
694.2167,0.343018
695.1485,0.339232
696.0803,0.339264
697.0122,0.339221
697.9440,0.338082
698.8758,0.337382
699.8077,0.336888
700.7395,0.335199
701.6713,0.334580
702.6032,0.331170
703.5350,0.329238
704.4669,0.328398
705.3987,0.328339
706.3305,0.326465
707.2624,0.327896
708.1942,0.326181
709.1260,0.321993
710.0579,0.319148
710.9897,0.316889
711.9215,0.313421
712.8534,0.315189
713.7852,0.317771
714.7170,0.317169
715.6489,0.316174
716.5807,0.314769
717.5125,0.312059
718.4444,0.310088
719.3762,0.308729
720.3080,0.312800
721.2399,0.310674
722.1717,0.307917
723.1035,0.305073
724.0354,0.301022
724.9672,0.300453
725.8990,0.298490
726.8309,0.294577
727.7627,0.293586
728.6945,0.292393
729.6264,0.291526
730.5582,0.289046
731.4901,0.286932
732.4219,0.286381
733.3537,0.287095
734.2856,0.284705
735.2174,0.283476
736.1492,0.282888
737.0811,0.282939
738.0129,0.282811
738.9447,0.281018
739.8766,0.278859
740.8084,0.278741
741.7402,0.277497
742.6721,0.275943
743.6039,0.274598
744.5357,0.274817
745.4676,0.273027
746.3994,0.270366
747.3312,0.266656
748.2631,0.264457
749.1949,0.265015
750.1267,0.266794
751.0586,0.263061
751.9904,0.261680
752.9222,0.260710
753.8541,0.258259
754.7859,0.257583
755.7177,0.258189
756.6496,0.255539
757.5814,0.252837
758.5132,0.251783
759.4451,0.251355
760.3769,0.249373
761.3088,0.246968
762.2406,0.246861
763.1724,0.245835
764.1043,0.242161
765.0361,0.242305
765.9679,0.241926
766.8998,0.239388
767.8316,0.237805
768.7634,0.238022
769.6953,0.237733
770.6271,0.237923
771.5589,0.237637
772.4908,0.235965
773.4226,0.234008
774.3544,0.232371
775.2863,0.230788
776.2181,0.229270
777.1499,0.227687
778.0818,0.227133
779.0136,0.227273
779.9454,0.226075
780.8773,0.221980
781.8091,0.219910
782.7409,0.220432
783.6728,0.218909
784.6046,0.216591
785.5364,0.215304
786.4683,0.214530
787.4001,0.213189
788.3320,0.210731
789.2638,0.209422
790.1956,0.207303
791.1275,0.206662
792.0593,0.206268
792.9911,0.204318
793.9230,0.202673
794.8548,0.202140
795.7866,0.201174
796.7185,0.200763
797.6503,0.200011
798.5821,0.199021
799.5140,0.197840
800.4458,0.197069
801.3776,0.194492
802.3095,0.193313
803.2413,0.192570
804.1731,0.191044
805.1050,0.190188
806.0368,0.188815
806.9686,0.187152
807.9005,0.186936
808.8323,0.185172
809.7641,0.182060
810.6960,0.180756
811.6278,0.180828
812.5596,0.179674
813.4915,0.178258
814.4233,0.177505
815.3552,0.176262
816.2870,0.174653
817.2188,0.173284
818.1507,0.172187
819.0825,0.170922
820.0143,0.168882
820.9462,0.167124
821.8780,0.165563
822.8098,0.165346
823.7417,0.164700
824.6735,0.163229
825.6053,0.162213
826.5372,0.161229
827.4690,0.159992
828.4008,0.158831
829.3327,0.157134
830.2645,0.156307
831.1963,0.155216
832.1282,0.153736
833.0600,0.152936
833.9918,0.152597
834.9237,0.151693
835.8555,0.150171
836.7873,0.148650
837.7192,0.147416
838.6510,0.146433
839.5828,0.146225
840.5147,0.145425
841.4465,0.144152
842.3784,0.142635
843.3102,0.141570
844.2420,0.140946
845.1739,0.140065
846.1057,0.138751
847.0375,0.138439
847.9694,0.137563
848.9012,0.137113
849.8330,0.136837
850.7649,0.136351
851.6967,0.134763
852.6285,0.133064
853.5604,0.132563
854.4922,0.132128
855.4240,0.131234
856.3559,0.130142
857.2877,0.129454
858.2195,0.129394
859.1514,0.129020
860.0832,0.128880
861.0150,0.128547
861.9469,0.128044
862.8787,0.127748
863.8105,0.127906
864.7424,0.128429
865.6742,0.129104
866.6060,0.129584
867.5379,0.130618
868.4697,0.131283
869.4016,0.132641
870.3334,0.135155
871.2652,0.138115
872.1971,0.141932
873.1289,0.145817
874.0607,0.149666
874.9926,0.154670
875.9244,0.158587
876.8562,0.159795
877.7881,0.159895
878.7199,0.158756
879.6517,0.155651
880.5836,0.151483
881.5154,0.145550
882.4472,0.138527
883.3791,0.132522
884.3109,0.127194
885.2427,0.121597
886.1746,0.116513
887.1064,0.112197
888.0382,0.108846
888.9701,0.105451
889.9019,0.102302
890.8337,0.099645
891.7656,0.097529
892.6974,0.095750
893.6292,0.094276
894.5611,0.093332
895.4929,0.092549
896.4247,0.091488
897.3566,0.090256
898.2884,0.089025
899.2203,0.088155
900.1521,0.087451
901.0839,0.086924
902.0158,0.086338
902.9476,0.085716
903.8794,0.084747
904.8113,0.083751
905.7431,0.083006
906.6749,0.082365
907.6068,0.081641
908.5386,0.080992
909.4704,0.080572
910.4023,0.080153
911.3341,0.079274
912.2659,0.078755
913.1978,0.078369
914.1296,0.077520
915.0614,0.077126
915.9933,0.076908
916.9251,0.076275
917.8569,0.075957
918.7888,0.075421
919.7206,0.074898
920.6524,0.074556
921.5843,0.074178
922.5161,0.073926
923.4479,0.073693
924.3798,0.073413
925.3116,0.072712
926.2435,0.071972
927.1753,0.071249
928.1071,0.070700
929.0390,0.070370
929.9708,0.070076
930.9026,0.069752
931.8345,0.069267
932.7663,0.068504
933.6981,0.068122
934.6300,0.068156
935.5618,0.067909
936.4936,0.067370
937.4255,0.066967
938.3573,0.066393
939.2891,0.065741
940.2210,0.065647
941.1528,0.065524
942.0846,0.065284
943.0165,0.065320
943.9483,0.064864
944.8801,0.064062
945.8120,0.063768
946.7438,0.063611
947.6756,0.063164
948.6075,0.062789
949.5393,0.062555
950.4711,0.062415
951.4030,0.062133
952.3348,0.061726
953.2667,0.061465
954.1985,0.061500
955.1303,0.061387
956.0622,0.061193
956.9940,0.060753
957.9258,0.060298
958.8577,0.060194
959.7895,0.060009
960.7213,0.059934
961.6532,0.059624
962.5850,0.059489
963.5168,0.059641
964.4487,0.059470
965.3805,0.059280
966.3123,0.059457
967.2442,0.059207
968.1760,0.058761
969.1078,0.058858
970.0397,0.059049
970.9715,0.058778
971.9033,0.058164
972.8352,0.057960
973.7670,0.058219
974.6988,0.058504
975.6307,0.058611
976.5625,0.058709
977.4943,0.058696
978.4262,0.058438
979.3580,0.058814
980.2899,0.059290
981.2217,0.059173
982.1535,0.058923
983.0854,0.059067
984.0172,0.059450
984.9490,0.059588
985.8809,0.059637
986.8127,0.059892
987.7445,0.060372
988.6764,0.060730
989.6082,0.060709
990.5400,0.060605
991.4719,0.060847
992.4037,0.061203
993.3355,0.061180
994.2674,0.061176
995.1992,0.061261
996.1310,0.061379
997.0629,0.061486
997.9947,0.061571
998.9265,0.061574
999.8584,0.061757
1000.7902,0.062131
1001.7220,0.062215
1002.6539,0.062123
1003.5857,0.062352
1004.5175,0.062876
1005.4494,0.063185
1006.3812,0.063472
1007.3131,0.064071
1008.2449,0.064439
1009.1767,0.064661
1010.1086,0.065225
1011.0404,0.066009
1011.9722,0.066684
1012.9041,0.067463
1013.8359,0.068542
1014.7677,0.069268
1015.6996,0.069775
1016.6314,0.070517
1017.5632,0.071377
1018.4951,0.072665
1019.4269,0.074337
1020.3587,0.075734
1021.2906,0.076865
1022.2224,0.078718
1023.1542,0.081193
1024.0861,0.083476
1025.0179,0.085627
1025.9497,0.088036
1026.8816,0.091204
1027.8134,0.095025
1028.7452,0.098739
1029.6771,0.102580
1030.6089,0.107140
1031.5407,0.112485
1032.4726,0.118649
1033.4044,0.125659
1034.3362,0.133680
1035.2681,0.143020
1036.1999,0.153387
1037.1318,0.164577
1038.0636,0.176978
1038.9954,0.190252
1039.9273,0.203338
1040.8591,0.215376
1041.7909,0.225968
1042.7228,0.234026
1043.6546,0.238409
1044.5864,0.238711
1045.5183,0.234817
1046.4501,0.227068
1047.3819,0.216305
1048.3138,0.203583
1049.2456,0.189479
1050.1774,0.174900
1051.1093,0.160815
1052.0411,0.147547
1052.9729,0.135442
1053.9048,0.124439
1054.8366,0.114706
1055.7684,0.106593
1056.7003,0.099877
1057.6321,0.094271
1058.5639,0.089689
1059.4958,0.086040
1060.4276,0.082937
1061.3594,0.080615
1062.2913,0.078978
1063.2231,0.077666
1064.1550,0.076917
1065.0868,0.076695
1066.0186,0.076776
1066.9505,0.076661
1067.8823,0.076699
1068.8141,0.077345
1069.7460,0.078123
1070.6778,0.079228
1071.6096,0.080553
1072.5415,0.081729
1073.4733,0.083382
1074.4051,0.085516
1075.3370,0.087721
1076.2688,0.090030
1077.2006,0.092570
1078.1325,0.095160
1079.0643,0.097746
1079.9961,0.100304
1080.9280,0.102529
1081.8598,0.104599
1082.7916,0.106386
1083.7235,0.107668
1084.6553,0.108338
1085.5871,0.108244
1086.5190,0.107467
1087.4508,0.106123
1088.3826,0.104082
1089.3145,0.100932
1090.2463,0.097078
1091.1782,0.093342
1092.1100,0.089591
1093.0418,0.085522
1093.9737,0.081607
1094.9055,0.077945
1095.8373,0.074565
1096.7692,0.071500
1097.7010,0.068750
1098.6328,0.066554
1099.5647,0.064538
1100.4965,0.062607
1101.4283,0.061048
1102.3602,0.059706
1103.2920,0.058543
1104.2238,0.057696
1105.1557,0.056798
1106.0875,0.055830
1107.0193,0.055113
1107.9512,0.054601
1108.8830,0.054210
1109.8148,0.053856
1110.7467,0.053423
1111.6785,0.052919
1112.6103,0.052382
1113.5422,0.051922
1114.4740,0.051694
1115.4058,0.051558
1116.3377,0.051275
1117.2695,0.050874
1118.2014,0.050715
1119.1332,0.050766
1120.0650,0.050621
1120.9969,0.050498
1121.9287,0.050471
1122.8605,0.050292
1123.7924,0.050281
1124.7242,0.050397
1125.6560,0.050275
1126.5879,0.050107
1127.5197,0.050032
1128.4515,0.049906
1129.3834,0.049698
1130.3152,0.049614
1131.2470,0.049534
1132.1789,0.049390
1133.1107,0.049333
1134.0425,0.049228
1134.9744,0.049076
1135.9062,0.048876
1136.8380,0.048728
1137.7699,0.048702
1138.7017,0.048544
1139.6335,0.048371
1140.5654,0.048336
1141.4972,0.048192
1142.4290,0.048013
1143.3609,0.047714
1144.2927,0.047468
1145.2246,0.047662
1146.1564,0.047680
1147.0882,0.047414
1148.0201,0.047543
1148.9519,0.047791
1149.8837,0.047610
1150.8156,0.047216
1151.7474,0.047151
1152.6792,0.047222
1153.6111,0.047214
1154.5429,0.047395
1155.4747,0.047438
1156.4066,0.047146
1157.3384,0.046857
1158.2702,0.046636
1159.2021,0.046396
1160.1339,0.046289
1161.0657,0.046230
1161.9976,0.045989
1162.9294,0.045493
1163.8612,0.045023
1164.7931,0.044813
1165.7249,0.044633
1166.6567,0.044350
1167.5886,0.044061
1168.5204,0.043943
1169.4522,0.043867
1170.3841,0.043557
1171.3159,0.043255
1172.2477,0.043303
1173.1796,0.043163
1174.1114,0.042919
1175.0433,0.043088
1175.9751,0.043162
1176.9069,0.042997
1177.8388,0.043016
1178.7706,0.043127
1179.7024,0.043090
1180.6343,0.042922
1181.5661,0.042865
1182.4979,0.043072
1183.4298,0.043230
1184.3616,0.043215
1185.2934,0.043043
1186.2253,0.042836
1187.1571,0.042738
1188.0889,0.042747
1189.0208,0.042840
1189.9526,0.042866
1190.8844,0.043020
1191.8163,0.043108
1192.7481,0.043093
1193.6799,0.043065
1194.6118,0.043106
1195.5436,0.043139
1196.4754,0.042944
1197.4073,0.042853
1198.3391,0.043004
1199.2709,0.043249
1200.2028,0.043366
1201.1346,0.043152
1202.0665,0.042916
1202.9983,0.042840
1203.9301,0.042917
1204.8620,0.043130
1205.7938,0.043304
1206.7256,0.043293
1207.6575,0.043008
1208.5893,0.042989
1209.5211,0.043355
1210.4530,0.043396
1211.3848,0.043265
1212.3166,0.043356
1213.2485,0.043359
1214.1803,0.043408
1215.1121,0.043607
1216.0440,0.043631
1216.9758,0.043383
1217.9076,0.043361
1218.8395,0.043644
1219.7713,0.043781
1220.7031,0.043828
1221.6350,0.043995
1222.5668,0.044034
1223.4986,0.044017
1224.4305,0.044097
1225.3623,0.044260
1226.2941,0.044254
1227.2260,0.044207
1228.1578,0.044273
1229.0897,0.044344
1230.0215,0.044612
1230.9533,0.044808
1231.8852,0.044789
1232.8170,0.044648
1233.7488,0.044684
1234.6807,0.044719
1235.6125,0.044814
1236.5443,0.045154
1237.4762,0.045314
1238.4080,0.045026
1239.3398,0.044901
1240.2717,0.045140
1241.2035,0.045478
1242.1353,0.045691
1243.0672,0.045706
1243.9990,0.045788
1244.9308,0.045986
1245.8627,0.046056
1246.7945,0.046113
1247.7263,0.046322
1248.6582,0.046416
1249.5900,0.046570
1250.5218,0.046958
1251.4537,0.047355
1252.3855,0.047530
1253.3173,0.047638
1254.2492,0.047745
1255.1810,0.048059
1256.1129,0.048282
1257.0447,0.048459
1257.9765,0.048743
1258.9084,0.048880
1259.8402,0.049209
1260.7720,0.049725
1261.7039,0.050211
1262.6357,0.050495
1263.5675,0.050592
1264.4994,0.050891
1265.4312,0.051675
1266.3630,0.052370
1267.2949,0.052634
1268.2267,0.052874
1269.1585,0.053446
1270.0904,0.054069
1271.0222,0.054691
1271.9540,0.055250
1272.8859,0.055518
1273.8177,0.055461
1274.7495,0.055633
1275.6814,0.055854
1276.6132,0.055498
1277.5450,0.054896
1278.4769,0.054564
1279.4087,0.054169
1280.3405,0.053647
1281.2724,0.053036
1282.2042,0.052593
1283.1361,0.052303
1284.0679,0.052115
1284.9997,0.051905
1285.9316,0.051891
1286.8634,0.051971
1287.7952,0.052150
1288.7271,0.052072
1289.6589,0.051803
1290.5907,0.051572
1291.5226,0.051375
1292.4544,0.051519
1293.3862,0.051695
1294.3181,0.051887
1295.2499,0.052065
1296.1817,0.052127
1297.1136,0.052365
1298.0454,0.052721
1298.9772,0.052939
1299.9091,0.053001
1300.8409,0.053109
1301.7727,0.053262
1302.7046,0.053360
1303.6364,0.053632
1304.5682,0.054033
1305.5001,0.054314
1306.4319,0.054593
1307.3637,0.054805
1308.2956,0.055137
1309.2274,0.055633
1310.1592,0.056035
1311.0911,0.055976
1312.0229,0.055923
1312.9548,0.056301
1313.8866,0.056793
1314.8184,0.057011
1315.7503,0.056913
1316.6821,0.056942
1317.6139,0.057412
1318.5458,0.057692
1319.4776,0.057737
1320.4094,0.057926
1321.3413,0.058104
1322.2731,0.058156
1323.2049,0.058008
1324.1368,0.058136
1325.0686,0.058323
1326.0004,0.058198
1326.9323,0.058215
1327.8641,0.058270
1328.7959,0.058190
1329.7278,0.058132
1330.6596,0.057932
1331.5914,0.057733
1332.5233,0.057445
1333.4551,0.057370
1334.3869,0.057167
1335.3188,0.056713
1336.2506,0.056461
1337.1824,0.056428
1338.1143,0.056214
1339.0461,0.056075
1339.9780,0.056583
1340.9098,0.056692
1341.8416,0.056157
1342.7735,0.055324
1343.7053,0.054691
1344.6371,0.054504
1345.5690,0.054097
1346.5008,0.053801
1347.4326,0.053696
1348.3645,0.053368
1349.2963,0.053205
1350.2281,0.053175
1351.1600,0.052922
1352.0918,0.052690
1353.0236,0.052651
1353.9555,0.052810
1354.8873,0.052889
1355.8191,0.052710
1356.7510,0.052427
1357.6828,0.052319
1358.6146,0.052265
1359.5465,0.051897
1360.4783,0.051644
1361.4101,0.052005
1362.3420,0.052756
1363.2738,0.053325
1364.2056,0.053697
1365.1375,0.053663
1366.0693,0.053327
1367.0012,0.053604
1367.9330,0.054235
1368.8648,0.054699
1369.7967,0.055543
1370.7285,0.056136
1371.6603,0.056471
1372.5922,0.057325
1373.5240,0.058593
1374.4558,0.060582
1375.3877,0.062732
1376.3195,0.063533
1377.2513,0.063776
1378.1832,0.063980
1379.1150,0.064534
1380.0468,0.064859
1380.9787,0.065221
1381.9105,0.065888
1382.8423,0.066200
1383.7742,0.066452
1384.7060,0.066168
1385.6378,0.065850
1386.5697,0.066010
1387.5015,0.066412
1388.4333,0.066794
1389.3652,0.066442
1390.2970,0.064804
1391.2288,0.063904
1392.1607,0.063397
1393.0925,0.062827
1394.0244,0.062472
1394.9562,0.062870
1395.8880,0.063401
1396.8199,0.063245
1397.7517,0.063001
1398.6835,0.063274
1399.6154,0.064372
1400.5472,0.064920
1401.4790,0.063829
1402.4109,0.063264
1403.3427,0.063624
1404.2745,0.064138
1405.2064,0.064742
1406.1382,0.065726
1407.0700,0.065756
1408.0019,0.065234
1408.9337,0.065049
1409.8655,0.064990
1410.7974,0.065438
1411.7292,0.066104
1412.6610,0.066176
1413.5929,0.066033
1414.5247,0.065918
1415.4565,0.065551
1416.3884,0.065211
1417.3202,0.065484
1418.2520,0.065652
1419.1839,0.066284
1420.1157,0.067420
1421.0476,0.067707
1421.9794,0.066061
1422.9112,0.064986
1423.8431,0.064645
1424.7749,0.065037
1425.7067,0.064752
1426.6386,0.063564
1427.5704,0.063014
1428.5022,0.062773
1429.4341,0.062855
1430.3659,0.063006
1431.2977,0.062860
1432.2296,0.061834
1433.1614,0.060864
1434.0932,0.060218
1435.0251,0.059643
1435.9569,0.059212
1436.8887,0.059810
1437.8206,0.061655
1438.7524,0.060729
1439.6842,0.058658
1440.6161,0.058116
1441.5479,0.058299
1442.4797,0.058008
1443.4116,0.057933
1444.3434,0.058487
1445.2752,0.059043
1446.2071,0.059488
1447.1389,0.060185
1448.0707,0.061343
1449.0026,0.063212
1449.9344,0.064080
1450.8663,0.063754
1451.7981,0.063818
1452.7299,0.063982
1453.6618,0.063602
1454.5936,0.062930
1455.5254,0.062405
1456.4573,0.062430
1457.3891,0.063056
1458.3209,0.063369
1459.2528,0.061594
1460.1846,0.059806
1461.1164,0.057270
1462.0483,0.054974
1462.9801,0.053433
1463.9119,0.052588
1464.8438,0.052351
1465.7756,0.052621
1466.7074,0.051802
1467.6393,0.049919
1468.5711,0.048977
1469.5029,0.048368
1470.4348,0.047697
1471.3666,0.047391
1472.2984,0.047946
1473.2303,0.049221
1474.1621,0.049484
1475.0939,0.048766
1476.0258,0.048023
1476.9576,0.048161
1477.8895,0.048831
1478.8213,0.048248
1479.7531,0.047724
1480.6850,0.047818
1481.6168,0.048070
1482.5486,0.048385
1483.4805,0.048286
1484.4123,0.048048
1485.3441,0.047593
1486.2760,0.047378
1487.2078,0.047643
1488.1396,0.047967
1489.0715,0.047670
1490.0033,0.047152
1490.9351,0.048011
1491.8670,0.047560
1492.7988,0.045577
1493.7306,0.043832
1494.6625,0.043185
1495.5943,0.043424
1496.5261,0.043889
1497.4580,0.044684
1498.3898,0.044659
1499.3216,0.044267
1500.2535,0.044549
1501.1853,0.043503
1502.1171,0.042810
1503.0490,0.042797
1503.9808,0.042209
1504.9127,0.041762
1505.8445,0.042216
1506.7763,0.044251
1507.7082,0.046696
1508.6400,0.046214
1509.5718,0.045148
1510.5037,0.044124
1511.4355,0.043096
1512.3673,0.042660
1513.2992,0.043398
1514.2310,0.043543
1515.1628,0.043134
1516.0947,0.043468
1517.0265,0.043565
1517.9583,0.044191
1518.8902,0.043912
1519.8220,0.042227
1520.7538,0.042178
1521.6857,0.043672
1522.6175,0.044649
1523.5493,0.044273
1524.4812,0.043573
1525.4130,0.043500
1526.3448,0.044454
1527.2767,0.044364
1528.2085,0.044186
1529.1403,0.044862
1530.0722,0.044269
1531.0040,0.043489
1531.9359,0.043551
1532.8677,0.044526
1533.7995,0.045112
1534.7314,0.045628
1535.6632,0.045104
1536.5950,0.044068
1537.5269,0.043505
1538.4587,0.043214
1539.3905,0.044357
1540.3224,0.047707
1541.2542,0.048097
1542.1860,0.046257
1543.1179,0.046828
1544.0497,0.047454
1544.9815,0.046497
1545.9134,0.046704
1546.8452,0.046932
1547.7770,0.046008
1548.7089,0.045779
1549.6407,0.046284
1550.5725,0.047376
1551.5044,0.048060
1552.4362,0.047365
1553.3680,0.046735
1554.2999,0.046508
1555.2317,0.047317
1556.1635,0.048256
1557.0954,0.047540
1558.0272,0.047736
1558.9591,0.050542
1559.8909,0.054075
1560.8227,0.054434
1561.7546,0.053295
1562.6864,0.051103
1563.6182,0.050251
1564.5501,0.050267
1565.4819,0.050721
1566.4137,0.051444
1567.3456,0.051492
1568.2774,0.051374
1569.2092,0.052022
1570.1411,0.053914
1571.0729,0.055858
1572.0047,0.054532
1572.9366,0.053408
1573.8684,0.053502
1574.8002,0.053716
1575.7321,0.055036
1576.6639,0.057911
1577.5957,0.060415
1578.5276,0.059364
1579.4594,0.058301
1580.3912,0.058449
1581.3231,0.058902
1582.2549,0.059542
1583.1867,0.060536
1584.1186,0.061499
1585.0504,0.061863
1585.9822,0.062271
1586.9141,0.063075
1587.8459,0.064432
1588.7778,0.065515
1589.7096,0.066082
1590.6414,0.066981
1591.5733,0.068132
1592.5051,0.069027
1593.4369,0.069990
1594.3688,0.071097
1595.3006,0.072074
1596.2324,0.072786
1597.1643,0.073840
1598.0961,0.075366
1599.0279,0.076688
1599.9598,0.077605
1600.8916,0.078825
1601.8234,0.080552
1602.7553,0.082172
1603.6871,0.083566
1604.6189,0.085415
1605.5508,0.086823
1606.4826,0.087811
1607.4144,0.089417
1608.3463,0.091753
1609.2781,0.093741
1610.2099,0.095925
1611.1418,0.098188
1612.0736,0.099100
1613.0054,0.099462
1613.9373,0.100781
1614.8691,0.102790
1615.8010,0.105169
1616.7328,0.108668
1617.6646,0.114968
1618.5965,0.118201
1619.5283,0.116007
1620.4601,0.115716
1621.3920,0.116508
1622.3238,0.118579
1623.2556,0.121648
1624.1875,0.126134
1625.1193,0.130354
1626.0511,0.131160
1626.9830,0.132206
1627.9148,0.134316
1628.8466,0.136832
1629.7785,0.137814
1630.7103,0.137123
1631.6421,0.136480
1632.5740,0.136498
1633.5058,0.137043
1634.4376,0.137913
1635.3695,0.141116
1636.3013,0.147946
1637.2331,0.151007
1638.1650,0.148857
1639.0968,0.147872
1640.0286,0.146560
1640.9605,0.145474
1641.8923,0.144344
1642.8242,0.143896
1643.7560,0.143428
1644.6878,0.141850
1645.6197,0.140769
1646.5515,0.142934
1647.4833,0.146474
1648.4152,0.145841
1649.3470,0.143551
1650.2788,0.140226
1651.2107,0.136587
1652.1425,0.134467
1653.0743,0.136526
1654.0062,0.144145
1654.9380,0.144485
1655.8698,0.138273
1656.8017,0.133504
1657.7335,0.130480
1658.6653,0.128268
1659.5972,0.126537
1660.5290,0.125274
1661.4608,0.123944
1662.3927,0.122693
1663.3245,0.122232
1664.2563,0.121132
1665.1882,0.118020
1666.1200,0.115278
1667.0518,0.113901
1667.9837,0.112563
1668.9155,0.110915
1669.8474,0.110315
1670.7792,0.109525
1671.7110,0.106728
1672.6429,0.104334
1673.5747,0.101768
1674.5065,0.099678
1675.4384,0.099052
1676.3702,0.099299
1677.3020,0.096793
1678.2339,0.093452
1679.1657,0.091315
1680.0975,0.089489
1681.0294,0.087953
1681.9612,0.085981
1682.8930,0.083858
1683.8249,0.083041
1684.7567,0.082916
1685.6885,0.081897
1686.6204,0.079925
1687.5522,0.077440
1688.4840,0.075168
1689.4159,0.073823
1690.3477,0.072532
1691.2795,0.070874
1692.2114,0.069018
1693.1432,0.067211
1694.0750,0.065465
1695.0069,0.063736
1695.9387,0.063022
1696.8706,0.063075
1697.8024,0.060967
1698.7342,0.058621
1699.6661,0.056790
1700.5979,0.056078
1701.5297,0.056599
1702.4616,0.054242
1703.3934,0.052233
1704.3252,0.050941
1705.2571,0.050319
1706.1889,0.049845
1707.1207,0.048756
1708.0526,0.047272
1708.9844,0.045707
1709.9162,0.044761
1710.8481,0.044358
1711.7799,0.043756
1712.7117,0.042616
1713.6436,0.041419
1714.5754,0.040200
1715.5072,0.039534
1716.4391,0.039489
1717.3709,0.038973
1718.3027,0.038726
1719.2346,0.037924
1720.1664,0.036085
1721.0982,0.034712
1722.0301,0.034139
1722.9619,0.033708
1723.8937,0.033359
1724.8256,0.032883
1725.7574,0.032095
1726.6893,0.031567
1727.6211,0.031066
1728.5529,0.030332
1729.4848,0.029586
1730.4166,0.029112
1731.3484,0.028925
1732.2803,0.028498
1733.2121,0.028095
1734.1439,0.028303
1735.0758,0.028595
1736.0076,0.027590
1736.9394,0.026286
1737.8713,0.025596
1738.8031,0.025447
1739.7349,0.025361
1740.6668,0.025102
1741.5986,0.024826
1742.5304,0.024510
1743.4623,0.024200
1744.3941,0.023923
1745.3259,0.023270
1746.2578,0.022506
1747.1896,0.022235
1748.1214,0.022449
1749.0533,0.022791
1749.9851,0.022681
1750.9169,0.021896
1751.8488,0.021552
1752.7806,0.021613
1753.7125,0.021141
1754.6443,0.020534
1755.5761,0.020121
1756.5080,0.019954
1757.4398,0.019915
1758.3716,0.019782
1759.3035,0.019549
1760.2353,0.019601
1761.1671,0.019064
1762.0990,0.018577
1763.0308,0.018899
1763.9626,0.018698
1764.8945,0.018423
1765.8263,0.018140
1766.7581,0.017672
1767.6900,0.017815
1768.6218,0.017995
1769.5536,0.017973
1770.4855,0.017422
1771.4173,0.016867
1772.3491,0.016747
1773.2810,0.017091
1774.2128,0.016895
1775.1446,0.015975
1776.0765,0.015808
1777.0083,0.015959
1777.9401,0.016023
1778.8720,0.015972
1779.8038,0.015644
1780.7357,0.015366
1781.6675,0.015240
1782.5993,0.015080
1783.5312,0.015035
1784.4630,0.015329
1785.3948,0.015578
1786.3267,0.015229
1787.2585,0.014596
1788.1903,0.014462
1789.1222,0.014395
1790.0540,0.014392
1790.9858,0.014555
1791.9177,0.014478
1792.8495,0.013793
1793.7813,0.013976
1794.7132,0.013861
1795.6450,0.012975
1796.5768,0.012779
1797.5087,0.013266
1798.4405,0.013621
1799.3723,0.013759
1800.3042,0.013645
1801.2360,0.013275
1802.1678,0.013132
1803.0997,0.012897
1804.0315,0.012568
1804.9633,0.012962
1805.8952,0.013392
1806.8270,0.013248
1807.7589,0.012932
1808.6907,0.013067
1809.6225,0.012742
1810.5544,0.012281
1811.4862,0.012698
1812.4180,0.012796
1813.3499,0.012496
1814.2817,0.012642
1815.2135,0.012567
1816.1454,0.011886
1817.0772,0.011229
1818.0090,0.011068
1818.9409,0.010991
1819.8727,0.011309
1820.8045,0.011949
1821.7364,0.011931
1822.6682,0.011441
1823.6000,0.011434
1824.5319,0.011224
1825.4637,0.011134
1826.3955,0.011332
1827.3274,0.010965
1828.2592,0.010605
1829.1910,0.010935
1830.1229,0.011451
1831.0547,0.010949
1831.9865,0.010273
1832.9184,0.010718
1833.8502,0.011094
1834.7821,0.010949
1835.7139,0.010830
1836.6457,0.010418
1837.5776,0.010325
1838.5094,0.011234
1839.4412,0.011818
1840.3731,0.011312
1841.3049,0.010570
1842.2367,0.010359
1843.1686,0.010641
1844.1004,0.010756
1845.0322,0.010703
1845.9641,0.009952
1846.8959,0.008869
1847.8277,0.009711
1848.7596,0.010699
1849.6914,0.010146
1850.6232,0.009304
1851.5551,0.009266
1852.4869,0.009866
1853.4187,0.010190
1854.3506,0.009689
1855.2824,0.009600
1856.2142,0.009965
1857.1461,0.010167
1858.0779,0.010689
1859.0097,0.011084
1859.9416,0.010286
1860.8734,0.009490
1861.8052,0.009621
1862.7371,0.009811
1863.6689,0.010138
1864.6008,0.010461
1865.5326,0.010025
1866.4644,0.009507
1867.3963,0.009799
1868.3281,0.009899
1869.2599,0.010139
1870.1918,0.010766
1871.1236,0.010090
1872.0554,0.009776
1872.9873,0.010492
1873.9191,0.010325
1874.8509,0.009731
1875.7828,0.009883
1876.7146,0.010715
1877.6464,0.010954
1878.5783,0.009436
1879.5101,0.008487
1880.4419,0.008433
1881.3738,0.008920
1882.3056,0.010179
1883.2374,0.010840
1884.1693,0.010186
1885.1011,0.009253
1886.0329,0.009208
1886.9648,0.009812
1887.8966,0.009884
1888.8284,0.010282
1889.7603,0.010944
1890.6921,0.010779
1891.6240,0.010050
1892.5558,0.009781
1893.4876,0.009893
1894.4195,0.010680
1895.3513,0.010955
1896.2831,0.010248
1897.2150,0.008885
1898.1468,0.007914
1899.0786,0.009028
1900.0105,0.009938
1900.9423,0.008850
1901.8741,0.008483
1902.8060,0.008938
1903.7378,0.008958
1904.6696,0.009014
1905.6015,0.009516
1906.5333,0.009377
1907.4651,0.009272
1908.3970,0.009563
1909.3288,0.010103
1910.2606,0.010005
1911.1925,0.009769
1912.1243,0.010155
1913.0561,0.009487
1913.9880,0.009321
1914.9198,0.010524
1915.8516,0.011057
1916.7835,0.010467
1917.7153,0.010038
1918.6472,0.010335
1919.5790,0.009085
1920.5108,0.007964
1921.4427,0.008831
1922.3745,0.009664
1923.3063,0.008914
1924.2382,0.008335
1925.1700,0.008797
1926.1018,0.009561
1927.0337,0.009564
1927.9655,0.008869
1928.8973,0.008709
1929.8292,0.009032
1930.7610,0.009528
1931.6928,0.009199
1932.6247,0.009737
1933.5565,0.011350
1934.4883,0.010538
1935.4202,0.008642
1936.3520,0.008233
1937.2838,0.007947
1938.2157,0.008069
1939.1475,0.008538
1940.0793,0.008068
1941.0112,0.007340
1941.9430,0.007529
1942.8748,0.007195
1943.8067,0.007055
1944.7385,0.008089
1945.6704,0.009297
1946.6022,0.009067
1947.5340,0.006555
1948.4659,0.005996
1949.3977,0.008462
1950.3295,0.009103
1951.2614,0.007618
1952.1932,0.006288
1953.1250,0.006015
1954.0569,0.005859
1954.9887,0.005099
1955.9205,0.004323
1956.8524,0.003858
1957.7842,0.006068
1958.7160,0.007292
1959.6479,0.005747
1960.5797,0.005308
1961.5115,0.006766
1962.4434,0.005757
1963.3752,0.004837
1964.3070,0.007076
1965.2389,0.006122
1966.1707,0.001668
1967.1025,0.001991
1968.0344,0.006796
1968.9662,0.006606
1969.8980,0.003253
1970.8299,0.004348
1971.7617,0.005551
1972.6936,0.005186
1973.6254,0.005645
1974.5572,0.005062
1975.4891,0.002815
1976.4209,0.003636
1977.3527,0.003367
1978.2846,0.002594
1979.2164,0.004513
1980.1482,0.006312
1981.0801,0.005840
1982.0119,0.006252
1982.9437,0.007376
1983.8756,0.007384
1984.8074,0.004725
1985.7392,0.002823
1986.6711,0.001790
1987.6029,0.003407
1988.5347,0.005116
1989.4666,0.005017
1990.3984,0.006839
1991.3302,0.007092
1992.2621,0.007585
1993.1939,0.008018
1994.1257,0.006729
1995.0576,0.006181
1995.9894,0.005429
1996.9212,0.002886
1997.8531,0.003207
1998.7849,0.007858
1999.7167,0.007562
2000.6486,0.004028
2001.5804,0.003111
2002.5123,0.004344
2003.4441,0.005753
2004.3759,0.005837
2005.3078,0.006020
2006.2396,0.006186
2007.1714,0.004583
2008.1033,0.007389
2009.0351,0.008870
2009.9669,0.007835
2010.8988,0.006135
2011.8306,0.004910
2012.7624,0.006248
2013.6943,0.007482
2014.6261,0.005909
2015.5579,0.004174
2016.4898,0.004677
2017.4216,0.005967
2018.3534,0.004446
2019.2853,0.003846
2020.2171,0.004556
2021.1489,0.004418
2022.0808,0.004806
2023.0126,0.006814
2023.9444,0.006417
2024.8763,0.002415
2025.8081,0.000061
2026.7399,0.003303
2027.6718,0.006070
2028.6036,0.004343
2029.5355,0.004393
2030.4673,0.007148
2031.3991,0.007262
2032.3310,0.004291
2033.2628,0.002238
2034.1946,0.002648
2035.1265,0.007863
2036.0583,0.009738
2036.9901,0.008756
2037.9220,0.009612
2038.8538,0.007400
2039.7856,0.006963
2040.7175,0.006806
2041.6493,0.007675
2042.5811,0.008450
2043.5130,0.007319
2044.4448,0.008045
2045.3766,0.007663
2046.3085,0.004641
2047.2403,0.006335
2048.1721,0.010818
2049.1040,0.010635
2050.0358,0.007749
2050.9676,0.008971
2051.8995,0.008813
2052.8313,0.007876
2053.7631,0.009331
2054.6950,0.011493
2055.6268,0.012190
2056.5587,0.011850
2057.4905,0.010941
2058.4223,0.009479
2059.3542,0.009345
2060.2860,0.010263
2061.2178,0.010800
2062.1497,0.010471
2063.0815,0.011026
2064.0133,0.012434
2064.9452,0.012478
2065.8770,0.012624
2066.8088,0.013016
2067.7407,0.013197
2068.6725,0.013690
2069.6043,0.013111
2070.5362,0.012708
2071.4680,0.012473
2072.3998,0.012235
2073.3317,0.013778
2074.2635,0.013945
2075.1953,0.011766
2076.1272,0.010411
2077.0590,0.012084
2077.9908,0.013668
2078.9227,0.015149
2079.8545,0.015727
2080.7863,0.014376
2081.7182,0.013580
2082.6500,0.014783
2083.5819,0.014914
2084.5137,0.013947
2085.4455,0.013463
2086.3774,0.013189
2087.3092,0.013305
2088.2410,0.013876
2089.1729,0.014923
2090.1047,0.015122
2091.0365,0.014105
2091.9684,0.013557
2092.9002,0.014370
2093.8320,0.014681
2094.7639,0.014041
2095.6957,0.013315
2096.6275,0.013710
2097.5594,0.014238
2098.4912,0.015629
2099.4230,0.014549
2100.3549,0.011888
2101.2867,0.012666
2102.2185,0.013665
2103.1504,0.012863
2104.0822,0.013344
2105.0140,0.013935
2105.9459,0.013821
2106.8777,0.014952
2107.8095,0.016555
2108.7414,0.017023
2109.6732,0.015089
2110.6051,0.013050
2111.5369,0.013466
2112.4687,0.014915
2113.4006,0.016923
2114.3324,0.016409
2115.2642,0.015097
2116.1961,0.014665
2117.1279,0.014466
2118.0597,0.015199
2118.9916,0.014581
2119.9234,0.014232
2120.8552,0.015208
2121.7871,0.015439
2122.7189,0.015267
2123.6507,0.015201
2124.5826,0.014628
2125.5144,0.014241
2126.4462,0.015094
2127.3781,0.015026
2128.3099,0.014577
2129.2417,0.014857
2130.1736,0.014677
2131.1054,0.015245
2132.0372,0.015967
2132.9691,0.015531
2133.9009,0.013915
2134.8327,0.013513
2135.7646,0.012501
2136.6964,0.012336
2137.6282,0.013115
2138.5601,0.013860
2139.4919,0.012832
2140.4238,0.013098
2141.3556,0.013142
2142.2874,0.011691
2143.2193,0.013706
2144.1511,0.014092
2145.0829,0.011076
2146.0148,0.012732
2146.9466,0.015175
2147.8784,0.012832
2148.8103,0.009074
2149.7421,0.009130
2150.6739,0.010376
2151.6058,0.010460
2152.5376,0.010159
2153.4694,0.010139
2154.4013,0.009681
2155.3331,0.008088
2156.2649,0.007870
2157.1968,0.006643
2158.1286,0.005787
2159.0604,0.007130
2159.9923,0.008034
2160.9241,0.006665
2161.8559,0.008726
2162.7878,0.012332
2163.7196,0.010065
2164.6514,0.010036
2165.5833,0.006488
2166.5151,0.002822
2167.4470,0.006172
2168.3788,0.007417
2169.3106,0.008971
2170.2425,0.010939
2171.1743,0.010205
2172.1061,0.007754
2173.0380,0.005577
2173.9698,0.007234
2174.9016,0.009769
2175.8335,0.007397
2176.7653,0.004132
2177.6971,0.006046
2178.6290,0.008286
2179.5608,0.009953
2180.4926,0.008162
2181.4245,0.006750
2182.3563,0.008590
2183.2881,0.009816
2184.2200,0.009581
2185.1518,0.009024
2186.0836,0.006928
2187.0155,0.008198
2187.9473,0.008813
2188.8791,0.009255
2189.8110,0.009344
2190.7428,0.007945
2191.6746,0.007571
2192.6065,0.008153
2193.5383,0.010063
2194.4702,0.011996
2195.4020,0.009760
2196.3338,0.007225
2197.2657,0.006687
2198.1975,0.007661
2199.1293,0.009973
2200.0612,0.010876
2200.9930,0.007078
2201.9248,0.007254
2202.8567,0.010773
2203.7885,0.011019
2204.7203,0.009630
2205.6522,0.007247
2206.5840,0.005085
2207.5158,0.006425
2208.4477,0.007434
2209.3795,0.008530
2210.3113,0.008680
2211.2432,0.007392
2212.1750,0.009781
2213.1068,0.012685
2214.0387,0.012493
2214.9705,0.010494
2215.9023,0.010968
2216.8342,0.011838
2217.7660,0.012198
2218.6978,0.012556
2219.6297,0.012631
2220.5615,0.011765
2221.4934,0.011374
2222.4252,0.009682
2223.3570,0.009878
2224.2889,0.012151
2225.2207,0.010262
2226.1525,0.008507
2227.0844,0.008800
2228.0162,0.007464
2228.9480,0.006634
2229.8799,0.006460
2230.8117,0.006950
2231.7435,0.008044
2232.6754,0.008841
2233.6072,0.010199
2234.5390,0.009509
2235.4709,0.009473
2236.4027,0.010706
2237.3345,0.010040
2238.2664,0.009471
2239.1982,0.008551
2240.1300,0.007385
2241.0619,0.010028
2241.9937,0.012274
2242.9255,0.012017
2243.8574,0.011881
2244.7892,0.012768
2245.7210,0.013595
2246.6529,0.011740
2247.5847,0.010641
2248.5166,0.009372
2249.4484,0.008393
2250.3802,0.009227
2251.3121,0.010593
2252.2439,0.011357
2253.1757,0.011521
2254.1076,0.011178
2255.0394,0.010970
2255.9712,0.010172
2256.9031,0.009984
2257.8349,0.009799
2258.7667,0.008651
2259.6986,0.008407
2260.6304,0.009271
2261.5622,0.010430
2262.4941,0.010146
2263.4259,0.009961
2264.3577,0.010968
2265.2896,0.010511
2266.2214,0.009969
2267.1532,0.009219
2268.0851,0.009412
2269.0169,0.010147
2269.9487,0.010272
2270.8806,0.011076
2271.8124,0.012155
2272.7442,0.012693
2273.6761,0.012880
2274.6079,0.011072
2275.5397,0.008907
2276.4716,0.008809
2277.4034,0.009700
2278.3353,0.008877
2279.2671,0.009361
2280.1989,0.010714
2281.1308,0.010798
2282.0626,0.011046
2282.9944,0.010584
2283.9263,0.009745
2284.8581,0.010683
2285.7899,0.010631
2286.7218,0.010110
2287.6536,0.009828
2288.5854,0.009887
2289.5173,0.009859
2290.4491,0.009882
2291.3809,0.009835
2292.3128,0.009061
2293.2446,0.009761
2294.1764,0.011136
2295.1083,0.010778
2296.0401,0.009791
2296.9719,0.009695
2297.9038,0.010033
2298.8356,0.010590
2299.7674,0.010993
2300.6993,0.010883
2301.6311,0.010521
2302.5629,0.010169
2303.4948,0.010477
2304.4266,0.010739
2305.3585,0.009716
2306.2903,0.009059
2307.2221,0.009096
2308.1540,0.009550
2309.0858,0.010298
2310.0176,0.009873
2310.9495,0.009739
2311.8813,0.010498
2312.8131,0.011178
2313.7450,0.010648
2314.6768,0.009697
2315.6086,0.009663
2316.5405,0.009566
2317.4723,0.009629
2318.4041,0.010022
2319.3360,0.009933
2320.2678,0.009345
2321.1996,0.009856
2322.1315,0.010090
2323.0633,0.010132
2323.9951,0.009885
2324.9270,0.009356
2325.8588,0.008893
2326.7906,0.008883
2327.7225,0.009270
2328.6543,0.009606
2329.5861,0.009803
2330.5180,0.009830
2331.4498,0.010054
2332.3817,0.009954
2333.3135,0.009516
2334.2453,0.009158
2335.1772,0.008730
2336.1090,0.008291
2337.0408,0.008884
2337.9727,0.009910
2338.9045,0.009802
2339.8363,0.009363
2340.7682,0.008823
2341.7000,0.008757
2342.6318,0.009530
2343.5637,0.009458
2344.4955,0.008864
2345.4273,0.009087
2346.3592,0.008825
2347.2910,0.007930
2348.2228,0.008000
2349.1547,0.008619
2350.0865,0.009354
2351.0183,0.009117
2351.9502,0.008756
2352.8820,0.009065
2353.8138,0.009314
2354.7457,0.009098
2355.6775,0.008762
2356.6093,0.008303
2357.5412,0.008858
2358.4730,0.009777
2359.4049,0.009214
2360.3367,0.009228
2361.2685,0.010015
2362.2004,0.009247
2363.1322,0.008353
2364.0640,0.009045
2364.9959,0.009434
2365.9277,0.008745
2366.8595,0.007633
2367.7914,0.006884
2368.7232,0.006997
2369.6550,0.006943
2370.5869,0.006832
2371.5187,0.006860
2372.4505,0.007201
2373.3824,0.007508
2374.3142,0.008081
2375.2460,0.009531
2376.1779,0.008961
2377.1097,0.006643
2378.0415,0.006177
2378.9734,0.006992
2379.9052,0.007540
2380.8370,0.008028
2381.7689,0.008664
2382.7007,0.008663
2383.6325,0.008400
2384.5644,0.008064
2385.4962,0.007532
2386.4281,0.007681
2387.3599,0.008478
2388.2917,0.008507
2389.2236,0.007810
2390.1554,0.007536
2391.0872,0.007847
2392.0191,0.007488
2392.9509,0.006660
2393.8827,0.006793
2394.8146,0.007733
2395.7464,0.008109
2396.6782,0.007767
2397.6101,0.007282
2398.5419,0.006826
2399.4737,0.007126
2400.4056,0.007525
2401.3374,0.007113
2402.2692,0.007002
2403.2011,0.006838
2404.1329,0.007341
2405.0647,0.008223
2405.9966,0.007740
2406.9284,0.006772
2407.8602,0.006833
2408.7921,0.007450
2409.7239,0.007632
2410.6557,0.007617
2411.5876,0.007863
2412.5194,0.007411
2413.4512,0.007146
2414.3831,0.007329
2415.3149,0.007260
2416.2468,0.006804
2417.1786,0.006591
2418.1104,0.007271
2419.0423,0.007992
2419.9741,0.007727
2420.9059,0.007388
2421.8378,0.007182
2422.7696,0.007014
2423.7014,0.006961
2424.6333,0.006991
2425.5651,0.007139
2426.4969,0.007321
2427.4288,0.007522
2428.3606,0.007736
2429.2924,0.007292
2430.2243,0.007065
2431.1561,0.007025
2432.0879,0.005707
2433.0198,0.004940
2433.9516,0.005792
2434.8834,0.005969
2435.8153,0.005977
2436.7471,0.006404
2437.6789,0.006999
2438.6108,0.007037
2439.5426,0.006336
2440.4744,0.006709
2441.4063,0.007296
2442.3381,0.006337
2443.2700,0.006221
2444.2018,0.006325
2445.1336,0.005626
2446.0655,0.005475
2446.9973,0.006026
2447.9291,0.005687
2448.8610,0.004792
2449.7928,0.004978
2450.7246,0.006148
2451.6565,0.006775
2452.5883,0.006716
2453.5201,0.006097
2454.4520,0.006152
2455.3838,0.006844
2456.3156,0.006965
2457.2475,0.006326
2458.1793,0.005565
2459.1111,0.005728
2460.0430,0.006127
2460.9748,0.006638
2461.9066,0.007283
2462.8385,0.006902
2463.7703,0.006498
2464.7021,0.006374
2465.6340,0.005473
2466.5658,0.005119
2467.4976,0.005010
2468.4295,0.005086
2469.3613,0.006475
2470.2932,0.007522
2471.2250,0.006654
2472.1568,0.005513
2473.0887,0.005899
2474.0205,0.005983
2474.9523,0.005953
2475.8842,0.006194
2476.8160,0.005954
2477.7478,0.006284
2478.6797,0.006247
2479.6115,0.005151
2480.5433,0.004964
2481.4752,0.005671
2482.4070,0.006353
2483.3388,0.006531
2484.2707,0.005875
2485.2025,0.004505
2486.1343,0.003691
2487.0662,0.004560
2487.9980,0.006188
2488.9298,0.006733
2489.8617,0.006138
2490.7935,0.005446
2491.7253,0.005467
2492.6572,0.006025
2493.5890,0.006925
2494.5208,0.007134
2495.4527,0.005996
2496.3845,0.005048
2497.3164,0.004749
2498.2482,0.004946
2499.1800,0.005987
2500.1119,0.006315
2501.0437,0.006155
2501.9755,0.006536
2502.9074,0.006947
2503.8392,0.007251
2504.7710,0.006850
2505.7029,0.005314
2506.6347,0.004631
2507.5665,0.005396
2508.4984,0.006212
2509.4302,0.006047
2510.3620,0.006139
2511.2939,0.006629
2512.2257,0.006285
2513.1575,0.005897
2514.0894,0.006035
2515.0212,0.006566
2515.9530,0.006714
2516.8849,0.006486
2517.8167,0.006671
2518.7485,0.005904
2519.6804,0.005891
2520.6122,0.006812
2521.5440,0.006516
2522.4759,0.006011
2523.4077,0.005794
2524.3396,0.005081
2525.2714,0.005087
2526.2032,0.005781
2527.1351,0.006078
2528.0669,0.006206
2528.9987,0.006502
2529.9306,0.007260
2530.8624,0.007391
2531.7942,0.006623
2532.7261,0.006212
2533.6579,0.005767
2534.5897,0.005788
2535.5216,0.005615
2536.4534,0.005261
2537.3852,0.005502
2538.3171,0.005888
2539.2489,0.006185
2540.1807,0.005535
2541.1126,0.004617
2542.0444,0.004953
2542.9762,0.005097
2543.9081,0.004915
2544.8399,0.005713
2545.7717,0.006150
2546.7036,0.005152
2547.6354,0.004674
2548.5672,0.005616
2549.4991,0.006497
2550.4309,0.006657
2551.3627,0.006193
2552.2946,0.005902
2553.2264,0.005641
2554.1583,0.005136
2555.0901,0.005260
2556.0219,0.005317
2556.9538,0.005554
2557.8856,0.005648
2558.8174,0.005592
2559.7493,0.005207
2560.6811,0.005036
2561.6129,0.005827
2562.5448,0.006039
2563.4766,0.005454
2564.4084,0.005257
2565.3403,0.005636
2566.2721,0.006003
2567.2039,0.004965
2568.1358,0.003917
2569.0676,0.004149
2569.9994,0.005176
2570.9313,0.005597
2571.8631,0.005159
2572.7949,0.005317
2573.7268,0.005462
2574.6586,0.005175
2575.5904,0.005209
2576.5223,0.005096
2577.4541,0.004951
2578.3859,0.005229
2579.3178,0.005119
2580.2496,0.005181
2581.1815,0.005656
2582.1133,0.005739
2583.0451,0.005241
2583.9770,0.004461
2584.9088,0.004352
2585.8406,0.005373
2586.7725,0.005962
2587.7043,0.005737
2588.6361,0.005463
2589.5680,0.005358
2590.4998,0.005439
2591.4316,0.005169
2592.3635,0.004811
2593.2953,0.004866
2594.2271,0.005411
2595.1590,0.005177
2596.0908,0.005555
2597.0226,0.006482
2597.9545,0.005770
2598.8863,0.005163
2599.8181,0.005753
2600.7500,0.005672
2601.6818,0.006109
2602.6136,0.006116
2603.5455,0.004999
2604.4773,0.004709
2605.4091,0.005240
2606.3410,0.006058
2607.2728,0.006574
2608.2047,0.005834
2609.1365,0.004887
2610.0683,0.004874
2611.0002,0.005124
2611.9320,0.005551
2612.8638,0.005429
2613.7957,0.004923
2614.7275,0.005018
2615.6593,0.005372
2616.5912,0.005692
2617.5230,0.006038
2618.4548,0.005992
2619.3867,0.006034
2620.3185,0.006158
2621.2503,0.005915
2622.1822,0.006036
2623.1140,0.006435
2624.0458,0.006368
2624.9777,0.005457
2625.9095,0.004943
2626.8413,0.005291
2627.7732,0.005778
2628.7050,0.006220
2629.6368,0.006611
2630.5687,0.006732
2631.5005,0.006471
2632.4323,0.006095
2633.3642,0.005967
2634.2960,0.006528
2635.2279,0.007238
2636.1597,0.007357
2637.0915,0.007105
2638.0234,0.006704
2638.9552,0.006572
2639.8870,0.006521
2640.8189,0.006295
2641.7507,0.006781
2642.6825,0.007372
2643.6144,0.007149
2644.5462,0.006558
2645.4780,0.006159
2646.4099,0.006234
2647.3417,0.006557
2648.2735,0.006917
2649.2054,0.007058
2650.1372,0.007079
2651.0690,0.006847
2652.0009,0.006811
2652.9327,0.006996
2653.8645,0.007253
2654.7964,0.007433
2655.7282,0.007259
2656.6600,0.007027
2657.5919,0.006983
2658.5237,0.006957
2659.4555,0.007157
2660.3874,0.007406
2661.3192,0.007554
2662.2511,0.007412
2663.1829,0.007310
2664.1147,0.007417
2665.0466,0.007628
2665.9784,0.007649
2666.9102,0.007660
2667.8421,0.008125
2668.7739,0.008103
2669.7057,0.007521
2670.6376,0.007647
2671.5694,0.008222
2672.5012,0.008489
2673.4331,0.008342
2674.3649,0.008124
2675.2967,0.008010
2676.2286,0.008117
2677.1604,0.008280
2678.0922,0.008071
2679.0241,0.007786
2679.9559,0.007990
2680.8877,0.008347
2681.8196,0.008215
2682.7514,0.008411
2683.6832,0.008485
2684.6151,0.008052
2685.5469,0.007911
2686.4787,0.008239
2687.4106,0.008269
2688.3424,0.008351
2689.2742,0.008827
2690.2061,0.009124
2691.1379,0.009063
2692.0698,0.008804
2693.0016,0.008979
2693.9334,0.009140
2694.8653,0.008898
2695.7971,0.008916
2696.7289,0.009452
2697.6608,0.009445
2698.5926,0.009013
2699.5244,0.008978
2700.4563,0.009203
2701.3881,0.009295
2702.3199,0.009405
2703.2518,0.009698
2704.1836,0.009738
2705.1154,0.009827
2706.0473,0.009793
2706.9791,0.009876
2707.9109,0.009989
2708.8428,0.009848
2709.7746,0.009781
2710.7064,0.009918
2711.6383,0.009935
2712.5701,0.010065
2713.5019,0.010034
2714.4338,0.009995
2715.3656,0.009942
2716.2974,0.009800
2717.2293,0.010005
2718.1611,0.010004
2719.0930,0.010136
2720.0248,0.010673
2720.9566,0.011203
2721.8885,0.010870
2722.8203,0.010419
2723.7521,0.010450
2724.6840,0.010649
2725.6158,0.010326
2726.5476,0.010303
2727.4795,0.010698
2728.4113,0.011342
2729.3431,0.011724
2730.2750,0.011482
2731.2068,0.010888
2732.1386,0.011037
2733.0705,0.011449
2734.0023,0.011576
2734.9341,0.011390
2735.8660,0.011270
2736.7978,0.011401
2737.7296,0.011709
2738.6615,0.011711
2739.5933,0.011625
2740.5251,0.011689
2741.4570,0.011368
2742.3888,0.011383
2743.3206,0.011778
2744.2525,0.012017
2745.1843,0.012051
2746.1162,0.011996
2747.0480,0.011880
2747.9798,0.012010
2748.9117,0.012287
2749.8435,0.012188
2750.7753,0.012354
2751.7072,0.012612
2752.6390,0.012203
2753.5708,0.012507
2754.5027,0.013242
2755.4345,0.013439
2756.3663,0.013179
2757.2982,0.012752
2758.2300,0.012865
2759.1618,0.013274
2760.0937,0.013282
2761.0255,0.012781
2761.9573,0.012524
2762.8892,0.012388
2763.8210,0.012626
2764.7528,0.013098
2765.6847,0.013313
2766.6165,0.013055
2767.5483,0.012808
2768.4802,0.012797
2769.4120,0.013356
2770.3438,0.013333
2771.2757,0.013193
2772.2075,0.013840
2773.1394,0.013712
2774.0712,0.013314
2775.0030,0.013535
2775.9349,0.014009
2776.8667,0.014169
2777.7985,0.014377
2778.7304,0.014418
2779.6622,0.013579
2780.5940,0.013376
2781.5259,0.014248
2782.4577,0.014736
2783.3895,0.014669
2784.3214,0.014428
2785.2532,0.014504
2786.1850,0.014751
2787.1169,0.014972
2788.0487,0.014827
2788.9805,0.014810
2789.9124,0.015314
2790.8442,0.015589
2791.7760,0.015710
2792.7079,0.015631
2793.6397,0.015413
2794.5715,0.015315
2795.5034,0.015541
2796.4352,0.016011
2797.3670,0.016169
2798.2989,0.016324
2799.2307,0.016209
2800.1626,0.016050
2801.0944,0.016625
2802.0262,0.017076
2802.9581,0.017160
2803.8899,0.017055
2804.8217,0.017135
2805.7536,0.017577
2806.6854,0.017688
2807.6172,0.017967
2808.5491,0.018350
2809.4809,0.018277
2810.4127,0.018202
2811.3446,0.018492
2812.2764,0.019002
2813.2082,0.018987
2814.1401,0.018927
2815.0719,0.019565
2816.0037,0.020157
2816.9356,0.020010
2817.8674,0.019638
2818.7992,0.019974
2819.7311,0.020421
2820.6629,0.020581
2821.5947,0.020507
2822.5266,0.020510
2823.4584,0.021088
2824.3902,0.021307
2825.3221,0.021252
2826.2539,0.021388
2827.1857,0.021549
2828.1176,0.021187
2829.0494,0.021434
2829.9813,0.022326
2830.9131,0.022402
2831.8449,0.021917
2832.7768,0.021917
2833.7086,0.022607
2834.6404,0.022823
2835.5723,0.022978
2836.5041,0.023187
2837.4359,0.023449
2838.3678,0.023178
2839.2996,0.023216
2840.2314,0.023943
2841.1633,0.024417
2842.0951,0.024867
2843.0269,0.025120
2843.9588,0.025194
2844.8906,0.025167
2845.8224,0.025483
2846.7543,0.025765
2847.6861,0.025257
2848.6179,0.025512
2849.5498,0.026211
2850.4816,0.027019
2851.4134,0.027551
2852.3453,0.027634
2853.2771,0.027692
2854.2089,0.028222
2855.1408,0.028370
2856.0726,0.028769
2857.0045,0.028850
2857.9363,0.028899
2858.8681,0.029217
2859.8000,0.029411
2860.7318,0.029488
2861.6636,0.029454
2862.5955,0.029950
2863.5273,0.030612
2864.4591,0.031396
2865.3910,0.032094
2866.3228,0.032297
2867.2546,0.032993
2868.1865,0.033165
2869.1183,0.033439
2870.0501,0.034252
2870.9820,0.034889
2871.9138,0.035332
2872.8456,0.035532
2873.7775,0.035804
2874.7093,0.036662
2875.6411,0.037682
2876.5730,0.038075
2877.5048,0.038393
2878.4366,0.038849
2879.3685,0.039381
2880.3003,0.039776
2881.2321,0.039919
2882.1640,0.039839
2883.0958,0.040560
2884.0277,0.041443
2884.9595,0.042117
2885.8913,0.042620
2886.8232,0.043067
2887.7550,0.043463
2888.6868,0.043801
2889.6187,0.043826
2890.5505,0.043722
2891.4823,0.044804
2892.4142,0.045713
2893.3460,0.045798
2894.2778,0.046083
2895.2097,0.046920
2896.1415,0.047691
2897.0733,0.047844
2898.0052,0.047631
2898.9370,0.048094
2899.8688,0.048936
2900.8007,0.049438
2901.7325,0.049852
2902.6643,0.049794
2903.5962,0.049516
2904.5280,0.049562
2905.4598,0.049954
2906.3917,0.050682
2907.3235,0.050583
2908.2553,0.049667
2909.1872,0.048793
2910.1190,0.048815
2911.0509,0.048538
2911.9827,0.048110
2912.9145,0.047695
2913.8464,0.047481
2914.7782,0.047630
2915.7100,0.047008
2916.6419,0.046558
2917.5737,0.046807
2918.5055,0.047156
2919.4374,0.047368
2920.3692,0.046891
2921.3010,0.046436
2922.2329,0.046661
2923.1647,0.047419
2924.0965,0.047624
2925.0284,0.048213
2925.9602,0.048553
2926.8920,0.048784
2927.8239,0.049436
2928.7557,0.049986
2929.6875,0.050223
2930.6194,0.050420
2931.5512,0.050423
2932.4830,0.050920
2933.4149,0.051029
2934.3467,0.050580
2935.2785,0.050323
2936.2104,0.051098
2937.1422,0.051930
2938.0741,0.051969
2939.0059,0.051447
2939.9377,0.051503
2940.8696,0.051714
2941.8014,0.052257
2942.7332,0.052395
2943.6651,0.052340
2944.5969,0.052668
2945.5287,0.052927
2946.4606,0.052584
2947.3924,0.052861
2948.3242,0.052452
2949.2561,0.052462
2950.1879,0.052711
2951.1197,0.053181
2952.0516,0.053385
2952.9834,0.052808
2953.9152,0.053231
2954.8471,0.053898
2955.7789,0.053690
2956.7107,0.054040
2957.6426,0.054307
2958.5744,0.054570
2959.5062,0.055637
2960.4381,0.057279
2961.3699,0.058667
2962.3017,0.058889
2963.2336,0.059215
2964.1654,0.060325
2965.0972,0.061884
2966.0291,0.063276
2966.9609,0.064893
2967.8928,0.066923
2968.8246,0.068762
2969.7564,0.070577
2970.6883,0.072830
2971.6201,0.075749
2972.5519,0.077947
2973.4838,0.080158
2974.4156,0.082047
2975.3474,0.084401
2976.2793,0.086582
2977.2111,0.088591
2978.1429,0.090727
2979.0748,0.092277
2980.0066,0.093112
2980.9384,0.093807
2981.8703,0.093838
2982.8021,0.093333
2983.7339,0.091780
2984.6658,0.090954
2985.5976,0.089604
2986.5294,0.087576
2987.4613,0.085119
2988.3931,0.082873
2989.3249,0.080603
2990.2568,0.078913
2991.1886,0.076896
2992.1204,0.074728
2993.0523,0.073164
2993.9841,0.071682
2994.9160,0.070074
2995.8478,0.068894
2996.7796,0.067643
2997.7115,0.066579
2998.6433,0.065660
2999.5751,0.064363
3000.5070,0.063221
3001.4388,0.063089
3002.3706,0.063446
3003.3025,0.063426
3004.2343,0.063048
3005.1661,0.062283
3006.0980,0.062197
3007.0298,0.063028
3007.9616,0.063141
3008.8935,0.063361
3009.8253,0.063107
3010.7571,0.062950
3011.6890,0.063631
3012.6208,0.064125
3013.5526,0.063793
3014.4845,0.063323
3015.4163,0.064296
3016.3481,0.065664
3017.2800,0.065459
3018.2118,0.065289
3019.1436,0.066225
3020.0755,0.066769
3021.0073,0.067093
3021.9392,0.068019
3022.8710,0.068768
3023.8028,0.069444
3024.7347,0.069326
3025.6665,0.069701
3026.5983,0.070738
3027.5302,0.070708
3028.4620,0.070804
3029.3938,0.071943
3030.3257,0.072560
3031.2575,0.073509
3032.1893,0.074283
3033.1212,0.074405
3034.0530,0.074463
3034.9848,0.075245
3035.9167,0.076448
3036.8485,0.077198
3037.7803,0.078149
3038.7122,0.078601
3039.6440,0.079189
3040.5758,0.079876
3041.5077,0.079402
3042.4395,0.079714
3043.3713,0.080890
3044.3032,0.082000
3045.2350,0.082606
3046.1668,0.083139
3047.0987,0.083669
3048.0305,0.085070
3048.9624,0.085568
3049.8942,0.085815
3050.8260,0.087385
3051.7579,0.088789
3052.6897,0.088815
3053.6215,0.089490
3054.5534,0.090840
3055.4852,0.091548
3056.4170,0.091577
3057.3489,0.092055
3058.2807,0.092889
3059.2125,0.094168
3060.1444,0.094594
3061.0762,0.095153
3062.0080,0.096528
3062.9399,0.098206
3063.8717,0.098720
3064.8035,0.099037
3065.7354,0.099825
3066.6672,0.101004
3067.5990,0.101691
3068.5309,0.103272
3069.4627,0.105064
3070.3945,0.105701
3071.3264,0.105822
3072.2582,0.106769
3073.1900,0.107615
3074.1219,0.108033
3075.0537,0.109579
3075.9856,0.111058
3076.9174,0.111942
3077.8492,0.112965
3078.7811,0.113763
3079.7129,0.114926
3080.6447,0.115939
3081.5766,0.116014
3082.5084,0.116079
3083.4402,0.117554
3084.3721,0.119631
3085.3039,0.120566
3086.2357,0.120252
3087.1676,0.120906
3088.0994,0.122247
3089.0312,0.123747
3089.9631,0.125026
3090.8949,0.126094
3091.8267,0.126641
3092.7586,0.127440
3093.6904,0.128048
3094.6222,0.130018
3095.5541,0.132572
3096.4859,0.133597
3097.4177,0.133730
3098.3496,0.135072
3099.2814,0.136815
3100.2132,0.138302
3101.1451,0.139540
3102.0769,0.140156
3103.0087,0.140377
3103.9406,0.141306
3104.8724,0.142275
3105.8043,0.144268
3106.7361,0.145984
3107.6679,0.146391
3108.5998,0.147521
3109.5316,0.149377
3110.4634,0.149811
3111.3953,0.150707
3112.3271,0.151146
3113.2589,0.152193
3114.1908,0.153943
3115.1226,0.155026
3116.0544,0.157085
3116.9863,0.159335
3117.9181,0.160151
3118.8499,0.161569
3119.7818,0.162664
3120.7136,0.162905
3121.6454,0.163636
3122.5773,0.164780
3123.5091,0.166442
3124.4409,0.168781
3125.3728,0.170090
3126.3046,0.170623
3127.2364,0.171702
3128.1683,0.173764
3129.1001,0.175673
3130.0319,0.176444
3130.9638,0.176366
3131.8956,0.177444
3132.8275,0.178997
3133.7593,0.180197
3134.6911,0.181881
3135.6230,0.184954
3136.5548,0.187355
3137.4866,0.188789
3138.4185,0.188977
3139.3503,0.189631
3140.2821,0.190494
3141.2140,0.191001
3142.1458,0.192890
3143.0776,0.195458
3144.0095,0.195701
3144.9413,0.195647
3145.8731,0.197024
3146.8050,0.200220
3147.7368,0.202274
3148.6686,0.202435
3149.6005,0.202889
3150.5323,0.204019
3151.4641,0.206016
3152.3960,0.208077
3153.3278,0.208838
3154.2596,0.209994
3155.1915,0.211672
3156.1233,0.213180
3157.0551,0.214454
3157.9870,0.215423
3158.9188,0.216428
3159.8507,0.219492
3160.7825,0.221364
3161.7143,0.221435
3162.6462,0.222850
3163.5780,0.225215
3164.5098,0.226675
3165.4417,0.227875
3166.3735,0.228339
3167.3053,0.228634
3168.2372,0.229833
3169.1690,0.231872
3170.1008,0.233309
3171.0327,0.235035
3171.9645,0.237367
3172.8963,0.238687
3173.8282,0.238637
3174.7600,0.239739
3175.6918,0.241299
3176.6237,0.242431
3177.5555,0.243161
3178.4873,0.244404
3179.4192,0.245659
3180.3510,0.247194
3181.2828,0.248348
3182.2147,0.250188
3183.1465,0.252014
3184.0783,0.253306
3185.0102,0.253823
3185.9420,0.255405
3186.8739,0.257650
3187.8057,0.258214
3188.7375,0.258461
3189.6694,0.260362
3190.6012,0.261498
3191.5330,0.262263
3192.4649,0.262880
3193.3967,0.264290
3194.3285,0.265909
3195.2604,0.267200
3196.1922,0.268082
3197.1240,0.268814
3198.0559,0.270653
3198.9877,0.272902
3199.9195,0.274560
3200.8514,0.276069
3201.7832,0.275648
3202.7150,0.275619
3203.6469,0.276035
3204.5787,0.276889
3205.5105,0.277979
3206.4424,0.278272
3207.3742,0.279278
3208.3060,0.280825
3209.2379,0.281827
3210.1697,0.283172
3211.1015,0.285250
3212.0334,0.286797
3212.9652,0.287515
3213.8971,0.288837
3214.8289,0.289653
3215.7607,0.289720
3216.6926,0.289466
3217.6244,0.288873
3218.5562,0.288889
3219.4881,0.290227
3220.4199,0.290933
3221.3517,0.291585
3222.2836,0.294086
3223.2154,0.296175
3224.1472,0.295914
3225.0791,0.295246
3226.0109,0.295038
3226.9427,0.295783
3227.8746,0.295866
3228.8064,0.296411
3229.7382,0.297811
3230.6701,0.298740
3231.6019,0.300235
3232.5337,0.301048
3233.4656,0.303003
3234.3974,0.305972
3235.3292,0.303886
3236.2611,0.300373
3237.1929,0.301205
3238.1247,0.303277
3239.0566,0.302440
3239.9884,0.301513
3240.9202,0.302370
3241.8521,0.304335
3242.7839,0.306257
3243.7158,0.306288
3244.6476,0.305196
3245.5794,0.305434
3246.5113,0.306426
3247.4431,0.307464
3248.3749,0.307136
3249.3068,0.305608
3250.2386,0.307196
3251.1704,0.308973
3252.1023,0.307238
3253.0341,0.305813
3253.9659,0.306969
3254.8978,0.308300
3255.8296,0.309059
3256.7614,0.309539
3257.6933,0.308243
3258.6251,0.307668
3259.5569,0.309856
3260.4888,0.312027
3261.4206,0.311428
3262.3524,0.309359
3263.2843,0.309152
3264.2161,0.309290
3265.1479,0.308638
3266.0798,0.310183
3267.0116,0.311993
3267.9434,0.310712
3268.8753,0.309998
3269.8071,0.310878
3270.7390,0.311510
3271.6708,0.311726
3272.6026,0.312164
3273.5345,0.312188
3274.4663,0.309812
3275.3981,0.306929
3276.3300,0.308066
3277.2618,0.309870
3278.1936,0.310317
3279.1255,0.311837
3280.0573,0.310193
3280.9891,0.307506
3281.9210,0.308946
3282.8528,0.310933
3283.7846,0.310795
3284.7165,0.310641
3285.6483,0.312104
3286.5801,0.312302
3287.5120,0.311643
3288.4438,0.312374
3289.3756,0.312329
3290.3075,0.311303
3291.2393,0.311650
3292.1711,0.311637
3293.1030,0.311575
3294.0348,0.312484
3294.9666,0.311999
3295.8985,0.309716
3296.8303,0.308816
3297.7622,0.309058
3298.6940,0.309145
3299.6258,0.309172
3300.5577,0.310788
3301.4895,0.312116
3302.4213,0.312391
3303.3532,0.311907
3304.2850,0.311976
3305.2168,0.311594
3306.1487,0.311615
3307.0805,0.312014
3308.0123,0.311977
3308.9442,0.310935
3309.8760,0.309238
3310.8078,0.308772
3311.7397,0.308561
3312.6715,0.308241
3313.6033,0.310978
3314.5352,0.311236
3315.4670,0.309940
3316.3988,0.309676
3317.3307,0.309761
3318.2625,0.311684
3319.1943,0.312399
3320.1262,0.311504
3321.0580,0.312224
3321.9898,0.310378
3322.9217,0.307446
3323.8535,0.307610
3324.7854,0.310963
3325.7172,0.311888
3326.6490,0.310627
3327.5809,0.310148
3328.5127,0.310376
3329.4445,0.309870
3330.3764,0.310137
3331.3082,0.309944
3332.2400,0.311369
3333.1719,0.309960
3334.1037,0.308381
3335.0355,0.310751
3335.9674,0.311872
3336.8992,0.310487
3337.8310,0.311001
3338.7629,0.311981
3339.6947,0.311598
3340.6265,0.309827
3341.5584,0.310887
3342.4902,0.311879
3343.4220,0.311137
3344.3539,0.309921
3345.2857,0.311212
3346.2175,0.311259
3347.1494,0.311141
3348.0812,0.310726
3349.0130,0.310038
3349.9449,0.310260
3350.8767,0.310844
3351.8086,0.309632
3352.7404,0.309607
3353.6722,0.309695
3354.6041,0.310145
3355.5359,0.309235
3356.4677,0.308150
3357.3996,0.306490
3358.3314,0.306083
3359.2632,0.308005
3360.1951,0.308263
3361.1269,0.307037
3362.0587,0.305365
3362.9906,0.303821
3363.9224,0.305319
3364.8542,0.305356
3365.7861,0.303786
3366.7179,0.304754
3367.6497,0.307275
3368.5816,0.304831
3369.5134,0.304007
3370.4452,0.304151
3371.3771,0.302591
3372.3089,0.302387
3373.2407,0.301507
3374.1726,0.298769
3375.1044,0.299254
3376.0362,0.298962
3376.9681,0.297654
3377.8999,0.299085
3378.8317,0.301717
3379.7636,0.300163
3380.6954,0.299253
3381.6273,0.297787
3382.5591,0.297068
3383.4909,0.297905
3384.4228,0.297537
3385.3546,0.296099
3386.2864,0.296699
3387.2183,0.296198
3388.1501,0.295579
3389.0819,0.294235
3390.0138,0.293027
3390.9456,0.292645
3391.8774,0.292846
3392.8093,0.290685
3393.7411,0.290872
3394.6729,0.290002
3395.6048,0.286506
3396.5366,0.285522
3397.4684,0.285214
3398.4003,0.283028
3399.3321,0.283909
3400.2639,0.287816
3401.1958,0.288328
3402.1276,0.284503
3403.0594,0.280759
3403.9913,0.278778
3404.9231,0.277178
3405.8549,0.274457
3406.7868,0.274267
3407.7186,0.274597
3408.6505,0.276352
3409.5823,0.277304
3410.5141,0.276695
3411.4460,0.272856
3412.3778,0.270225
3413.3096,0.270396
3414.2415,0.271823
3415.1733,0.268153
3416.1051,0.269051
3417.0370,0.270552
3417.9688,0.270000
3418.9006,0.267969
3419.8325,0.266555
3420.7643,0.265215
3421.6961,0.265876
3422.6280,0.264817
3423.5598,0.263300
3424.4916,0.260748
3425.4235,0.258826
3426.3553,0.256757
3427.2871,0.257339
3428.2190,0.256587
3429.1508,0.256300
3430.0826,0.254605
3431.0145,0.255471
3431.9463,0.254600
3432.8781,0.251917
3433.8100,0.250583
3434.7418,0.251046
3435.6737,0.248235
3436.6055,0.245484
3437.5373,0.245792
3438.4692,0.246339
3439.4010,0.243653
3440.3328,0.242643
3441.2647,0.240903
3442.1965,0.238708
3443.1283,0.239690
3444.0602,0.238724
3444.9920,0.235731
3445.9238,0.235731
3446.8557,0.234891
3447.7875,0.234538
3448.7193,0.231732
3449.6512,0.230155
3450.5830,0.230168
3451.5148,0.232423
3452.4467,0.231815
3453.3785,0.229152
3454.3103,0.226169
3455.2422,0.223983
3456.1740,0.223300
3457.1058,0.224396
3458.0377,0.222972
3458.9695,0.220501
3459.9013,0.218044
3460.8332,0.219495
3461.7650,0.219498
3462.6969,0.219099
3463.6287,0.217181
3464.5605,0.215817
3465.4924,0.215072
3466.4242,0.215409
3467.3560,0.213166
3468.2879,0.208919
3469.2197,0.208694
3470.1515,0.210626
3471.0834,0.206902
3472.0152,0.204036
3472.9470,0.202306
3473.8789,0.202757
3474.8107,0.203604
3475.7425,0.201397
3476.6744,0.198683
3477.6062,0.200380
3478.5380,0.201113
3479.4699,0.199862
3480.4017,0.198074
3481.3335,0.194716
3482.2654,0.192115
3483.1972,0.192040
3484.1290,0.190548
3485.0609,0.190095
3485.9927,0.190046
3486.9245,0.189507
3487.8564,0.186111
3488.7882,0.185325
3489.7201,0.185961
3490.6519,0.183784
3491.5837,0.181880
3492.5156,0.182324
3493.4474,0.181642
3494.3792,0.180020
3495.3111,0.177719
3496.2429,0.180874
3497.1747,0.182080
3498.1066,0.179047
3499.0384,0.177907
3499.9702,0.177255
3500.9021,0.173590
3501.8339,0.172179
3502.7657,0.171927
3503.6976,0.171648
3504.6294,0.170985
3505.5612,0.168675
3506.4931,0.166081
3507.4249,0.166554
3508.3567,0.165423
3509.2886,0.165853
3510.2204,0.166216
3511.1522,0.163420
3512.0841,0.161057
3513.0159,0.163267
3513.9477,0.162296
3514.8796,0.160148
3515.8114,0.158519
3516.7432,0.156042
3517.6751,0.152539
3518.6069,0.151203
3519.5388,0.150500
3520.4706,0.150057
3521.4024,0.151558
3522.3343,0.150731
3523.2661,0.148452
3524.1979,0.147614
3525.1298,0.145810
3526.0616,0.144905
3526.9934,0.143765
3527.9253,0.143064
3528.8571,0.143333
3529.7889,0.143767
3530.7208,0.141743
3531.6526,0.139397
3532.5844,0.138483
3533.5163,0.138827
3534.4481,0.136321
3535.3799,0.135025
3536.3118,0.134761
3537.2436,0.134574
3538.1754,0.132809
3539.1073,0.131673
3540.0391,0.131375
3540.9709,0.130542
3541.9028,0.130497
3542.8346,0.130335
3543.7664,0.128832
3544.6983,0.127703
3545.6301,0.125552
3546.5620,0.125019
3547.4938,0.124105
3548.4256,0.120174
3549.3575,0.118427
3550.2893,0.119152
3551.2211,0.119823
3552.1530,0.118232
3553.0848,0.115961
3554.0166,0.116158
3554.9485,0.116817
3555.8803,0.115518
3556.8121,0.112924
3557.7440,0.112764
3558.6758,0.114490
3559.6076,0.112847
3560.5395,0.110307
3561.4713,0.108792
3562.4031,0.107762
3563.3350,0.109374
3564.2668,0.109208
3565.1986,0.106847
3566.1305,0.104924
3567.0623,0.103542
3567.9941,0.104389
3568.9260,0.106450
3569.8578,0.106170
3570.7896,0.101907
3571.7215,0.098054
3572.6533,0.096516
3573.5852,0.097644
3574.5170,0.098537
3575.4488,0.096710
3576.3807,0.095840
3577.3125,0.096339
3578.2443,0.096013
3579.1762,0.093772
3580.1080,0.090823
3581.0398,0.090331
3581.9717,0.090048
3582.9035,0.089767
3583.8353,0.088451
3584.7672,0.086377
3585.6990,0.084725
3586.6308,0.085858
3587.5627,0.086054
3588.4945,0.083458
3589.4263,0.084119
3590.3582,0.083030
3591.2900,0.083586
3592.2218,0.085058
3593.1537,0.082735
3594.0855,0.078562
3595.0173,0.078017
3595.9492,0.077618
3596.8810,0.076686
3597.8128,0.074890
3598.7447,0.073833
3599.6765,0.072884
3600.6084,0.072849
3601.5402,0.072557
3602.4720,0.072909
3603.4039,0.072643
3604.3357,0.071033
3605.2675,0.069893
3606.1994,0.069961
3607.1312,0.070026
3608.0630,0.068342
3608.9949,0.067703
3609.9267,0.067640
3610.8585,0.065736
3611.7904,0.064975
3612.7222,0.064006
3613.6540,0.063988
3614.5859,0.063491
3615.5177,0.063443
3616.4495,0.062318
3617.3814,0.060690
3618.3132,0.059441
3619.2450,0.060060
3620.1769,0.058997
3621.1087,0.059476
3622.0405,0.060107
3622.9724,0.059092
3623.9042,0.057214
3624.8360,0.056069
3625.7679,0.055068
3626.6997,0.054810
3627.6316,0.055275
3628.5634,0.054425
3629.4952,0.051526
3630.4271,0.051444
3631.3589,0.053067
3632.2907,0.052536
3633.2226,0.049510
3634.1544,0.048870
3635.0862,0.049577
3636.0181,0.049605
3636.9499,0.047992
3637.8817,0.047863
3638.8136,0.047959
3639.7454,0.045633
3640.6772,0.044144
3641.6091,0.043877
3642.5409,0.043169
3643.4727,0.042796
3644.4046,0.042616
3645.3364,0.042695
3646.2682,0.042404
3647.2001,0.041983
3648.1319,0.040217
3649.0637,0.038082
3649.9956,0.037554
3650.9274,0.039523
3651.8592,0.038637
3652.7911,0.035199
3653.7229,0.034375
3654.6547,0.035414
3655.5866,0.034774
3656.5184,0.033819
3657.4503,0.033568
3658.3821,0.033697
3659.3139,0.032885
3660.2458,0.031321
3661.1776,0.030879
3662.1094,0.030698
3663.0413,0.029572
3663.9731,0.029590
3664.9049,0.029725
3665.8368,0.028647
3666.7686,0.027128
3667.7004,0.025543
3668.6323,0.024844
3669.5641,0.025640
3670.4959,0.024859
3671.4278,0.023214
3672.3596,0.022170
3673.2914,0.022103
3674.2233,0.021303
3675.1551,0.018941
3676.0869,0.018491
3677.0188,0.019431
3677.9506,0.017877
3678.8824,0.014988
3679.8143,0.016207
3680.7461,0.016273
3681.6779,0.015907
3682.6098,0.016044
3683.5416,0.015363
3684.4735,0.014253
3685.4053,0.014074
3686.3371,0.014561
3687.2690,0.013641
3688.2008,0.012595
3689.1326,0.012265
3690.0645,0.012449
3690.9963,0.012140
3691.9281,0.011502
3692.8600,0.010764
3693.7918,0.010400
3694.7236,0.011224
3695.6555,0.011436
3696.5873,0.010444
3697.5191,0.009349
3698.4510,0.007750
3699.3828,0.008424
3700.3146,0.010062
3701.2465,0.009497
3702.1783,0.007929
3703.1101,0.006926
3704.0420,0.006622
3704.9738,0.007711
3705.9056,0.006847
3706.8375,0.005968
3707.7693,0.006360
3708.7011,0.006165
3709.6330,0.006224
3710.5648,0.006786
3711.4967,0.006881
3712.4285,0.007058
3713.3603,0.006242
3714.2922,0.005007
3715.2240,0.004811
3716.1558,0.004505
3717.0877,0.004938
3718.0195,0.005855
3718.9513,0.005193
3719.8832,0.005545
3720.8150,0.006129
3721.7468,0.005175
3722.6787,0.004586
3723.6105,0.005135
3724.5423,0.004350
3725.4742,0.003052
3726.4060,0.002888
3727.3378,0.003767
3728.2697,0.005314
3729.2015,0.005931
3730.1333,0.004473
3731.0652,0.002499
3731.9970,0.002862
3732.9288,0.004500
3733.8607,0.003364
3734.7925,0.001785
3735.7243,0.002202
3736.6562,0.002776
3737.5880,0.003310
3738.5199,0.003112
3739.4517,0.002157
3740.3835,0.002894
3741.3154,0.003016
3742.2472,0.002663
3743.1790,0.002158
3744.1109,0.003459
3745.0427,0.005093
3745.9745,0.004159
3746.9064,0.003123
3747.8382,0.003152
3748.7700,0.003070
3749.7019,0.002451
3750.6337,0.000334
3751.5655,-0.000354
3752.4974,0.000480
3753.4292,0.001147
3754.3610,0.001858
3755.2929,0.002572
3756.2247,0.002116
3757.1565,0.002089
3758.0884,0.002289
3759.0202,0.002349
3759.9520,0.003439
3760.8839,0.003355
3761.8157,0.002752
3762.7475,0.003308
3763.6794,0.003612
3764.6112,0.002957
3765.5431,0.002688
3766.4749,0.002798
3767.4067,0.003373
3768.3386,0.003797
3769.2704,0.003310
3770.2022,0.002551
3771.1341,0.002632
3772.0659,0.002222
3772.9977,0.001599
3773.9296,0.001822
3774.8614,0.001901
3775.7932,0.002194
3776.7251,0.002293
3777.6569,0.002443
3778.5887,0.002886
3779.5206,0.002320
3780.4524,0.002026
3781.3842,0.002011
3782.3161,0.001830
3783.2479,0.002322
3784.1797,0.003111
3785.1116,0.003121
3786.0434,0.001935
3786.9752,0.001127
3787.9071,0.001823
3788.8389,0.003319
3789.7707,0.003627
3790.7026,0.003009
3791.6344,0.002310
3792.5662,0.001962
3793.4981,0.002120
3794.4299,0.002722
3795.3618,0.002592
3796.2936,0.002091
3797.2254,0.001983
3798.1573,0.001967
3799.0891,0.002424
3800.0209,0.002798
3800.9528,0.002030
3801.8846,0.001740
3802.8164,0.002056
3803.7483,0.001935
3804.6801,0.001017
3805.6119,0.001078
3806.5438,0.001814
3807.4756,0.001215
3808.4074,0.001044
3809.3393,0.001359
3810.2711,0.000832
3811.2029,0.001246
3812.1348,0.001911
3813.0666,0.002600
3813.9984,0.002461
3814.9303,0.002020
3815.8621,0.002315
3816.7939,0.003061
3817.7258,0.003054
3818.6576,0.002153
3819.5894,0.002028
3820.5213,0.002755
3821.4531,0.002723
3822.3850,0.003157
3823.3168,0.003845
3824.2486,0.002705
3825.1805,0.000487
3826.1123,0.000380
3827.0441,0.001295
3827.9760,0.000874
3828.9078,0.000405
3829.8396,0.001297
3830.7715,0.001577
3831.7033,0.001375
3832.6351,0.002203
3833.5670,0.002590
3834.4988,0.001214
3835.4306,0.000245
3836.3625,0.000089
3837.2943,-0.000200
3838.2261,0.000080
3839.1580,0.001157
3840.0898,0.001767
3841.0216,0.001979
3841.9535,0.001063
3842.8853,0.000480
3843.8171,0.001230
3844.7490,0.001717
3845.6808,0.002861
3846.6126,0.003384
3847.5445,0.002607
3848.4763,0.001622
3849.4082,0.001711
3850.3400,0.002020
3851.2718,0.001555
3852.2037,0.001407
3853.1355,0.001796
3854.0673,0.000383
3854.9992,-0.001056
3855.9310,0.000513
3856.8628,0.000897
3857.7947,-0.000411
3858.7265,-0.000010
3859.6583,0.001380
3860.5902,0.001649
3861.5220,0.001544
3862.4538,0.001521
3863.3857,0.001622
3864.3175,0.001373
3865.2493,0.000971
3866.1812,0.000624
3867.1130,0.000719
3868.0448,0.001416
3868.9767,0.002376
3869.9085,0.001749
3870.8403,0.001184
3871.7722,0.002518
3872.7040,0.003069
3873.6358,0.001021
3874.5677,-0.000496
3875.4995,0.000608
3876.4314,0.002216
3877.3632,0.001719
3878.2950,0.001397
3879.2269,0.001632
3880.1587,0.001881
3881.0905,0.001576
3882.0224,0.001715
3882.9542,0.002754
3883.8860,0.002173
3884.8179,0.000754
3885.7497,0.000301
3886.6815,0.000903
3887.6134,0.001872
3888.5452,0.001771
3889.4770,0.000868
3890.4089,0.000829
3891.3407,0.001301
3892.2725,0.001510
3893.2044,0.002070
3894.1362,0.001747
3895.0680,0.001091
3895.9999,0.000542
3896.9317,0.000044
3897.8635,0.000207
3898.7954,0.001234
3899.7272,0.001216
3900.6590,0.001679
3901.5909,0.003185
3902.5227,0.003414
3903.4546,0.002408
3904.3864,0.002102
3905.3182,0.001550
3906.2501,0.000028
3907.1819,-0.000096
3908.1137,0.000382
3909.0456,0.000657
3909.9774,0.001298
3910.9092,0.001481
3911.8411,0.001340
3912.7729,0.001740
3913.7047,0.002559
3914.6366,0.002627
3915.5684,0.002334
3916.5002,0.002036
3917.4321,0.002167
3918.3639,0.002307
3919.2957,0.001454
3920.2276,0.000752
3921.1594,0.001612
3922.0912,0.001439
3923.0231,0.001123
3923.9549,0.002178
3924.8867,0.003203
3925.8186,0.002991
3926.7504,0.002144
3927.6822,0.001989
3928.6141,0.002628
3929.5459,0.002686
3930.4777,0.002119
3931.4096,0.001265
3932.3414,0.001282
3933.2733,0.001866
3934.2051,0.001737
3935.1369,0.000942
3936.0688,0.001423
3937.0006,0.001518
3937.9324,0.001144
3938.8643,0.001279
3939.7961,0.001545
3940.7279,0.001754
3941.6598,0.001780
3942.5916,0.001211
3943.5234,0.001097
3944.4553,0.001771
3945.3871,0.002171
3946.3189,0.001756
3947.2508,0.002167
3948.1826,0.002849
3949.1144,0.002815
3950.0463,0.002296
3950.9781,0.001942
3951.9099,0.001843
3952.8418,0.002058
3953.7736,0.001702
3954.7054,0.001606
3955.6373,0.002129
3956.5691,0.001989
3957.5009,0.001532
3958.4328,0.001851
3959.3646,0.001980
3960.2965,0.001933
3961.2283,0.002295
3962.1601,0.003167
3963.0920,0.003693
3964.0238,0.002870
3964.9556,0.001641
3965.8875,0.001625
3966.8193,0.001637
3967.7511,0.001348
3968.6830,0.001747
3969.6148,0.002131
3970.5466,0.001611
3971.4785,0.001189
3972.4103,0.001016
3973.3421,0.001479
3974.2740,0.001888
3975.2058,0.002016
3976.1376,0.001685
3977.0695,0.001161
3978.0013,0.001523
3978.9331,0.002273
3979.8650,0.002128
3980.7968,0.002435
3981.7286,0.002989
3982.6605,0.003557
3983.5923,0.003121
3984.5241,0.001894
3985.4560,0.002550
3986.3878,0.004099
3987.3197,0.003228
3988.2515,0.001411
3989.1833,0.001017
3990.1152,0.001935
3991.0470,0.001740
3991.9788,0.001308
3992.9107,0.001517
3993.8425,0.001697
3994.7743,0.001468
3995.7062,0.001907
3996.6380,0.002231
3997.5698,0.001760
3998.5017,0.001611
3999.4335,0.001330
4000.3653,0.001620
