Wavenumber,Intensity
650.4205,0.402340
651.3523,0.384324
652.2841,0.381993
653.2160,0.389571
654.1478,0.404018
655.0796,0.400451
656.0115,0.375289
656.9433,0.367863
657.8751,0.376422
658.8070,0.387403
659.7388,0.392996
660.6706,0.385900
661.6025,0.374212
662.5343,0.366480
663.4661,0.372599
664.3980,0.378360
665.3298,0.370763
666.2616,0.363439
667.1935,0.363900
668.1253,0.382731
669.0571,0.378932
669.9890,0.359707
670.9208,0.360481
671.8526,0.370658
672.7845,0.369472
673.7163,0.360263
674.6481,0.352425
675.5800,0.350664
676.5118,0.354355
677.4437,0.357716
678.3755,0.358073
679.3073,0.360583
680.2392,0.357454
681.1710,0.354337
682.1028,0.347213
683.0347,0.340213
683.9665,0.344887
684.8983,0.351731
685.8302,0.349490
686.7620,0.343060
687.6938,0.340996
688.6257,0.344283
689.5575,0.343233
690.4893,0.339501
691.4212,0.336126
692.3530,0.335924
693.2848,0.335464
694.2167,0.335432
695.1485,0.336219
696.0803,0.332891
697.0122,0.331792
697.9440,0.333848
698.8758,0.331187
699.8077,0.330809
700.7395,0.329555
701.6713,0.327338
702.6032,0.325254
703.5350,0.323267
704.4669,0.324587
705.3987,0.325094
706.3305,0.317205
707.2624,0.312953
708.1942,0.314312
709.1260,0.312710
710.0579,0.309869
710.9897,0.311208
711.9215,0.310110
712.8534,0.308109
713.7852,0.306548
714.7170,0.304522
715.6489,0.304266
716.5807,0.304463
717.5125,0.302345
718.4444,0.301654
719.3762,0.299157
720.3080,0.296501
721.2399,0.297297
722.1717,0.300187
723.1035,0.297928
724.0354,0.291311
724.9672,0.290871
725.8990,0.291905
726.8309,0.288821
727.7627,0.288424
728.6945,0.287112
729.6264,0.286844
730.5582,0.286593
731.4901,0.283938
732.4219,0.281710
733.3537,0.280783
734.2856,0.280366
735.2174,0.279530
736.1492,0.276431
737.0811,0.273448
738.0129,0.273089
738.9447,0.273006
739.8766,0.271877
740.8084,0.271593
741.7402,0.270106
742.6721,0.267725
743.6039,0.264538
744.5357,0.264009
745.4676,0.263643
746.3994,0.263683
747.3312,0.262208
748.2631,0.258858
749.1949,0.258053
750.1267,0.257809
751.0586,0.254725
751.9904,0.254389
752.9222,0.254690
753.8541,0.252290
754.7859,0.251345
755.7177,0.249413
756.6496,0.246044
757.5814,0.245340
758.5132,0.245897
759.4451,0.246217
760.3769,0.244057
761.3088,0.240221
762.2406,0.238586
763.1724,0.237540
764.1043,0.237074
765.0361,0.237199
765.9679,0.236218
766.8998,0.235298
767.8316,0.234553
768.7634,0.232069
769.6953,0.229747
770.6271,0.229466
771.5589,0.229324
772.4908,0.227590
773.4226,0.225870
774.3544,0.225173
775.2863,0.222147
776.2181,0.220403
777.1499,0.219838
778.0818,0.219598
779.0136,0.219971
779.9454,0.218930
780.8773,0.215889
781.8091,0.214604
782.7409,0.213179
783.6728,0.212195
784.6046,0.211401
785.5364,0.209210
786.4683,0.207222
787.4001,0.206296
788.3320,0.205444
789.2638,0.203836
790.1956,0.202255
791.1275,0.202208
792.0593,0.200892
792.9911,0.198852
793.9230,0.197609
794.8548,0.196885
795.7866,0.196039
796.7185,0.194774
797.6503,0.194017
798.5821,0.193551
799.5140,0.192456
800.4458,0.191165
801.3776,0.189347
802.3095,0.187706
803.2413,0.186561
804.1731,0.186408
805.1050,0.185597
806.0368,0.185362
806.9686,0.183512
807.9005,0.180801
808.8323,0.179574
809.7641,0.179326
810.6960,0.177517
811.6278,0.176090
812.5596,0.174941
813.4915,0.173397
814.4233,0.171857
815.3552,0.169753
816.2870,0.167745
817.2188,0.167153
818.1507,0.166236
819.0825,0.166311
820.0143,0.165869
820.9462,0.164540
821.8780,0.162982
822.8098,0.161529
823.7417,0.160190
824.6735,0.159131
825.6053,0.157920
826.5372,0.156498
827.4690,0.154879
828.4008,0.154948
829.3327,0.154565
830.2645,0.152182
831.1963,0.149847
832.1282,0.149403
833.0600,0.149545
833.9918,0.148913
834.9237,0.147536
835.8555,0.146460
836.7873,0.144816
837.7192,0.143686
838.6510,0.143424
839.5828,0.142601
840.5147,0.141295
841.4465,0.140434
842.3784,0.140152
843.3102,0.139345
844.2420,0.138134
845.1739,0.136696
846.1057,0.135202
847.0375,0.134011
847.9694,0.132811
848.9012,0.131838
849.8330,0.131850
850.7649,0.131651
851.6967,0.130261
852.6285,0.129369
853.5604,0.128828
854.4922,0.128156
855.4240,0.127788
856.3559,0.127106
857.2877,0.126051
858.2195,0.126047
859.1514,0.125745
860.0832,0.125490
861.0150,0.124962
861.9469,0.123746
862.8787,0.123174
863.8105,0.123395
864.7424,0.123888
865.6742,0.124486
866.6060,0.124765
867.5379,0.125202
868.4697,0.126621
869.4016,0.128393
870.3334,0.129876
871.2652,0.131959
872.1971,0.134355
873.1289,0.137453
874.0607,0.140787
874.9926,0.143826
875.9244,0.146666
876.8562,0.149188
877.7881,0.150056
878.7199,0.149641
879.6517,0.147213
880.5836,0.142264
881.5154,0.136645
882.4472,0.131398
883.3791,0.126334
884.3109,0.121251
885.2427,0.116321
886.1746,0.111438
887.1064,0.107648
888.0382,0.104697
888.9701,0.102024
889.9019,0.099920
890.8337,0.097758
891.7656,0.095523
892.6974,0.094232
893.6292,0.093115
894.5611,0.091764
895.4929,0.090487
896.4247,0.089942
897.3566,0.089163
898.2884,0.088035
899.2203,0.087132
900.1521,0.086174
901.0839,0.085218
902.0158,0.084445
902.9476,0.084175
903.8794,0.083700
904.8113,0.082891
905.7431,0.082331
906.6749,0.081774
907.6068,0.080885
908.5386,0.080115
909.4704,0.079652
910.4023,0.079271
911.3341,0.078859
912.2659,0.078079
913.1978,0.077140
914.1296,0.076841
915.0614,0.076886
915.9933,0.076509
916.9251,0.075696
917.8569,0.075464
918.7888,0.075133
919.7206,0.074421
920.6524,0.073944
921.5843,0.073635
922.5161,0.073176
923.4479,0.072857
924.3798,0.072707
925.3116,0.072432
926.2435,0.071560
927.1753,0.071023
928.1071,0.070937
929.0390,0.070450
929.9708,0.069932
930.9026,0.069394
931.8345,0.068807
932.7663,0.068751
933.6981,0.068476
934.6300,0.067853
935.5618,0.067090
936.4936,0.066757
937.4255,0.066710
938.3573,0.066035
939.2891,0.065733
940.2210,0.065675
941.1528,0.065415
942.0846,0.065248
943.0165,0.065089
943.9483,0.064781
944.8801,0.064213
945.8120,0.063620
946.7438,0.063273
947.6756,0.063091
948.6075,0.062914
949.5393,0.062931
950.4711,0.062849
951.4030,0.062248
952.3348,0.061524
953.2667,0.061310
954.1985,0.061327
955.1303,0.061097
956.0622,0.060788
956.9940,0.060453
957.9258,0.060265
958.8577,0.060305
959.7895,0.060156
960.7213,0.059742
961.6532,0.059534
962.5850,0.059515
963.5168,0.059596
964.4487,0.059735
965.3805,0.059564
966.3123,0.059341
967.2442,0.059267
968.1760,0.059252
969.1078,0.058990
970.0397,0.058957
970.9715,0.058847
971.9033,0.058659
972.8352,0.058380
973.7670,0.058376
974.6988,0.058638
975.6307,0.058659
976.5625,0.058860
977.4943,0.058914
978.4262,0.058870
979.3580,0.058856
980.2899,0.058921
981.2217,0.059020
982.1535,0.058842
983.0854,0.058674
984.0172,0.059114
984.9490,0.059676
985.8809,0.059829
986.8127,0.060034
987.7445,0.060501
988.6764,0.060577
989.6082,0.060622
990.5400,0.060549
991.4719,0.060596
992.4037,0.060957
993.3355,0.061155
994.2674,0.060999
995.1992,0.061072
996.1310,0.060960
997.0629,0.060834
997.9947,0.061062
998.9265,0.061236
999.8584,0.061379
1000.7902,0.061719
1001.7220,0.061873
1002.6539,0.061829
1003.5857,0.061997
1004.5175,0.062290
1005.4494,0.062533
1006.3812,0.062833
1007.3131,0.063172
1008.2449,0.063829
1009.1767,0.064416
1010.1086,0.064658
1011.0404,0.065040
1011.9722,0.065426
1012.9041,0.066015
1013.8359,0.066961
1014.7677,0.067883
1015.6996,0.068592
1016.6314,0.069240
1017.5632,0.070131
1018.4951,0.071102
1019.4269,0.072413
1020.3587,0.073831
1021.2906,0.074934
1022.2224,0.076283
1023.1542,0.078079
1024.0861,0.079953
1025.0179,0.082062
1025.9497,0.084479
1026.8816,0.087325
1027.8134,0.090162
1028.7452,0.092998
1029.6771,0.096184
1030.6089,0.099990
1031.5407,0.104501
1032.4726,0.109723
1033.4044,0.115588
1034.3362,0.122357
1035.2681,0.130073
1036.1999,0.138649
1037.1318,0.148167
1038.0636,0.158323
1038.9954,0.169043
1039.9273,0.180221
1040.8591,0.190913
1041.7909,0.200251
1042.7228,0.207459
1043.6546,0.211726
1044.5864,0.212559
1045.5183,0.209811
1046.4501,0.203573
1047.3819,0.194336
1048.3138,0.182907
1049.2456,0.170751
1050.1774,0.158226
1051.1093,0.145697
1052.0411,0.133842
1052.9729,0.123639
1053.9048,0.114496
1054.8366,0.106175
1055.7684,0.099294
1056.7003,0.093790
1057.6321,0.089131
1058.5639,0.085448
1059.4958,0.082647
1060.4276,0.080361
1061.3594,0.078368
1062.2913,0.076934
1063.2231,0.076108
1064.1550,0.075521
1065.0868,0.074937
1066.0186,0.074714
1066.9505,0.074847
1067.8823,0.075194
1068.8141,0.075447
1069.7460,0.076010
1070.6778,0.076870
1071.6096,0.077814
1072.5415,0.079047
1073.4733,0.080555
1074.4051,0.082186
1075.3370,0.083863
1076.2688,0.085606
1077.2006,0.087757
1078.1325,0.089789
1079.0643,0.091730
1079.9961,0.093896
1080.9280,0.096089
1081.8598,0.097735
1082.7916,0.098696
1083.7235,0.099441
1084.6553,0.099927
1085.5871,0.099872
1086.5190,0.099165
1087.4508,0.097609
1088.3826,0.095155
1089.3145,0.092589
1090.2463,0.089715
1091.1782,0.086394
1092.1100,0.082883
1093.0418,0.079573
1093.9737,0.076353
1094.9055,0.073248
1095.8373,0.070581
1096.7692,0.068022
1097.7010,0.065815
1098.6328,0.064031
1099.5647,0.062300
1100.4965,0.060768
1101.4283,0.059660
1102.3602,0.058668
1103.2920,0.057878
1104.2238,0.057235
1105.1557,0.056343
1106.0875,0.055462
1107.0193,0.054797
1107.9512,0.054036
1108.8830,0.053382
1109.8148,0.052942
1110.7467,0.052686
1111.6785,0.052492
1112.6103,0.052228
1113.5422,0.051877
1114.4740,0.051557
1115.4058,0.051112
1116.3377,0.050859
1117.2695,0.050544
1118.2014,0.050400
1119.1332,0.050296
1120.0650,0.050074
1120.9969,0.049926
1121.9287,0.049941
1122.8605,0.049998
1123.7924,0.050014
1124.7242,0.050094
1125.6560,0.049951
1126.5879,0.049743
1127.5197,0.049630
1128.4515,0.049510
1129.3834,0.049547
1130.3152,0.049613
1131.2470,0.049484
1132.1789,0.049217
1133.1107,0.048861
1134.0425,0.048581
1134.9744,0.048639
1135.9062,0.048797
1136.8380,0.048644
1137.7699,0.048520
1138.7017,0.048447
1139.6335,0.048113
1140.5654,0.047833
1141.4972,0.047920
1142.4290,0.048061
1143.3609,0.047880
1144.2927,0.047595
1145.2246,0.047593
1146.1564,0.047750
1147.0882,0.047710
1148.0201,0.047524
1148.9519,0.047455
1149.8837,0.047446
1150.8156,0.047312
1151.7474,0.047363
1152.6792,0.047484
1153.6111,0.047326
1154.5429,0.047099
1155.4747,0.046954
1156.4066,0.046806
1157.3384,0.046563
1158.2702,0.046402
1159.2021,0.046342
1160.1339,0.046173
1161.0657,0.045862
1161.9976,0.045706
1162.9294,0.045555
1163.8612,0.045241
1164.7931,0.045022
1165.7249,0.044826
1166.6567,0.044519
1167.5886,0.044351
1168.5204,0.044153
1169.4522,0.043899
1170.3841,0.043780
1171.3159,0.043677
1172.2477,0.043591
1173.1796,0.043514
1174.1114,0.043380
1175.0433,0.043400
1175.9751,0.043510
1176.9069,0.043477
1177.8388,0.043286
1178.7706,0.043163
1179.7024,0.043070
1180.6343,0.042913
1181.5661,0.042812
1182.4979,0.042797
1183.4298,0.042985
1184.3616,0.042908
1185.2934,0.042927
1186.2253,0.043311
1187.1571,0.043557
1188.0889,0.043347
1189.0208,0.043107
1189.9526,0.043353
1190.8844,0.043370
1191.8163,0.043176
1192.7481,0.043052
1193.6799,0.043133
1194.6118,0.043261
1195.5436,0.043189
1196.4754,0.043202
1197.4073,0.043183
1198.3391,0.043143
1199.2709,0.043406
1200.2028,0.043601
1201.1346,0.043369
1202.0665,0.043174
1202.9983,0.043167
1203.9301,0.043061
1204.8620,0.043118
1205.7938,0.043464
1206.7256,0.043591
1207.6575,0.043443
1208.5893,0.043354
1209.5211,0.043621
1210.4530,0.043723
1211.3848,0.043704
1212.3166,0.043847
1213.2485,0.043798
1214.1803,0.043626
1215.1121,0.043696
1216.0440,0.043514
1216.9758,0.043548
1217.9076,0.043892
1218.8395,0.043771
1219.7713,0.043581
1220.7031,0.043616
1221.6350,0.044012
1222.5668,0.044271
1223.4986,0.044055
1224.4305,0.043884
1225.3623,0.044217
1226.2941,0.044472
1227.2260,0.044414
1228.1578,0.044323
1229.0897,0.044336
1230.0215,0.044575
1230.9533,0.044718
1231.8852,0.044623
1232.8170,0.044732
1233.7488,0.044868
1234.6807,0.044783
1235.6125,0.044767
1236.5443,0.045041
1237.4762,0.045238
1238.4080,0.045193
1239.3398,0.045181
1240.2717,0.045370
1241.2035,0.045564
1242.1353,0.045710
1243.0672,0.045671
1243.9990,0.045779
1244.9308,0.045984
1245.8627,0.046210
1246.7945,0.046066
1247.7263,0.046002
1248.6582,0.046182
1249.5900,0.046243
1250.5218,0.046397
1251.4537,0.046893
1252.3855,0.047260
1253.3173,0.047223
1254.2492,0.047131
1255.1810,0.047395
1256.1129,0.047731
1257.0447,0.047889
1257.9765,0.048017
1258.9084,0.048316
1259.8402,0.048730
1260.7720,0.049425
1261.7039,0.049608
1262.6357,0.049608
1263.5675,0.049974
1264.4994,0.050408
1265.4312,0.050806
1266.3630,0.051118
1267.2949,0.051545
1268.2267,0.051913
1269.1585,0.052157
1270.0904,0.052429
1271.0222,0.052863
1271.9540,0.053304
1272.8859,0.053711
1273.8177,0.053762
1274.7495,0.053773
1275.6814,0.053876
1276.6132,0.053437
1277.5450,0.053068
1278.4769,0.052885
1279.4087,0.052699
1280.3405,0.052445
1281.2724,0.051993
1282.2042,0.051568
1283.1361,0.051409
1284.0679,0.051163
1284.9997,0.050690
1285.9316,0.050473
1286.8634,0.050469
1287.7952,0.050481
1288.7271,0.050689
1289.6589,0.050656
1290.5907,0.050456
1291.5226,0.050409
1292.4544,0.050274
1293.3862,0.050355
1294.3181,0.050610
1295.2499,0.050855
1296.1817,0.051121
1297.1136,0.051234
1298.0454,0.051238
1298.9772,0.051252
1299.9091,0.051516
1300.8409,0.051802
1301.7727,0.051950
1302.7046,0.052205
1303.6364,0.052331
1304.5682,0.052763
1305.5001,0.053118
1306.4319,0.053087
1307.3637,0.053195
1308.2956,0.053339
1309.2274,0.053527
1310.1592,0.053897
1311.0911,0.054249
1312.0229,0.054121
1312.9548,0.054098
1313.8866,0.054465
1314.8184,0.054724
1315.7503,0.054717
1316.6821,0.054803
1317.6139,0.055000
1318.5458,0.055088
1319.4776,0.055525
1320.4094,0.056047
1321.3413,0.055977
1322.2731,0.055596
1323.2049,0.055442
1324.1368,0.055519
1325.0686,0.055538
1326.0004,0.055530
1326.9323,0.055461
1327.8641,0.055595
1328.7959,0.055733
1329.7278,0.055751
1330.6596,0.055794
1331.5914,0.055676
1332.5233,0.055214
1333.4551,0.054872
1334.3869,0.054659
1335.3188,0.054377
1336.2506,0.053886
1337.1824,0.053664
1338.1143,0.053781
1339.0461,0.053811
1339.9780,0.054166
1340.9098,0.054451
1341.8416,0.054191
1342.7735,0.053473
1343.7053,0.053136
1344.6371,0.052896
1345.5690,0.052438
1346.5008,0.052112
1347.4326,0.052046
1348.3645,0.051884
1349.2963,0.051458
1350.2281,0.051312
1351.1600,0.051374
1352.0918,0.051199
1353.0236,0.050836
1353.9555,0.050645
1354.8873,0.050703
1355.8191,0.050933
1356.7510,0.050915
1357.6828,0.050662
1358.6146,0.050657
1359.5465,0.050663
1360.4783,0.050512
1361.4101,0.050689
1362.3420,0.051163
1363.2738,0.051547
1364.2056,0.052222
1365.1375,0.052276
1366.0693,0.051796
1367.0012,0.051881
1367.9330,0.052090
1368.8648,0.052651
1369.7967,0.053330
1370.7285,0.053831
1371.6603,0.054141
1372.5922,0.054471
1373.5240,0.055438
1374.4558,0.057603
1375.3877,0.059817
1376.3195,0.060163
1377.2513,0.059855
1378.1832,0.060157
1379.1150,0.061081
1380.0468,0.061448
1380.9787,0.061705
1381.9105,0.062068
1382.8423,0.062017
1383.7742,0.061964
1384.7060,0.062274
1385.6378,0.062154
1386.5697,0.062115
1387.5015,0.062777
1388.4333,0.063935
1389.3652,0.063799
1390.2970,0.062094
1391.2288,0.060863
1392.1607,0.060413
1393.0925,0.059851
1394.0244,0.059167
1394.9562,0.059557
1395.8880,0.060870
1396.8199,0.061458
1397.7517,0.060709
1398.6835,0.060063
1399.6154,0.061064
1400.5472,0.062351
1401.4790,0.061670
1402.4109,0.060896
1403.3427,0.060709
1404.2745,0.060519
1405.2064,0.061139
1406.1382,0.062656
1407.0700,0.062676
1408.0019,0.062018
1408.9337,0.061968
1409.8655,0.062271
1410.7974,0.062460
1411.7292,0.062500
1412.6610,0.062509
1413.5929,0.062236
1414.5247,0.061926
1415.4565,0.061315
1416.3884,0.060847
1417.3202,0.061176
1418.2520,0.062112
1419.1839,0.062932
1420.1157,0.064253
1421.0476,0.064333
1421.9794,0.062493
1422.9112,0.061664
1423.8431,0.061359
1424.7749,0.061661
1425.7067,0.061711
1426.6386,0.060692
1427.5704,0.059569
1428.5022,0.059044
1429.4341,0.058992
1430.3659,0.058983
1431.2977,0.059037
1432.2296,0.058408
1433.1614,0.057386
1434.0932,0.056691
1435.0251,0.055893
1435.9569,0.055470
1436.8887,0.056402
1437.8206,0.058431
1438.7524,0.058209
1439.6842,0.056412
1440.6161,0.055529
1441.5479,0.055571
1442.4797,0.055664
1443.4116,0.055674
1444.3434,0.055750
1445.2752,0.055943
1446.2071,0.056399
1447.1389,0.056671
1448.0707,0.057571
1449.0026,0.059881
1449.9344,0.061072
1450.8663,0.060430
1451.7981,0.059849
1452.7299,0.059928
1453.6618,0.059737
1454.5936,0.058587
1455.5254,0.057734
1456.4573,0.058010
1457.3891,0.059671
1458.3209,0.060985
1459.2528,0.059542
1460.1846,0.057105
1461.1164,0.054295
1462.0483,0.052399
1462.9801,0.051378
1463.9119,0.050607
1464.8438,0.050204
1465.7756,0.050337
1466.7074,0.049912
1467.6393,0.048650
1468.5711,0.047372
1469.5029,0.046490
1470.4348,0.045952
1471.3666,0.045465
1472.2984,0.045468
1473.2303,0.046811
1474.1621,0.048207
1475.0939,0.048264
1476.0258,0.047275
1476.9576,0.047206
1477.8895,0.047911
1478.8213,0.047551
1479.7531,0.047232
1480.6850,0.047007
1481.6168,0.046898
1482.5486,0.047166
1483.4805,0.047052
1484.4123,0.046601
1485.3441,0.046218
1486.2760,0.045807
1487.2078,0.045548
1488.1396,0.046055
1489.0715,0.046370
1490.0033,0.046041
1490.9351,0.046526
1491.8670,0.046658
1492.7988,0.045412
1493.7306,0.043891
1494.6625,0.042984
1495.5943,0.042594
1496.5261,0.042943
1497.4580,0.044413
1498.3898,0.044401
1499.3216,0.043823
1500.2535,0.044033
1501.1853,0.043548
1502.1171,0.042834
1503.0490,0.042444
1503.9808,0.041502
1504.9127,0.040328
1505.8445,0.040425
1506.7763,0.042443
1507.7082,0.046058
1508.6400,0.046277
1509.5718,0.044861
1510.5037,0.043835
1511.4355,0.043409
1512.3673,0.043075
1513.2992,0.043193
1514.2310,0.042968
1515.1628,0.042038
1516.0947,0.041871
1517.0265,0.042170
1517.9583,0.043384
1518.8902,0.044229
1519.8220,0.042535
1520.7538,0.041488
1521.6857,0.042910
1522.6175,0.045326
1523.5493,0.044667
1524.4812,0.043269
1525.4130,0.043324
1526.3448,0.044772
1527.2767,0.045499
1528.2085,0.044861
1529.1403,0.044546
1530.0722,0.044161
1531.0040,0.043508
1531.9359,0.043706
1532.8677,0.044313
1533.7995,0.044764
1534.7314,0.045622
1535.6632,0.045209
1536.5950,0.044118
1537.5269,0.043210
1538.4587,0.042696
1539.3905,0.043420
1540.3224,0.046871
1541.2542,0.049165
1542.1860,0.047441
1543.1179,0.047101
1544.0497,0.046985
1544.9815,0.046631
1545.9134,0.047496
1546.8452,0.048154
1547.7770,0.047422
1548.7089,0.046818
1549.6407,0.046790
1550.5725,0.047419
1551.5044,0.048515
1552.4362,0.048099
1553.3680,0.046880
1554.2999,0.046445
1555.2317,0.047401
1556.1635,0.048267
1557.0954,0.047251
1558.0272,0.046528
1558.9591,0.049118
1559.8909,0.055773
1560.8227,0.057520
1561.7546,0.055523
1562.6864,0.053125
1563.6182,0.051979
1564.5501,0.051524
1565.4819,0.051786
1566.4137,0.052699
1567.3456,0.052532
1568.2774,0.052112
1569.2092,0.052902
1570.1411,0.055038
1571.0729,0.057293
1572.0047,0.056142
1572.9366,0.054755
1573.8684,0.054907
1574.8002,0.055692
1575.7321,0.056766
1576.6639,0.058673
1577.5957,0.061816
1578.5276,0.062322
1579.4594,0.061391
1580.3912,0.061053
1581.3231,0.061173
1582.2549,0.062004
1583.1867,0.062810
1584.1186,0.063358
1585.0504,0.064264
1585.9822,0.065085
1586.9141,0.065922
1587.8459,0.066847
1588.7778,0.067493
1589.7096,0.068256
1590.6414,0.069521
1591.5733,0.070680
1592.5051,0.071588
1593.4369,0.072877
1594.3688,0.074334
1595.3006,0.075886
1596.2324,0.076880
1597.1643,0.077448
1598.0961,0.078243
1599.0279,0.079758
1599.9598,0.081716
1600.8916,0.082998
1601.8234,0.084125
1602.7553,0.086009
1603.6871,0.087967
1604.6189,0.089536
1605.5508,0.091082
1606.4826,0.092515
1607.4144,0.094205
1608.3463,0.096964
1609.2781,0.099564
1610.2099,0.101650
1611.1418,0.103690
1612.0736,0.104767
1613.0054,0.105311
1613.9373,0.106550
1614.8691,0.108417
1615.8010,0.110798
1616.7328,0.115104
1617.6646,0.122714
1618.5965,0.126975
1619.5283,0.124429
1620.4601,0.123131
1621.3920,0.124642
1622.3238,0.126835
1623.2556,0.129567
1624.1875,0.134919
1625.1193,0.139112
1626.0511,0.138439
1626.9830,0.138705
1627.9148,0.140976
1628.8466,0.144218
1629.7785,0.145731
1630.7103,0.144716
1631.6421,0.144252
1632.5740,0.144644
1633.5058,0.144405
1634.4376,0.144551
1635.3695,0.147368
1636.3013,0.155207
1637.2331,0.160996
1638.1650,0.158310
1639.0968,0.155419
1640.0286,0.153403
1640.9605,0.151841
1641.8923,0.150683
1642.8242,0.149762
1643.7560,0.148755
1644.6878,0.147347
1645.6197,0.146294
1646.5515,0.147323
1647.4833,0.150011
1648.4152,0.150007
1649.3470,0.147535
1650.2788,0.143462
1651.2107,0.139550
1652.1425,0.138012
1653.0743,0.139911
1654.0062,0.146871
1654.9380,0.150315
1655.8698,0.144459
1656.8017,0.138337
1657.7335,0.134077
1658.6653,0.131371
1659.5972,0.129425
1660.5290,0.127403
1661.4608,0.125655
1662.3927,0.124487
1663.3245,0.124184
1664.2563,0.123281
1665.1882,0.119980
1666.1200,0.116861
1667.0518,0.114482
1667.9837,0.112509
1668.9155,0.111103
1669.8474,0.110853
1670.7792,0.110645
1671.7110,0.108046
1672.6429,0.105315
1673.5747,0.103185
1674.5065,0.100721
1675.4384,0.098808
1676.3702,0.098438
1677.3020,0.097519
1678.2339,0.094667
1679.1657,0.091414
1680.0975,0.088587
1681.0294,0.086786
1681.9612,0.085639
1682.8930,0.083540
1683.8249,0.081655
1684.7567,0.082725
1685.6885,0.083856
1686.6204,0.080693
1687.5522,0.077216
1688.4840,0.074890
1689.4159,0.073223
1690.3477,0.071723
1691.2795,0.070396
1692.2114,0.068438
1693.1432,0.066488
1694.0750,0.065137
1695.0069,0.063197
1695.9387,0.061461
1696.8706,0.061292
1697.8024,0.060516
1698.7342,0.058497
1699.6661,0.056743
1700.5979,0.055980
1701.5297,0.057204
1702.4616,0.056086
1703.3934,0.052982
1704.3252,0.050802
1705.2571,0.049337
1706.1889,0.048568
1707.1207,0.047884
1708.0526,0.046719
1708.9844,0.045216
1709.9162,0.043976
1710.8481,0.043089
1711.7799,0.042657
1712.7117,0.042280
1713.6436,0.041328
1714.5754,0.040018
1715.5072,0.038844
1716.4391,0.038089
1717.3709,0.037279
1718.3027,0.037156
1719.2346,0.037818
1720.1664,0.036794
1721.0982,0.035031
1722.0301,0.034217
1722.9619,0.033943
1723.8937,0.033463
1724.8256,0.032623
1725.7574,0.031817
1726.6893,0.031404
1727.6211,0.031123
1728.5529,0.030454
1729.4848,0.029464
1730.4166,0.028867
1731.3484,0.028654
1732.2803,0.027815
1733.2121,0.027164
1734.1439,0.027417
1735.0758,0.027597
1736.0076,0.027113
1736.9394,0.026490
1737.8713,0.025538
1738.8031,0.024899
1739.7349,0.025081
1740.6668,0.025449
1741.5986,0.025343
1742.5304,0.024415
1743.4623,0.023619
1744.3941,0.023377
1745.3259,0.023084
1746.2578,0.022551
1747.1896,0.022410
1748.1214,0.022582
1749.0533,0.022181
1749.9851,0.021601
1750.9169,0.021540
1751.8488,0.021316
1752.7806,0.021327
1753.7125,0.020963
1754.6443,0.020286
1755.5761,0.020045
1756.5080,0.019779
1757.4398,0.019374
1758.3716,0.019121
1759.3035,0.018920
1760.2353,0.019253
1761.1671,0.019307
1762.0990,0.018911
1763.0308,0.018973
1763.9626,0.018759
1764.8945,0.018050
1765.8263,0.017802
1766.7581,0.017673
1767.6900,0.017159
1768.6218,0.017371
1769.5536,0.018210
1770.4855,0.018022
1771.4173,0.017130
1772.3491,0.016812
1773.2810,0.017106
1774.2128,0.016715
1775.1446,0.016131
1776.0765,0.015857
1777.0083,0.015904
1777.9401,0.016079
1778.8720,0.015615
1779.8038,0.015310
1780.7357,0.015645
1781.6675,0.016202
1782.5993,0.016002
1783.5312,0.015046
1784.4630,0.014557
1785.3948,0.014574
1786.3267,0.014969
1787.2585,0.015246
1788.1903,0.015018
1789.1222,0.014729
1790.0540,0.014484
1790.9858,0.014157
1791.9177,0.013805
1792.8495,0.013860
1793.7813,0.014666
1794.7132,0.014632
1795.6450,0.013796
1796.5768,0.013387
1797.5087,0.013728
1798.4405,0.013724
1799.3723,0.013186
1800.3042,0.013066
1801.2360,0.013428
1802.1678,0.013518
1803.0997,0.013138
1804.0315,0.012705
1804.9633,0.012571
1805.8952,0.012840
1806.8270,0.013251
1807.7589,0.013107
1808.6907,0.012355
1809.6225,0.011922
1810.5544,0.012135
1811.4862,0.012573
1812.4180,0.012688
1813.3499,0.012440
1814.2817,0.012465
1815.2135,0.012162
1816.1454,0.011639
1817.0772,0.011508
1818.0090,0.011777
1818.9409,0.012236
1819.8727,0.012011
1820.8045,0.011578
1821.7364,0.011644
1822.6682,0.012084
1823.6000,0.012304
1824.5319,0.012194
1825.4637,0.012203
1826.3955,0.012426
1827.3274,0.012266
1828.2592,0.011394
1829.1910,0.011479
1830.1229,0.011418
1831.0547,0.009891
1831.9865,0.009301
1832.9184,0.010311
1833.8502,0.011225
1834.7821,0.011678
1835.7139,0.011493
1836.6457,0.011259
1837.5776,0.011041
1838.5094,0.010765
1839.4412,0.010921
1840.3731,0.010661
1841.3049,0.010083
1842.2367,0.010262
1843.1686,0.010762
1844.1004,0.010960
1845.0322,0.010673
1845.9641,0.010581
1846.8959,0.010683
1847.8277,0.010083
1848.7596,0.009562
1849.6914,0.010124
1850.6232,0.010205
1851.5551,0.009703
1852.4869,0.010206
1853.4187,0.010768
1854.3506,0.010642
1855.2824,0.010134
1856.2142,0.009413
1857.1461,0.009414
1858.0779,0.010354
1859.0097,0.011147
1859.9416,0.011139
1860.8734,0.010823
1861.8052,0.011025
1862.7371,0.011582
1863.6689,0.011309
1864.6008,0.010469
1865.5326,0.010238
1866.4644,0.010384
1867.3963,0.010568
1868.3281,0.009722
1869.2599,0.007865
1870.1918,0.007924
1871.1236,0.009636
1872.0554,0.010406
1872.9873,0.009815
1873.9191,0.009636
1874.8509,0.009996
1875.7828,0.010285
1876.7146,0.009881
1877.6464,0.009493
1878.5783,0.009349
1879.5101,0.009170
1880.4419,0.009605
1881.3738,0.010101
1882.3056,0.009942
1883.2374,0.009354
1884.1693,0.009556
1885.1011,0.010121
1886.0329,0.009851
1886.9648,0.009776
1887.8966,0.009632
1888.8284,0.008979
1889.7603,0.009451
1890.6921,0.010502
1891.6240,0.009951
1892.5558,0.008834
1893.4876,0.009248
1894.4195,0.009818
1895.3513,0.009333
1896.2831,0.008362
1897.2150,0.008590
1898.1468,0.009794
1899.0786,0.010149
1900.0105,0.008940
1900.9423,0.009169
1901.8741,0.010658
1902.8060,0.010291
1903.7378,0.009513
1904.6696,0.010065
1905.6015,0.009543
1906.5333,0.008899
1907.4651,0.009564
1908.3970,0.010217
1909.3288,0.009516
1910.2606,0.008416
1911.1925,0.008690
1912.1243,0.009211
1913.0561,0.009244
1913.9880,0.008686
1914.9198,0.009561
1915.8516,0.010892
1916.7835,0.010774
1917.7153,0.009794
1918.6472,0.009025
1919.5790,0.008884
1920.5108,0.008512
1921.4427,0.008759
1922.3745,0.009989
1923.3063,0.010239
1924.2382,0.009220
1925.1700,0.008696
1926.1018,0.009672
1927.0337,0.009784
1927.9655,0.010371
1928.8973,0.010488
1929.8292,0.009352
1930.7610,0.009816
1931.6928,0.009874
1932.6247,0.008301
1933.5565,0.007386
1934.4883,0.008585
1935.4202,0.009700
1936.3520,0.008081
1937.2838,0.006787
1938.2157,0.007071
1939.1475,0.008438
1940.0793,0.009339
1941.0112,0.008915
1941.9430,0.007988
1942.8748,0.009204
1943.8067,0.010378
1944.7385,0.010212
1945.6704,0.010221
1946.6022,0.010089
1947.5340,0.008363
1948.4659,0.006383
1949.3977,0.005971
1950.3295,0.006697
1951.2614,0.008679
1952.1932,0.007979
1953.1250,0.006876
1954.0569,0.006094
1954.9887,0.005261
1955.9205,0.005949
1956.8524,0.006817
1957.7842,0.007154
1958.7160,0.007306
1959.6479,0.007578
1960.5797,0.007414
1961.5115,0.008123
1962.4434,0.007744
1963.3752,0.007533
1964.3070,0.006363
1965.2389,0.005409
1966.1707,0.004053
1967.1025,0.004030
1968.0344,0.005802
1968.9662,0.004035
1969.8980,0.004099
1970.8299,0.004797
1971.7617,0.005942
1972.6936,0.005954
1973.6254,0.005514
1974.5572,0.005150
1975.4891,0.003910
1976.4209,0.002594
1977.3527,0.001168
1978.2846,0.003847
1979.2164,0.005041
1980.1482,0.003154
1981.0801,0.003793
1982.0119,0.005389
1982.9437,0.004111
1983.8756,0.004529
1984.8074,0.007778
1985.7392,0.009474
1986.6711,0.008736
1987.6029,0.009644
1988.5347,0.008499
1989.4666,0.005115
1990.3984,0.004551
1991.3302,0.005437
1992.2621,0.004959
1993.1939,0.006866
1994.1257,0.009274
1995.0576,0.008111
1995.9894,0.006245
1996.9212,0.004833
1997.8531,0.005615
1998.7849,0.007927
1999.7167,0.007113
2000.6486,0.007802
2001.5804,0.008186
2002.5123,0.005958
2003.4441,0.006906
2004.3759,0.007291
2005.3078,0.005371
2006.2396,0.004507
2007.1714,0.007354
2008.1033,0.008238
2009.0351,0.003855
2009.9669,0.005131
2010.8988,0.006065
2011.8306,0.004579
2012.7624,0.006569
2013.6943,0.009451
2014.6261,0.009181
2015.5579,0.006002
2016.4898,0.008060
2017.4216,0.008682
2018.3534,0.004921
2019.2853,0.006009
2020.2171,0.005079
2021.1489,0.003069
2022.0808,0.003516
2023.0126,0.002417
2023.9444,0.005538
2024.8763,0.009330
2025.8081,0.006739
2026.7399,0.002643
2027.6718,0.004635
2028.6036,0.009315
2029.5355,0.009131
2030.4673,0.005217
2031.3991,0.004126
2032.3310,0.005574
2033.2628,0.007694
2034.1946,0.005482
2035.1265,0.004270
2036.0583,0.006393
2036.9901,0.004797
2037.9220,0.003992
2038.8538,0.004120
2039.7856,0.005481
2040.7175,0.006978
2041.6493,0.008953
2042.5811,0.009715
2043.5130,0.008948
2044.4448,0.010948
2045.3766,0.012317
2046.3085,0.010387
2047.2403,0.010174
2048.1721,0.011396
2049.1040,0.011538
2050.0358,0.009095
2050.9676,0.008790
2051.8995,0.008628
2052.8313,0.008606
2053.7631,0.009595
2054.6950,0.010474
2055.6268,0.011370
2056.5587,0.012119
2057.4905,0.012761
2058.4223,0.012464
2059.3542,0.011003
2060.2860,0.009839
2061.2178,0.011491
2062.1497,0.013157
2063.0815,0.012549
2064.0133,0.012662
2064.9452,0.012826
2065.8770,0.012567
2066.8088,0.011983
2067.7407,0.011767
2068.6725,0.012736
2069.6043,0.013976
2070.5362,0.012776
2071.4680,0.012967
2072.3998,0.014427
2073.3317,0.013872
2074.2635,0.013125
2075.1953,0.013143
2076.1272,0.014315
2077.0590,0.015530
2077.9908,0.015066
2078.9227,0.014595
2079.8545,0.013145
2080.7863,0.011827
2081.7182,0.012549
2082.6500,0.014188
2083.5819,0.014093
2084.5137,0.014351
2085.4455,0.015795
2086.3774,0.014736
2087.3092,0.015050
2088.2410,0.016617
2089.1729,0.017940
2090.1047,0.015879
2091.0365,0.012659
2091.9684,0.011807
2092.9002,0.013207
2093.8320,0.014081
2094.7639,0.013691
2095.6957,0.015056
2096.6275,0.014092
2097.5594,0.012948
2098.4912,0.013390
2099.4230,0.013682
2100.3549,0.013695
2101.2867,0.013492
2102.2185,0.013786
2103.1504,0.013427
2104.0822,0.012615
2105.0140,0.012960
2105.9459,0.014008
2106.8777,0.014945
2107.8095,0.015251
2108.7414,0.014640
2109.6732,0.013110
2110.6051,0.013110
2111.5369,0.015187
2112.4687,0.015147
2113.4006,0.017183
2114.3324,0.018167
2115.2642,0.014862
2116.1961,0.014365
2117.1279,0.015884
2118.0597,0.016019
2118.9916,0.015536
2119.9234,0.014435
2120.8552,0.014475
2121.7871,0.014231
2122.7189,0.013743
2123.6507,0.014341
2124.5826,0.015432
2125.5144,0.015824
2126.4462,0.014314
2127.3781,0.012922
2128.3099,0.013981
2129.2417,0.013649
2130.1736,0.014025
2131.1054,0.014776
2132.0372,0.016253
2132.9691,0.015600
2133.9009,0.013093
2134.8327,0.013219
2135.7646,0.012618
2136.6964,0.011739
2137.6282,0.012058
2138.5601,0.013493
2139.4919,0.014451
2140.4238,0.013048
2141.3556,0.010020
2142.2874,0.009328
2143.2193,0.011755
2144.1511,0.014380
2145.0829,0.015189
2146.0148,0.012343
2146.9466,0.009854
2147.8784,0.009254
2148.8103,0.009503
2149.7421,0.012638
2150.6739,0.014183
2151.6058,0.012530
2152.5376,0.009647
2153.4694,0.008914
2154.4013,0.010018
2155.3331,0.013688
2156.2649,0.011383
2157.1968,0.004042
2158.1286,0.005264
2159.0604,0.007905
2159.9923,0.006274
2160.9241,0.006203
2161.8559,0.009499
2162.7878,0.010581
2163.7196,0.007662
2164.6514,0.001686
2165.5833,0.003130
2166.5151,0.005243
2167.4470,0.005325
2168.3788,0.007579
2169.3106,0.007819
2170.2425,0.007070
2171.1743,0.008389
2172.1061,0.010067
2173.0380,0.008445
2173.9698,0.004027
2174.9016,0.002811
2175.8335,0.002817
2176.7653,0.003787
2177.6971,0.007911
2178.6290,0.010290
2179.5608,0.010148
2180.4926,0.011783
2181.4245,0.011101
2182.3563,0.009780
2183.2881,0.011568
2184.2200,0.011085
2185.1518,0.008451
2186.0836,0.006744
2187.0155,0.007884
2187.9473,0.006774
2188.8791,0.006774
2189.8110,0.006993
2190.7428,0.006964
2191.6746,0.008998
2192.6065,0.008317
2193.5383,0.008110
2194.4702,0.009425
2195.4020,0.010487
2196.3338,0.012380
2197.2657,0.011490
2198.1975,0.007889
2199.1293,0.007782
2200.0612,0.007814
2200.9930,0.006368
2201.9248,0.010327
2202.8567,0.012053
2203.7885,0.009746
2204.7203,0.009398
2205.6522,0.008823
2206.5840,0.008385
2207.5158,0.008501
2208.4477,0.009690
2209.3795,0.011968
2210.3113,0.010257
2211.2432,0.007508
2212.1750,0.007830
2213.1068,0.009782
2214.0387,0.009886
2214.9705,0.008763
2215.9023,0.006991
2216.8342,0.010062
2217.7660,0.012881
2218.6978,0.012205
2219.6297,0.010687
2220.5615,0.009670
2221.4934,0.009410
2222.4252,0.010379
2223.3570,0.011151
2224.2889,0.011303
2225.2207,0.010730
2226.1525,0.010934
2227.0844,0.009530
2228.0162,0.010286
2228.9480,0.012869
2229.8799,0.013066
2230.8117,0.013380
2231.7435,0.011346
2232.6754,0.008565
2233.6072,0.008895
2234.5390,0.009562
2235.4709,0.008386
2236.4027,0.007997
2237.3345,0.009809
2238.2664,0.011617
2239.1982,0.012236
2240.1300,0.011671
2241.0619,0.012478
2241.9937,0.011777
2242.9255,0.008650
2243.8574,0.009154
2244.7892,0.011872
2245.7210,0.012455
2246.6529,0.011384
2247.5847,0.010311
2248.5166,0.010906
2249.4484,0.010663
2250.3802,0.009367
2251.3121,0.009202
2252.2439,0.009501
2253.1757,0.010098
2254.1076,0.009773
2255.0394,0.008489
2255.9712,0.008674
2256.9031,0.009790
2257.8349,0.010777
2258.7667,0.010081
2259.6986,0.009995
2260.6304,0.011308
2261.5622,0.010843
2262.4941,0.010811
2263.4259,0.012819
2264.3577,0.011883
2265.2896,0.009925
2266.2214,0.009148
2267.1532,0.010032
2268.0851,0.011004
2269.0169,0.010790
2269.9487,0.011118
2270.8806,0.009381
2271.8124,0.009056
2272.7442,0.009401
2273.6761,0.008713
2274.6079,0.008128
2275.5397,0.009078
2276.4716,0.010955
2277.4034,0.009572
2278.3353,0.008636
2279.2671,0.009370
2280.1989,0.009382
2281.1308,0.008990
2282.0626,0.009943
2282.9944,0.011132
2283.9263,0.010673
2284.8581,0.009006
2285.7899,0.008445
2286.7218,0.009119
2287.6536,0.010145
2288.5854,0.011171
2289.5173,0.010990
2290.4491,0.010266
2291.3809,0.010273
2292.3128,0.010656
2293.2446,0.010872
2294.1764,0.010669
2295.1083,0.010280
2296.0401,0.009172
2296.9719,0.009129
2297.9038,0.009823
2298.8356,0.010620
2299.7674,0.010425
2300.6993,0.009302
2301.6311,0.009827
2302.5629,0.010228
2303.4948,0.010052
2304.4266,0.009978
2305.3585,0.009581
2306.2903,0.009166
2307.2221,0.008875
2308.1540,0.009168
2309.0858,0.009202
2310.0176,0.008687
2310.9495,0.009927
2311.8813,0.010632
2312.8131,0.009926
2313.7450,0.010026
2314.6768,0.010490
2315.6086,0.010520
2316.5405,0.010071
2317.4723,0.009266
2318.4041,0.008535
2319.3360,0.009375
2320.2678,0.009985
2321.1996,0.009734
2322.1315,0.009478
2323.0633,0.008948
2323.9951,0.008730
2324.9270,0.009267
2325.8588,0.009557
2326.7906,0.009905
2327.7225,0.010333
2328.6543,0.010108
2329.5861,0.009792
2330.5180,0.009676
2331.4498,0.010133
2332.3817,0.009837
2333.3135,0.009051
2334.2453,0.009541
2335.1772,0.010567
2336.1090,0.010066
2337.0408,0.009323
2337.9727,0.008843
2338.9045,0.009144
2339.8363,0.009403
2340.7682,0.008923
2341.7000,0.008684
2342.6318,0.009160
2343.5637,0.009277
2344.4955,0.008668
2345.4273,0.008777
2346.3592,0.008440
2347.2910,0.008205
2348.2228,0.008985
2349.1547,0.009766
2350.0865,0.009805
2351.0183,0.009670
2351.9502,0.009499
2352.8820,0.009348
2353.8138,0.009007
2354.7457,0.008953
2355.6775,0.009102
2356.6093,0.009239
2357.5412,0.008770
2358.4730,0.007825
2359.4049,0.007431
2360.3367,0.007656
2361.2685,0.007440
2362.2004,0.007753
2363.1322,0.009229
2364.0640,0.009177
2364.9959,0.008231
2365.9277,0.007957
2366.8595,0.008800
2367.7914,0.007163
2368.7232,0.006029
2369.6550,0.007074
2370.5869,0.007131
2371.5187,0.008060
2372.4505,0.009193
2373.3824,0.008725
2374.3142,0.008028
2375.2460,0.007408
2376.1779,0.007712
2377.1097,0.008033
2378.0415,0.007568
2378.9734,0.007149
2379.9052,0.007770
2380.8370,0.007464
2381.7689,0.007579
2382.7007,0.007283
2383.6325,0.006469
2384.5644,0.006698
2385.4962,0.007178
2386.4281,0.007524
2387.3599,0.007748
2388.2917,0.007948
2389.2236,0.008085
2390.1554,0.007744
2391.0872,0.007474
2392.0191,0.007754
2392.9509,0.007828
2393.8827,0.006987
2394.8146,0.006657
2395.7464,0.006359
2396.6782,0.006524
2397.6101,0.006695
2398.5419,0.006511
2399.4737,0.007112
2400.4056,0.007098
2401.3374,0.006481
2402.2692,0.006983
2403.2011,0.007398
2404.1329,0.007257
2405.0647,0.007670
2405.9966,0.007477
2406.9284,0.007086
2407.8602,0.007440
2408.7921,0.007762
2409.7239,0.007274
2410.6557,0.007265
2411.5876,0.007107
2412.5194,0.007004
2413.4512,0.007494
2414.3831,0.007615
2415.3149,0.007080
2416.2468,0.007394
2417.1786,0.007139
2418.1104,0.005919
2419.0423,0.004979
2419.9741,0.005841
2420.9059,0.006266
2421.8378,0.005887
2422.7696,0.006222
2423.7014,0.006824
2424.6333,0.006841
2425.5651,0.006386
2426.4969,0.005603
2427.4288,0.005511
2428.3606,0.005975
2429.2924,0.006597
2430.2243,0.006305
2431.1561,0.006397
2432.0879,0.006019
2433.0198,0.005488
2433.9516,0.005460
2434.8834,0.006266
2435.8153,0.006970
2436.7471,0.006574
2437.6789,0.006159
2438.6108,0.005911
2439.5426,0.005753
2440.4744,0.006711
2441.4063,0.006344
2442.3381,0.005487
2443.2700,0.006740
2444.2018,0.006853
2445.1336,0.006106
2446.0655,0.006332
2446.9973,0.006331
2447.9291,0.006222
2448.8610,0.006140
2449.7928,0.005255
2450.7246,0.005165
2451.6565,0.005622
2452.5883,0.006069
2453.5201,0.006808
2454.4520,0.006817
2455.3838,0.005705
2456.3156,0.004922
2457.2475,0.005598
2458.1793,0.006115
2459.1111,0.005745
2460.0430,0.004870
2460.9748,0.004863
2461.9066,0.005886
2462.8385,0.005665
2463.7703,0.004964
2464.7021,0.005099
2465.6340,0.005336
2466.5658,0.005551
2467.4976,0.005725
2468.4295,0.006278
2469.3613,0.006071
2470.2932,0.005064
2471.2250,0.004738
2472.1568,0.005812
2473.0887,0.006561
2474.0205,0.006152
2474.9523,0.006554
2475.8842,0.006852
2476.8160,0.006542
2477.7478,0.005843
2478.6797,0.004945
2479.6115,0.004804
2480.5433,0.005844
2481.4752,0.006328
2482.4070,0.005958
2483.3388,0.005848
2484.2707,0.005769
2485.2025,0.005442
2486.1343,0.005406
2487.0662,0.005369
2487.9980,0.005160
2488.9298,0.004895
2489.8617,0.005033
2490.7935,0.004851
2491.7253,0.004959
2492.6572,0.005753
2493.5890,0.006349
2494.5208,0.006258
2495.4527,0.006074
2496.3845,0.005579
2497.3164,0.004793
2498.2482,0.004782
2499.1800,0.005791
2500.1119,0.005941
2501.0437,0.004959
2501.9755,0.004611
2502.9074,0.005135
2503.8392,0.005782
2504.7710,0.006100
2505.7029,0.005910
2506.6347,0.006067
2507.5665,0.005910
2508.4984,0.005471
2509.4302,0.005691
2510.3620,0.006147
2511.2939,0.005386
2512.2257,0.004533
2513.1575,0.004533
2514.0894,0.004471
2515.0212,0.005247
2515.9530,0.005987
2516.8849,0.005562
2517.8167,0.005610
2518.7485,0.006582
2519.6804,0.006123
2520.6122,0.005134
2521.5440,0.004848
2522.4759,0.005360
2523.4077,0.005251
2524.3396,0.005190
2525.2714,0.005228
2526.2032,0.005471
2527.1351,0.005954
2528.0669,0.005632
2528.9987,0.004939
2529.9306,0.005462
2530.8624,0.006328
2531.7942,0.005795
2532.7261,0.004669
2533.6579,0.004255
2534.5897,0.004963
2535.5216,0.005777
2536.4534,0.005179
2537.3852,0.004729
2538.3171,0.005113
2539.2489,0.004934
2540.1807,0.004610
2541.1126,0.005047
2542.0444,0.005310
2542.9762,0.004451
2543.9081,0.004572
2544.8399,0.005138
2545.7717,0.005089
2546.7036,0.006104
2547.6354,0.006713
2548.5672,0.005908
2549.4991,0.005438
2550.4309,0.005797
2551.3627,0.005641
2552.2946,0.005382
2553.2264,0.005512
2554.1583,0.005865
2555.0901,0.005479
2556.0219,0.004772
2556.9538,0.005250
2557.8856,0.004951
2558.8174,0.004555
2559.7493,0.005707
2560.6811,0.005940
2561.6129,0.005489
2562.5448,0.005174
2563.4766,0.004530
2564.4084,0.004173
2565.3403,0.004191
2566.2721,0.003972
2567.2039,0.005065
2568.1358,0.006475
2569.0676,0.005904
2569.9994,0.005200
2570.9313,0.005053
2571.8631,0.004076
2572.7949,0.004615
2573.7268,0.005043
2574.6586,0.004215
2575.5904,0.003789
2576.5223,0.003970
2577.4541,0.004329
2578.3859,0.004882
2579.3178,0.005269
2580.2496,0.005571
2581.1815,0.005700
2582.1133,0.005457
2583.0451,0.004603
2583.9770,0.003838
2584.9088,0.003312
2585.8406,0.004071
2586.7725,0.004581
2587.7043,0.003776
2588.6361,0.003855
2589.5680,0.004373
2590.4998,0.005198
2591.4316,0.005178
2592.3635,0.004107
2593.2953,0.003571
2594.2271,0.004242
2595.1590,0.005142
2596.0908,0.005255
2597.0226,0.005228
2597.9545,0.005926
2598.8863,0.005696
2599.8181,0.004495
2600.7500,0.003806
2601.6818,0.004089
2602.6136,0.004510
2603.5455,0.004983
2604.4773,0.005265
2605.4091,0.004858
2606.3410,0.004966
2607.2728,0.005228
2608.2047,0.005202
2609.1365,0.005680
2610.0683,0.005917
2611.0002,0.005748
2611.9320,0.005223
2612.8638,0.005117
2613.7957,0.005010
2614.7275,0.004536
2615.6593,0.004969
2616.5912,0.005424
2617.5230,0.005098
2618.4548,0.005139
2619.3867,0.005700
2620.3185,0.005527
2621.2503,0.005489
2622.1822,0.005840
2623.1140,0.005472
2624.0458,0.005712
2624.9777,0.005970
2625.9095,0.005836
2626.8413,0.005715
2627.7732,0.005832
2628.7050,0.005969
2629.6368,0.006613
2630.5687,0.006738
2631.5005,0.006278
2632.4323,0.006166
2633.3642,0.005972
2634.2960,0.005605
2635.2279,0.005728
2636.1597,0.005808
2637.0915,0.005428
2638.0234,0.005436
2638.9552,0.005837
2639.8870,0.005764
2640.8189,0.005728
2641.7507,0.005967
2642.6825,0.006040
2643.6144,0.006193
2644.5462,0.006548
2645.4780,0.006280
2646.4099,0.006118
2647.3417,0.006687
2648.2735,0.006711
2649.2054,0.006411
2650.1372,0.006561
2651.0690,0.006900
2652.0009,0.006896
2652.9327,0.007057
2653.8645,0.007168
2654.7964,0.006695
2655.7282,0.006769
2656.6600,0.007310
2657.5919,0.006935
2658.5237,0.006509
2659.4555,0.006535
2660.3874,0.006634
2661.3192,0.007147
2662.2511,0.007683
2663.1829,0.007688
2664.1147,0.007263
2665.0466,0.006778
2665.9784,0.006832
2666.9102,0.007394
2667.8421,0.007286
2668.7739,0.006610
2669.7057,0.006399
2670.6376,0.006624
2671.5694,0.006968
2672.5012,0.007445
2673.4331,0.007716
2674.3649,0.007540
2675.2967,0.007349
2676.2286,0.007429
2677.1604,0.007385
2678.0922,0.007329
2679.0241,0.007338
2679.9559,0.007344
2680.8877,0.007255
2681.8196,0.007258
2682.7514,0.007375
2683.6832,0.007745
2684.6151,0.008104
2685.5469,0.007911
2686.4787,0.007423
2687.4106,0.007494
2688.3424,0.008115
2689.2742,0.008169
2690.2061,0.008279
2691.1379,0.008548
2692.0698,0.008391
2693.0016,0.008078
2693.9334,0.008046
2694.8653,0.008126
2695.7971,0.008568
2696.7289,0.008811
2697.6608,0.008428
2698.5926,0.008395
2699.5244,0.008741
2700.4563,0.008497
2701.3881,0.008195
2702.3199,0.008450
2703.2518,0.008692
2704.1836,0.008839
2705.1154,0.008853
2706.0473,0.008600
2706.9791,0.008609
2707.9109,0.008599
2708.8428,0.008477
2709.7746,0.008548
2710.7064,0.008598
2711.6383,0.008737
2712.5701,0.008605
2713.5019,0.008570
2714.4338,0.008810
2715.3656,0.008982
2716.2974,0.009242
2717.2293,0.009790
2718.1611,0.010006
2719.0930,0.009868
2720.0248,0.009635
2720.9566,0.009530
2721.8885,0.009894
2722.8203,0.009789
2723.7521,0.009114
2724.6840,0.009355
2725.6158,0.010122
2726.5476,0.010035
2727.4795,0.009587
2728.4113,0.009854
2729.3431,0.010628
2730.2750,0.011072
2731.2068,0.010671
2732.1386,0.010120
2733.0705,0.010153
2734.0023,0.010375
2734.9341,0.010391
2735.8660,0.010462
2736.7978,0.010725
2737.7296,0.010873
2738.6615,0.010719
2739.5933,0.010472
2740.5251,0.010968
2741.4570,0.011238
2742.3888,0.010700
2743.3206,0.010769
2744.2525,0.010934
2745.1843,0.010571
2746.1162,0.010584
2747.0480,0.010943
2747.9798,0.011098
2748.9117,0.011261
2749.8435,0.011368
2750.7753,0.011423
2751.7072,0.011683
2752.6390,0.011650
2753.5708,0.011416
2754.5027,0.011873
2755.4345,0.012690
2756.3663,0.012655
2757.2982,0.011931
2758.2300,0.011422
2759.1618,0.011701
2760.0937,0.012133
2761.0255,0.012046
2761.9573,0.011562
2762.8892,0.011348
2763.8210,0.011673
2764.7528,0.012104
2765.6847,0.012293
2766.6165,0.012069
2767.5483,0.011899
2768.4802,0.012005
2769.4120,0.012215
2770.3438,0.012262
2771.2757,0.012386
2772.2075,0.012196
2773.1394,0.011746
2774.0712,0.012053
2775.0030,0.012548
2775.9349,0.012501
2776.8667,0.012538
2777.7985,0.012527
2778.7304,0.012926
2779.6622,0.013305
2780.5940,0.013052
2781.5259,0.012971
2782.4577,0.013096
2783.3895,0.013045
2784.3214,0.012887
2785.2532,0.013099
2786.1850,0.013733
2787.1169,0.014404
2788.0487,0.014461
2788.9805,0.014127
2789.9124,0.013890
2790.8442,0.013895
2791.7760,0.014199
2792.7079,0.014620
2793.6397,0.014628
2794.5715,0.014628
2795.5034,0.014574
2796.4352,0.014353
2797.3670,0.014260
2798.2989,0.014340
2799.2307,0.014529
2800.1626,0.014903
2801.0944,0.015573
2802.0262,0.015995
2802.9581,0.016388
2803.8899,0.016752
2804.8217,0.016432
2805.7536,0.016129
2806.6854,0.016375
2807.6172,0.016532
2808.5491,0.016485
2809.4809,0.016419
2810.4127,0.016913
2811.3446,0.017275
2812.2764,0.017031
2813.2082,0.017159
2814.1401,0.017285
2815.0719,0.017227
2816.0037,0.017578
2816.9356,0.017841
2817.8674,0.018367
2818.7992,0.019312
2819.7311,0.019413
2820.6629,0.018906
2821.5947,0.018469
2822.5266,0.018306
2823.4584,0.018813
2824.3902,0.019502
2825.3221,0.019427
2826.2539,0.019390
2827.1857,0.019717
2828.1176,0.019297
2829.0494,0.019316
2829.9813,0.020302
2830.9131,0.020443
2831.8449,0.020056
2832.7768,0.020227
2833.7086,0.020859
2834.6404,0.021232
2835.5723,0.021107
2836.5041,0.021101
2837.4359,0.021051
2838.3678,0.021101
2839.2996,0.021752
2840.2314,0.022142
2841.1633,0.022336
2842.0951,0.022987
2843.0269,0.023412
2843.9588,0.023176
2844.8906,0.022891
2845.8224,0.023049
2846.7543,0.023336
2847.6861,0.023449
2848.6179,0.023525
2849.5498,0.023861
2850.4816,0.024279
2851.4134,0.024748
2852.3453,0.024870
2853.2771,0.024590
2854.2089,0.024633
2855.1408,0.024890
2856.0726,0.025119
2857.0045,0.025259
2857.9363,0.025706
2858.8681,0.026392
2859.8000,0.026467
2860.7318,0.026629
2861.6636,0.027292
2862.5955,0.027717
2863.5273,0.028174
2864.4591,0.028447
2865.3910,0.028489
2866.3228,0.028666
2867.2546,0.028724
2868.1865,0.029277
2869.1183,0.029904
2870.0501,0.030188
2870.9820,0.030755
2871.9138,0.031596
2872.8456,0.032424
2873.7775,0.032777
2874.7093,0.033232
2875.6411,0.033905
2876.5730,0.034157
2877.5048,0.034411
2878.4366,0.035070
2879.3685,0.035745
2880.3003,0.036028
2881.2321,0.036114
2882.1640,0.036421
2883.0958,0.037220
2884.0277,0.037620
2884.9595,0.037633
2885.8913,0.038169
2886.8232,0.038542
2887.7550,0.038530
2888.6868,0.038938
2889.6187,0.039524
2890.5505,0.039559
2891.4823,0.039104
2892.4142,0.039649
2893.3460,0.040844
2894.2778,0.041662
2895.2097,0.042075
2896.1415,0.041841
2897.0733,0.042043
2898.0052,0.042834
2898.9370,0.043497
2899.8688,0.043889
2900.8007,0.044098
2901.7325,0.044560
2902.6643,0.044545
2903.5962,0.044512
2904.5280,0.044884
2905.4598,0.045241
2906.3917,0.045322
2907.3235,0.044888
2908.2553,0.044778
2909.1872,0.045560
2910.1190,0.045640
2911.0509,0.044925
2911.9827,0.043764
2912.9145,0.042589
2913.8464,0.042322
2914.7782,0.042929
2915.7100,0.043548
2916.6419,0.043164
2917.5737,0.042456
2918.5055,0.042740
2919.4374,0.043019
2920.3692,0.043184
2921.3010,0.042966
2922.2329,0.042731
2923.1647,0.042945
2924.0965,0.043052
2925.0284,0.043549
2925.9602,0.044529
2926.8920,0.044606
2927.8239,0.044875
2928.7557,0.045662
2929.6875,0.045449
2930.6194,0.045769
2931.5512,0.046724
2932.4830,0.046978
2933.4149,0.046687
2934.3467,0.046306
2935.2785,0.046729
2936.2104,0.047375
2937.1422,0.047039
2938.0741,0.047070
2939.0059,0.047404
2939.9377,0.047294
2940.8696,0.047362
2941.8014,0.047934
2942.7332,0.048675
2943.6651,0.048815
2944.5969,0.048510
2945.5287,0.048378
2946.4606,0.048496
2947.3924,0.049422
2948.3242,0.050124
2949.2561,0.049261
2950.1879,0.048118
2951.1197,0.048983
2952.0516,0.050479
2952.9834,0.050324
2953.9152,0.049406
2954.8471,0.049713
2955.7789,0.050867
2956.7107,0.051149
2957.6426,0.050766
2958.5744,0.051423
2959.5062,0.052313
2960.4381,0.052450
2961.3699,0.053258
2962.3017,0.054261
2963.2336,0.054508
2964.1654,0.055571
2965.0972,0.057205
2966.0291,0.058584
2966.9609,0.059893
2967.8928,0.061251
2968.8246,0.062650
2969.7564,0.064420
2970.6883,0.066509
2971.6201,0.068754
2972.5519,0.070852
2973.4838,0.072211
2974.4156,0.074078
2975.3474,0.076951
2976.2793,0.078977
2977.2111,0.080248
2978.1429,0.081871
2979.0748,0.083450
2980.0066,0.084264
2980.9384,0.085187
2981.8703,0.085500
2982.8021,0.084884
2983.7339,0.084525
2984.6658,0.083553
2985.5976,0.082272
2986.5294,0.080391
2987.4613,0.077745
2988.3931,0.076204
2989.3249,0.075667
2990.2568,0.074013
2991.1886,0.072269
2992.1204,0.070637
2993.0523,0.068804
2993.9841,0.067045
2994.9160,0.066091
2995.8478,0.065345
2996.7796,0.064750
2997.7115,0.064231
2998.6433,0.062900
2999.5751,0.061489
3000.5070,0.061025
3001.4388,0.061113
3002.3706,0.061408
3003.3025,0.061265
3004.2343,0.061472
3005.1661,0.061680
3006.0980,0.061460
3007.0298,0.060846
3007.9616,0.060291
3008.8935,0.060452
3009.8253,0.060888
3010.7571,0.060674
3011.6890,0.061304
3012.6208,0.062415
3013.5526,0.062704
3014.4845,0.062796
3015.4163,0.063118
3016.3481,0.063892
3017.2800,0.064566
3018.2118,0.064541
3019.1436,0.065148
3020.0755,0.065645
3021.0073,0.065373
3021.9392,0.065954
3022.8710,0.067191
3023.8028,0.067657
3024.7347,0.068474
3025.6665,0.068972
3026.5983,0.068459
3027.5302,0.067711
3028.4620,0.068270
3029.3938,0.069706
3030.3257,0.070276
3031.2575,0.070515
3032.1893,0.071065
3033.1212,0.071800
3034.0530,0.072676
3034.9848,0.073397
3035.9167,0.074180
3036.8485,0.074604
3037.7803,0.075062
3038.7122,0.075798
3039.6440,0.076137
3040.5758,0.076782
3041.5077,0.077818
3042.4395,0.078409
3043.3713,0.079198
3044.3032,0.080754
3045.2350,0.082068
3046.1668,0.082162
3047.0987,0.082233
3048.0305,0.082844
3048.9624,0.084084
3049.8942,0.085227
3050.8260,0.085804
3051.7579,0.085480
3052.6897,0.085645
3053.6215,0.086577
3054.5534,0.086990
3055.4852,0.088158
3056.4170,0.089389
3057.3489,0.089598
3058.2807,0.090731
3059.2125,0.091919
3060.1444,0.092511
3061.0762,0.092788
3062.0080,0.093244
3062.9399,0.094981
3063.8717,0.096986
3064.8035,0.097187
3065.7354,0.096842
3066.6672,0.097967
3067.5990,0.099082
3068.5309,0.099361
3069.4627,0.100194
3070.3945,0.101109
3071.3264,0.101942
3072.2582,0.103644
3073.1900,0.104581
3074.1219,0.104882
3075.0537,0.106236
3075.9856,0.107127
3076.9174,0.107107
3077.8492,0.107876
3078.7811,0.109830
3079.7129,0.111311
3080.6447,0.112026
3081.5766,0.112834
3082.5084,0.114418
3083.4402,0.115252
3084.3721,0.115198
3085.3039,0.115715
3086.2357,0.117163
3087.1676,0.118285
3088.0994,0.119468
3089.0312,0.120647
3089.9631,0.122092
3090.8949,0.123414
3091.8267,0.123925
3092.7586,0.124459
3093.6904,0.125326
3094.6222,0.124983
3095.5541,0.125612
3096.4859,0.128506
3097.4177,0.130614
3098.3496,0.131838
3099.2814,0.133415
3100.2132,0.133684
3101.1451,0.133913
3102.0769,0.135165
3103.0087,0.136468
3103.9406,0.137236
3104.8724,0.138107
3105.8043,0.139350
3106.7361,0.140433
3107.6679,0.140959
3108.5998,0.142714
3109.5316,0.144329
3110.4634,0.145342
3111.3953,0.146180
3112.3271,0.146947
3113.2589,0.149076
3114.1908,0.151159
3115.1226,0.151063
3116.0544,0.151917
3116.9863,0.154610
3117.9181,0.156104
3118.8499,0.156827
3119.7818,0.157666
3120.7136,0.157827
3121.6454,0.158541
3122.5773,0.159986
3123.5091,0.160857
3124.4409,0.162254
3125.3728,0.164670
3126.3046,0.166418
3127.2364,0.168104
3128.1683,0.169043
3129.1001,0.169995
3130.0319,0.170825
3130.9638,0.171725
3131.8956,0.173858
3132.8275,0.175945
3133.7593,0.176021
3134.6911,0.176782
3135.6230,0.178167
3136.5548,0.179437
3137.4866,0.179832
3138.4185,0.181887
3139.3503,0.184128
3140.2821,0.185671
3141.2140,0.186425
3142.1458,0.188131
3143.0776,0.189613
3144.0095,0.190862
3144.9413,0.193139
3145.8731,0.194308
3146.8050,0.194520
3147.7368,0.196241
3148.6686,0.197727
3149.6005,0.198716
3150.5323,0.199402
3151.4641,0.201518
3152.3960,0.203784
3153.3278,0.205835
3154.2596,0.206426
3155.1915,0.206297
3156.1233,0.206903
3157.0551,0.207650
3157.9870,0.208681
3158.9188,0.209151
3159.8507,0.211557
3160.7825,0.214851
3161.7143,0.216349
3162.6462,0.217439
3163.5780,0.217656
3164.5098,0.218600
3165.4417,0.221051
3166.3735,0.223036
3167.3053,0.223610
3168.2372,0.224912
3169.1690,0.225897
3170.1008,0.227838
3171.0327,0.229527
3171.9645,0.230896
3172.8963,0.231282
3173.8282,0.233200
3174.7600,0.235425
3175.6918,0.235683
3176.6237,0.237330
3177.5555,0.238491
3178.4873,0.239209
3179.4192,0.241755
3180.3510,0.243229
3181.2828,0.243957
3182.2147,0.244479
3183.1465,0.245134
3184.0783,0.247590
3185.0102,0.250316
3185.9420,0.250521
3186.8739,0.250723
3187.8057,0.250562
3188.7375,0.252662
3189.6694,0.254448
3190.6012,0.254482
3191.5330,0.254264
3192.4649,0.256006
3193.3967,0.257994
3194.3285,0.260665
3195.2604,0.262188
3196.1922,0.263155
3197.1240,0.263476
3198.0559,0.265581
3198.9877,0.267352
3199.9195,0.268396
3200.8514,0.268231
3201.7832,0.269131
3202.7150,0.270814
3203.6469,0.271684
3204.5787,0.271593
3205.5105,0.272884
3206.4424,0.273924
3207.3742,0.275109
3208.3060,0.275099
3209.2379,0.275816
3210.1697,0.277766
3211.1015,0.279594
3212.0334,0.280712
3212.9652,0.281348
3213.8971,0.280587
3214.8289,0.281602
3215.7607,0.282142
3216.6926,0.283246
3217.6244,0.284244
3218.5562,0.285280
3219.4881,0.286420
3220.4199,0.287417
3221.3517,0.288119
3222.2836,0.289219
3223.2154,0.287453
3224.1472,0.286600
3225.0791,0.287842
3226.0109,0.290180
3226.9427,0.290574
3227.8746,0.291126
3228.8064,0.291692
3229.7382,0.293801
3230.6701,0.294493
3231.6019,0.295412
3232.5337,0.294355
3233.4656,0.294363
3234.3974,0.297229
3235.3292,0.298867
3236.2611,0.298362
3237.1929,0.299376
3238.1247,0.298952
3239.0566,0.298841
3239.9884,0.298853
3240.9202,0.299297
3241.8521,0.299511
3242.7839,0.300213
3243.7158,0.301517
3244.6476,0.302222
3245.5794,0.301677
3246.5113,0.302258
3247.4431,0.302054
3248.3749,0.300378
3249.3068,0.300558
3250.2386,0.303137
3251.1704,0.303093
3252.1023,0.304308
3253.0341,0.304924
3253.9659,0.304946
3254.8978,0.304171
3255.8296,0.305612
3256.7614,0.305401
3257.6933,0.305963
3258.6251,0.306877
3259.5569,0.306235
3260.4888,0.305946
3261.4206,0.306403
3262.3524,0.307115
3263.2843,0.309714
3264.2161,0.307610
3265.1479,0.305326
3266.0798,0.304466
3267.0116,0.305251
3267.9434,0.306098
3268.8753,0.308649
3269.8071,0.309356
3270.7390,0.308675
3271.6708,0.308003
3272.6026,0.308718
3273.5345,0.309314
3274.4663,0.309415
3275.3981,0.308024
3276.3300,0.306929
3277.2618,0.305538
3278.1936,0.306163
3279.1255,0.306015
3280.0573,0.306405
3280.9891,0.307702
3281.9210,0.310352
3282.8528,0.308289
3283.7846,0.307200
3284.7165,0.308718
3285.6483,0.311628
3286.5801,0.311887
3287.5120,0.310141
3288.4438,0.309167
3289.3756,0.307557
3290.3075,0.306099
3291.2393,0.307623
3292.1711,0.308650
3293.1030,0.310016
3294.0348,0.310539
3294.9666,0.310144
3295.8985,0.309883
3296.8303,0.309540
3297.7622,0.306902
3298.6940,0.306725
3299.6258,0.308105
3300.5577,0.310041
3301.4895,0.310587
3302.4213,0.310121
3303.3532,0.309250
3304.2850,0.309596
3305.2168,0.309187
3306.1487,0.309364
3307.0805,0.307719
3308.0123,0.307932
3308.9442,0.308476
3309.8760,0.308947
3310.8078,0.308233
3311.7397,0.308717
3312.6715,0.308689
3313.6033,0.312635
3314.5352,0.312928
3315.4670,0.311504
3316.3988,0.310527
3317.3307,0.311524
3318.2625,0.309315
3319.1943,0.308161
3320.1262,0.310014
3321.0580,0.311145
3321.9898,0.310275
3322.9217,0.310388
3323.8535,0.311271
3324.7854,0.311472
3325.7172,0.311869
3326.6490,0.313065
3327.5809,0.311082
3328.5127,0.309179
3329.4445,0.307685
3330.3764,0.309264
3331.3082,0.310012
3332.2400,0.310248
3333.1719,0.310375
3334.1037,0.313606
3335.0355,0.313408
3335.9674,0.311591
3336.8992,0.312064
3337.8310,0.312476
3338.7629,0.310676
3339.6947,0.312276
3340.6265,0.313348
3341.5584,0.312234
3342.4902,0.309629
3343.4220,0.306547
3344.3539,0.307148
3345.2857,0.309585
3346.2175,0.309025
3347.1494,0.309722
3348.0812,0.311448
3349.0130,0.310291
3349.9449,0.309218
3350.8767,0.311132
3351.8086,0.310871
3352.7404,0.310931
3353.6722,0.309712
3354.6041,0.308244
3355.5359,0.307731
3356.4677,0.308764
3357.3996,0.308256
3358.3314,0.309553
3359.2632,0.309428
3360.1951,0.309721
3361.1269,0.309539
3362.0587,0.310237
3362.9906,0.310048
3363.9224,0.310012
3364.8542,0.308589
3365.7861,0.308916
3366.7179,0.307900
3367.6497,0.307361
3368.5816,0.305164
3369.5134,0.305794
3370.4452,0.306465
3371.3771,0.305332
3372.3089,0.300674
3373.2407,0.302419
3374.1726,0.304904
3375.1044,0.305716
3376.0362,0.305463
3376.9681,0.303667
3377.8999,0.300186
3378.8317,0.301489
3379.7636,0.303679
3380.6954,0.302399
3381.6273,0.300276
3382.5591,0.300655
3383.4909,0.300103
3384.4228,0.299715
3385.3546,0.298787
3386.2864,0.299265
3387.2183,0.302964
3388.1501,0.303731
3389.0819,0.297198
3390.0138,0.293867
3390.9456,0.295682
3391.8774,0.297619
3392.8093,0.296829
3393.7411,0.297068
3394.6729,0.296722
3395.6048,0.294797
3396.5366,0.291826
3397.4684,0.291265
3398.4003,0.291572
3399.3321,0.293163
3400.2639,0.292815
3401.1958,0.291553
3402.1276,0.287649
3403.0594,0.285967
3403.9913,0.285344
3404.9231,0.284770
3405.8549,0.280597
3406.7868,0.278754
3407.7186,0.277847
3408.6505,0.279218
3409.5823,0.282467
3410.5141,0.283258
3411.4460,0.280481
3412.3778,0.279795
3413.3096,0.275030
3414.2415,0.272745
3415.1733,0.275879
3416.1051,0.277278
3417.0370,0.275399
3417.9688,0.276847
3418.9006,0.274738
3419.8325,0.272746
3420.7643,0.271503
3421.6961,0.271091
3422.6280,0.268234
3423.5598,0.265741
3424.4916,0.264618
3425.4235,0.265838
3426.3553,0.266863
3427.2871,0.266966
3428.2190,0.263833
3429.1508,0.264031
3430.0826,0.263954
3431.0145,0.262902
3431.9463,0.260475
3432.8781,0.257892
3433.8100,0.255616
3434.7418,0.254520
3435.6737,0.255872
3436.6055,0.254177
3437.5373,0.249046
3438.4692,0.246728
3439.4010,0.249421
3440.3328,0.250885
3441.2647,0.248860
3442.1965,0.250777
3443.1283,0.247828
3444.0602,0.242977
3444.9920,0.242407
3445.9238,0.243853
3446.8557,0.239643
3447.7875,0.238907
3448.7193,0.240090
3449.6512,0.240216
3450.5830,0.239409
3451.5148,0.239555
3452.4467,0.236354
3453.3785,0.232491
3454.3103,0.227981
3455.2422,0.228974
3456.1740,0.231151
3457.1058,0.233205
3458.0377,0.230853
3458.9695,0.228170
3459.9013,0.228366
3460.8332,0.228460
3461.7650,0.225839
3462.6969,0.223878
3463.6287,0.221594
3464.5605,0.221294
3465.4924,0.220997
3466.4242,0.218892
3467.3560,0.218421
3468.2879,0.219451
3469.2197,0.216685
3470.1515,0.213580
3471.0834,0.211678
3472.0152,0.210006
3472.9470,0.209595
3473.8789,0.209763
3474.8107,0.208176
3475.7425,0.207521
3476.6744,0.204425
3477.6062,0.204767
3478.5380,0.205456
3479.4699,0.205864
3480.4017,0.204001
3481.3335,0.201538
3482.2654,0.201198
3483.1972,0.200512
3484.1290,0.197807
3485.0609,0.197318
3485.9927,0.196667
3486.9245,0.197458
3487.8564,0.197029
3488.7882,0.195082
3489.7201,0.194032
3490.6519,0.191992
3491.5837,0.189683
3492.5156,0.190831
3493.4474,0.188284
3494.3792,0.187195
3495.3111,0.187809
3496.2429,0.188794
3497.1747,0.185880
3498.1066,0.183976
3499.0384,0.183480
3499.9702,0.182721
3500.9021,0.177987
3501.8339,0.173580
3502.7657,0.172449
3503.6976,0.173673
3504.6294,0.173648
3505.5612,0.174368
3506.4931,0.175391
3507.4249,0.177012
3508.3567,0.175280
3509.2886,0.172543
3510.2204,0.169782
3511.1522,0.166748
3512.0841,0.167073
3513.0159,0.168432
3513.9477,0.166449
3514.8796,0.165965
3515.8114,0.164800
3516.7432,0.163309
3517.6751,0.159155
3518.6069,0.157626
3519.5388,0.159124
3520.4706,0.157668
3521.4024,0.154009
3522.3343,0.155998
3523.2661,0.156195
3524.1979,0.156448
3525.1298,0.157794
3526.0616,0.155694
3526.9934,0.152335
3527.9253,0.152770
3528.8571,0.150231
3529.7889,0.149297
3530.7208,0.150494
3531.6526,0.150294
3532.5844,0.147097
3533.5163,0.144728
3534.4481,0.143029
3535.3799,0.141079
3536.3118,0.138890
3537.2436,0.138985
3538.1754,0.140816
3539.1073,0.140492
3540.0391,0.137494
3540.9709,0.134999
3541.9028,0.134275
3542.8346,0.137450
3543.7664,0.137247
3544.6983,0.132093
3545.6301,0.129763
3546.5620,0.129193
3547.4938,0.128075
3548.4256,0.129541
3549.3575,0.130213
3550.2893,0.128561
3551.2211,0.125187
3552.1530,0.125556
3553.0848,0.124881
3554.0166,0.122829
3554.9485,0.120297
3555.8803,0.119939
3556.8121,0.119835
3557.7440,0.119330
3558.6758,0.118227
3559.6076,0.116479
3560.5395,0.114993
3561.4713,0.114731
3562.4031,0.115161
3563.3350,0.112934
3564.2668,0.110870
3565.1986,0.110093
3566.1305,0.108113
3567.0623,0.108604
3567.9941,0.111515
3568.9260,0.111938
3569.8578,0.107606
3570.7896,0.106285
3571.7215,0.106084
3572.6533,0.105583
3573.5852,0.104248
3574.5170,0.103108
3575.4488,0.104035
3576.3807,0.104004
3577.3125,0.101162
3578.2443,0.099229
3579.1762,0.097346
3580.1080,0.097556
3581.0398,0.097632
3581.9717,0.096648
3582.9035,0.094547
3583.8353,0.094953
3584.7672,0.094455
3585.6990,0.092723
3586.6308,0.090958
3587.5627,0.089986
3588.4945,0.089803
3589.4263,0.089475
3590.3582,0.087816
3591.2900,0.088027
3592.2218,0.086823
3593.1537,0.086059
3594.0855,0.086191
3595.0173,0.084288
3595.9492,0.083570
3596.8810,0.083119
3597.8128,0.080744
3598.7447,0.079129
3599.6765,0.079918
3600.6084,0.080775
3601.5402,0.079405
3602.4720,0.078930
3603.4039,0.077493
3604.3357,0.076631
3605.2675,0.074412
3606.1994,0.071887
3607.1312,0.072610
3608.0630,0.074652
3608.9949,0.074303
3609.9267,0.073888
3610.8585,0.073900
3611.7904,0.073472
3612.7222,0.071346
3613.6540,0.069773
3614.5859,0.069536
3615.5177,0.068158
3616.4495,0.067462
3617.3814,0.068332
3618.3132,0.067545
3619.2450,0.067186
3620.1769,0.065576
3621.1087,0.064052
3622.0405,0.063935
3622.9724,0.062758
3623.9042,0.060768
3624.8360,0.058574
3625.7679,0.058636
3626.6997,0.059870
3627.6316,0.059276
3628.5634,0.057998
3629.4952,0.056841
3630.4271,0.058739
3631.3589,0.060159
3632.2907,0.058613
3633.2226,0.055272
3634.1544,0.054379
3635.0862,0.054202
3636.0181,0.053748
3636.9499,0.053351
3637.8817,0.053331
3638.8136,0.051905
3639.7454,0.049744
3640.6772,0.049366
3641.6091,0.050113
3642.5409,0.049212
3643.4727,0.049266
3644.4046,0.047780
3645.3364,0.045129
3646.2682,0.045087
3647.2001,0.044307
3648.1319,0.043087
3649.0637,0.044292
3649.9956,0.045694
3650.9274,0.044931
3651.8592,0.042936
3652.7911,0.040378
3653.7229,0.039907
3654.6547,0.040625
3655.5866,0.038858
3656.5184,0.036770
3657.4503,0.036504
3658.3821,0.037177
3659.3139,0.036239
3660.2458,0.034596
3661.1776,0.033159
3662.1094,0.031933
3663.0413,0.032037
3663.9731,0.031925
3664.9049,0.031558
3665.8368,0.030457
3666.7686,0.027285
3667.7004,0.026065
3668.6323,0.026476
3669.5641,0.025835
3670.4959,0.024816
3671.4278,0.023684
3672.3596,0.020948
3673.2914,0.020679
3674.2233,0.023360
3675.1551,0.023469
3676.0869,0.021425
3677.0188,0.019194
3677.9506,0.017733
3678.8824,0.019163
3679.8143,0.020333
3680.7461,0.019002
3681.6779,0.017635
3682.6098,0.016569
3683.5416,0.015675
3684.4735,0.015608
3685.4053,0.015605
3686.3371,0.015216
3687.2690,0.014804
3688.2008,0.014648
3689.1326,0.014102
3690.0645,0.011982
3690.9963,0.009078
3691.9281,0.010820
3692.8600,0.011878
3693.7918,0.010365
3694.7236,0.009462
3695.6555,0.009695
3696.5873,0.009694
3697.5191,0.009217
3698.4510,0.009124
3699.3828,0.009747
3700.3146,0.009324
3701.2465,0.008613
3702.1783,0.008148
3703.1101,0.008209
3704.0420,0.008572
3704.9738,0.007958
3705.9056,0.007280
3706.8375,0.008001
3707.7693,0.007781
3708.7011,0.006912
3709.6330,0.006827
3710.5648,0.006932
3711.4967,0.006669
3712.4285,0.006511
3713.3603,0.006032
3714.2922,0.004025
3715.2240,0.003580
3716.1558,0.004718
3717.0877,0.005683
3718.0195,0.005544
3718.9513,0.004960
3719.8832,0.004303
3720.8150,0.003239
3721.7468,0.002949
3722.6787,0.003316
3723.6105,0.003851
3724.5423,0.005505
3725.4742,0.005841
3726.4060,0.003966
3727.3378,0.004567
3728.2697,0.005547
3729.2015,0.004125
3730.1333,0.002913
3731.0652,0.002781
3731.9970,0.002375
3732.9288,0.002570
3733.8607,0.004118
3734.7925,0.003484
3735.7243,0.002603
3736.6562,0.003110
3737.5880,0.002156
3738.5199,0.001629
3739.4517,0.002623
3740.3835,0.002228
3741.3154,0.001315
3742.2472,0.002492
3743.1790,0.003143
3744.1109,0.001889
3745.0427,0.000376
3745.9745,0.000989
3746.9064,0.000995
3747.8382,0.000331
3748.7700,0.001492
3749.7019,0.002838
3750.6337,0.002196
3751.5655,0.001140
3752.4974,0.000685
3753.4292,-0.000658
3754.3610,0.000320
3755.2929,0.002759
3756.2247,0.002168
3757.1565,0.001973
3758.0884,0.003177
3759.0202,0.003543
3759.9520,0.003721
3760.8839,0.003004
3761.8157,0.001946
3762.7475,0.002172
3763.6794,0.002473
3764.6112,0.002084
3765.5431,0.001794
3766.4749,0.001830
3767.4067,0.002795
3768.3386,0.002978
3769.2704,0.002514
3770.2022,0.002129
3771.1341,0.000715
3772.0659,0.000147
3772.9977,0.000794
3773.9296,0.001621
3774.8614,0.002603
3775.7932,0.003281
3776.7251,0.003165
3777.6569,0.002476
3778.5887,0.001912
3779.5206,0.002436
3780.4524,0.002902
3781.3842,0.002705
3782.3161,0.001249
3783.2479,0.000889
3784.1797,0.002092
3785.1116,0.002159
3786.0434,0.001432
3786.9752,0.001793
3787.9071,0.002104
3788.8389,0.001768
3789.7707,0.001472
3790.7026,0.001462
3791.6344,0.002365
3792.5662,0.002784
3793.4981,0.001936
3794.4299,0.001708
3795.3618,0.002411
3796.2936,0.002229
3797.2254,0.001245
3798.1573,0.000946
3799.0891,0.001345
3800.0209,0.000738
3800.9528,-0.000015
3801.8846,0.000315
3802.8164,0.001065
3803.7483,0.001773
3804.6801,0.001307
3805.6119,0.000764
3806.5438,0.000936
3807.4756,0.000646
3808.4074,0.001350
3809.3393,0.003135
3810.2711,0.003910
3811.2029,0.003557
3812.1348,0.002357
3813.0666,0.001318
3813.9984,0.001961
3814.9303,0.002036
3815.8621,0.001220
3816.7939,0.001165
3817.7258,0.000737
3818.6576,-0.000026
3819.5894,0.000511
3820.5213,0.001108
3821.4531,0.000537
3822.3850,0.000121
3823.3168,-0.001146
3824.2486,-0.002475
3825.1805,-0.002042
3826.1123,-0.000321
3827.0441,0.001234
3827.9760,0.001735
3828.9078,0.001692
3829.8396,0.001128
3830.7715,0.001279
3831.7033,0.001376
3832.6351,0.000727
3833.5670,0.000686
3834.4988,0.001483
3835.4306,0.002877
3836.3625,0.003228
3837.2943,0.001566
3838.2261,-0.000394
3839.1580,-0.001220
3840.0898,-0.000173
3841.0216,0.001451
3841.9535,0.002649
3842.8853,0.002868
3843.8171,0.001957
3844.7490,0.001422
3845.6808,0.001091
3846.6126,0.001194
3847.5445,0.001995
3848.4763,0.001776
3849.4082,0.001528
3850.3400,0.001976
3851.2718,0.001907
3852.2037,0.000488
3853.1355,-0.000292
3854.0673,-0.000237
3854.9992,0.001077
3855.9310,0.001662
3856.8628,-0.001001
3857.7947,-0.001703
3858.7265,-0.000586
3859.6583,-0.000602
3860.5902,0.000001
3861.5220,0.001616
3862.4538,0.002634
3863.3857,0.001876
3864.3175,0.000621
3865.2493,0.000658
3866.1812,0.001335
3867.1130,0.001547
3868.0448,0.000612
3868.9767,-0.000951
3869.9085,0.000026
3870.8403,0.001814
3871.7722,0.002113
3872.7040,0.001298
3873.6358,0.000785
3874.5677,0.001575
3875.4995,0.001329
3876.4314,-0.000049
3877.3632,-0.000553
3878.2950,0.000517
3879.2269,0.001240
3880.1587,0.000887
3881.0905,0.000749
3882.0224,-0.000019
3882.9542,-0.000849
3883.8860,-0.000443
3884.8179,-0.000048
3885.7497,0.000061
3886.6815,-0.000034
3887.6134,0.000254
3888.5452,0.001253
3889.4770,0.001030
3890.4089,0.001016
3891.3407,0.002252
3892.2725,0.001767
3893.2044,0.000077
3894.1362,-0.000444
3895.0680,-0.000120
3895.9999,-0.000274
3896.9317,0.000122
3897.8635,0.001934
3898.7954,0.002692
3899.7272,0.001548
3900.6590,0.000357
3901.5909,-0.000659
3902.5227,-0.001151
3903.4546,0.000315
3904.3864,0.002500
3905.3182,0.002921
3906.2501,0.002265
3907.1819,0.001230
3908.1137,0.000422
3909.0456,0.000981
3909.9774,0.001269
3910.9092,0.001609
3911.8411,0.002236
3912.7729,0.002005
3913.7047,0.001769
3914.6366,0.001508
3915.5684,0.000834
3916.5002,0.000792
3917.4321,0.001560
3918.3639,0.001518
3919.2957,0.000493
3920.2276,0.000108
3921.1594,-0.000058
3922.0912,-0.000136
3923.0231,0.000754
3923.9549,0.000870
3924.8867,0.001040
3925.8186,0.002085
3926.7504,0.001729
3927.6822,0.001821
3928.6141,0.002196
3929.5459,0.001831
3930.4777,0.001442
3931.4096,0.001283
3932.3414,0.001479
3933.2733,0.001047
3934.2051,0.001361
3935.1369,0.002162
3936.0688,0.001133
3937.0006,0.000592
3937.9324,0.001547
3938.8643,0.001943
3939.7961,0.002039
3940.7279,0.002082
3941.6598,0.001141
3942.5916,0.000379
3943.5234,0.001230
3944.4553,0.002022
3945.3871,0.001606
3946.3189,0.000701
3947.2508,0.001269
3948.1826,0.002469
3949.1144,0.001953
3950.0463,0.000995
3950.9781,0.000311
3951.9099,0.000369
3952.8418,0.001188
3953.7736,0.000944
3954.7054,0.001086
3955.6373,0.002302
3956.5691,0.002885
3957.5009,0.002493
3958.4328,0.001270
3959.3646,0.001044
3960.2965,0.001801
3961.2283,0.001460
3962.1601,0.000903
3963.0920,0.001530
3964.0238,0.002430
3964.9556,0.002764
3965.8875,0.002111
3966.8193,0.000813
3967.7511,0.000515
3968.6830,0.000392
3969.6148,0.000120
3970.5466,0.001050
3971.4785,0.001870
3972.4103,0.001688
3973.3421,0.001438
3974.2740,0.002235
3975.2058,0.002110
3976.1376,0.000941
3977.0695,0.001420
3978.0013,0.001761
3978.9331,0.001263
3979.8650,0.001209
3980.7968,0.001072
3981.7286,0.000479
3982.6605,0.000884
3983.5923,0.002279
3984.5241,0.002344
3985.4560,0.000970
3986.3878,0.000176
3987.3197,0.000446
3988.2515,0.000710
3989.1833,0.000580
3990.1152,0.000839
3991.0470,0.001408
3991.9788,0.001214
3992.9107,0.000447
3993.8425,0.000063
3994.7743,0.000018
3995.7062,0.000782
3996.6380,0.001593
3997.5698,0.001392
3998.5017,0.001714
3999.4335,0.002469
4000.3653,0.002048
