Wavenumber,Intensity
650.4205,0.304640
651.3523,0.303203
652.2841,0.299650
653.2160,0.293872
654.1478,0.290396
655.0796,0.290186
656.0115,0.288161
656.9433,0.283780
657.8751,0.285677
658.8070,0.284956
659.7388,0.282844
660.6706,0.290594
661.6025,0.295785
662.5343,0.295369
663.4661,0.296709
664.3980,0.298501
665.3298,0.290936
666.2616,0.282144
667.1935,0.282744
668.1253,0.303842
669.0571,0.313207
669.9890,0.302160
670.9208,0.292765
671.8526,0.282029
672.7845,0.281724
673.7163,0.282612
674.6481,0.277485
675.5800,0.272341
676.5118,0.270499
677.4437,0.274761
678.3755,0.276171
679.3073,0.274239
680.2392,0.272966
681.1710,0.270642
682.1028,0.267690
683.0347,0.268036
683.9665,0.271426
684.8983,0.269132
685.8302,0.264212
686.7620,0.263336
687.6938,0.257560
688.6257,0.258812
689.5575,0.268234
690.4893,0.267492
691.4212,0.258034
692.3530,0.259158
693.2848,0.262603
694.2167,0.259277
695.1485,0.257437
696.0803,0.255616
697.0122,0.251789
697.9440,0.250483
698.8758,0.250501
699.8077,0.250854
700.7395,0.251960
701.6713,0.251501
702.6032,0.250369
703.5350,0.248338
704.4669,0.245300
705.3987,0.244571
706.3305,0.242905
707.2624,0.242291
708.1942,0.243821
709.1260,0.244631
710.0579,0.241163
710.9897,0.237281
711.9215,0.238332
712.8534,0.238933
713.7852,0.237097
714.7170,0.236542
715.6489,0.233466
716.5807,0.233758
717.5125,0.234345
718.4444,0.231432
719.3762,0.230614
720.3080,0.231688
721.2399,0.231036
722.1717,0.229745
723.1035,0.226819
724.0354,0.223413
724.9672,0.221841
725.8990,0.221176
726.8309,0.219670
727.7627,0.217963
728.6945,0.217611
729.6264,0.217431
730.5582,0.216477
731.4901,0.216853
732.4219,0.216116
733.3537,0.214541
734.2856,0.213335
735.2174,0.212831
736.1492,0.213064
737.0811,0.212543
738.0129,0.210587
738.9447,0.209614
739.8766,0.210043
740.8084,0.208795
741.7402,0.205864
742.6721,0.204652
743.6039,0.204267
744.5357,0.203792
745.4676,0.202229
746.3994,0.200815
747.3312,0.199919
748.2631,0.197192
749.1949,0.195209
750.1267,0.195935
751.0586,0.195462
751.9904,0.194199
752.9222,0.193386
753.8541,0.191980
754.7859,0.190865
755.7177,0.190441
756.6496,0.189965
757.5814,0.188909
758.5132,0.187008
759.4451,0.186527
760.3769,0.184626
761.3088,0.181594
762.2406,0.180554
763.1724,0.181639
764.1043,0.182943
765.0361,0.181788
765.9679,0.179992
766.8998,0.178539
767.8316,0.176969
768.7634,0.176631
769.6953,0.175873
770.6271,0.174294
771.5589,0.173244
772.4908,0.172058
773.4226,0.171528
774.3544,0.170143
775.2863,0.168707
776.2181,0.167241
777.1499,0.165106
778.0818,0.164742
779.0136,0.164774
779.9454,0.163823
780.8773,0.164253
781.8091,0.164253
782.7409,0.162626
783.6728,0.161017
784.6046,0.160216
785.5364,0.160367
786.4683,0.159367
787.4001,0.157949
788.3320,0.155841
789.2638,0.153929
790.1956,0.153826
791.1275,0.154548
792.0593,0.154201
792.9911,0.152807
793.9230,0.151708
794.8548,0.151273
795.7866,0.150068
796.7185,0.149131
797.6503,0.148533
798.5821,0.148743
799.5140,0.148221
800.4458,0.147137
801.3776,0.146540
802.3095,0.145971
803.2413,0.145941
804.1731,0.145727
805.1050,0.145294
806.0368,0.144489
806.9686,0.142609
807.9005,0.140495
808.8323,0.138632
809.7641,0.137874
810.6960,0.137103
811.6278,0.135019
812.5596,0.133506
813.4915,0.132014
814.4233,0.129916
815.3552,0.128501
816.2870,0.127120
817.2188,0.126185
818.1507,0.125339
819.0825,0.124374
820.0143,0.123275
820.9462,0.122363
821.8780,0.120607
822.8098,0.119719
823.7417,0.119458
824.6735,0.118732
825.6053,0.117888
826.5372,0.116838
827.4690,0.115569
828.4008,0.114549
829.3327,0.113458
830.2645,0.112970
831.1963,0.112559
832.1282,0.111437
833.0600,0.110271
833.9918,0.109453
834.9237,0.109473
835.8555,0.109564
836.7873,0.108620
837.7192,0.107243
838.6510,0.106441
839.5828,0.106010
840.5147,0.104921
841.4465,0.104467
842.3784,0.104240
843.3102,0.104550
844.2420,0.104323
845.1739,0.102504
846.1057,0.101358
847.0375,0.101741
847.9694,0.101099
848.9012,0.099925
849.8330,0.099385
850.7649,0.098645
851.6967,0.097962
852.6285,0.097815
853.5604,0.097672
854.4922,0.097329
855.4240,0.097104
856.3559,0.097032
857.2877,0.096906
858.2195,0.097418
859.1514,0.097677
860.0832,0.097818
861.0150,0.098521
861.9469,0.099365
862.8787,0.099846
863.8105,0.101123
864.7424,0.102876
865.6742,0.104209
866.6060,0.106999
867.5379,0.110911
868.4697,0.114404
869.4016,0.118299
870.3334,0.123924
871.2652,0.131102
872.1971,0.139304
873.1289,0.148635
874.0607,0.159582
874.9926,0.171077
875.9244,0.182104
876.8562,0.191733
877.7881,0.197309
878.7199,0.198852
879.6517,0.196316
880.5836,0.189908
881.5154,0.180112
882.4472,0.168926
883.3791,0.156433
884.3109,0.143596
885.2427,0.131981
886.1746,0.122099
887.1064,0.113807
888.0382,0.105927
888.9701,0.098897
889.9019,0.092623
890.8337,0.087469
891.7656,0.083332
892.6974,0.079660
893.6292,0.076981
894.5611,0.075194
895.4929,0.073422
896.4247,0.071526
897.3566,0.070365
898.2884,0.069114
899.2203,0.067436
900.1521,0.066027
901.0839,0.064948
902.0158,0.064309
902.9476,0.063552
903.8794,0.062546
904.8113,0.061947
905.7431,0.061355
906.6749,0.060561
907.6068,0.059992
908.5386,0.059453
909.4704,0.059300
910.4023,0.058767
911.3341,0.057919
912.2659,0.057428
913.1978,0.057282
914.1296,0.056843
915.0614,0.055874
915.9933,0.055804
916.9251,0.055728
917.8569,0.055040
918.7888,0.054598
919.7206,0.054595
920.6524,0.054090
921.5843,0.053116
922.5161,0.052837
923.4479,0.052736
924.3798,0.052362
925.3116,0.052253
926.2435,0.052443
927.1753,0.052002
928.1071,0.051384
929.0390,0.051099
929.9708,0.050923
930.9026,0.050442
931.8345,0.050099
932.7663,0.050107
933.6981,0.050157
934.6300,0.050148
935.5618,0.049849
936.4936,0.049480
937.4255,0.049296
938.3573,0.049111
939.2891,0.048899
940.2210,0.048481
941.1528,0.047986
942.0846,0.047914
943.0165,0.048017
943.9483,0.047903
944.8801,0.047543
945.8120,0.047395
946.7438,0.047544
947.6756,0.047559
948.6075,0.047305
949.5393,0.047198
950.4711,0.047126
951.4030,0.046801
952.3348,0.046675
953.2667,0.046788
954.1985,0.046614
955.1303,0.046526
956.0622,0.046511
956.9940,0.046558
957.9258,0.046516
958.8577,0.046502
959.7895,0.046407
960.7213,0.046352
961.6532,0.046479
962.5850,0.046118
963.5168,0.046023
964.4487,0.046094
965.3805,0.045824
966.3123,0.045480
967.2442,0.045668
968.1760,0.046259
969.1078,0.046313
970.0397,0.046169
970.9715,0.046198
971.9033,0.046209
972.8352,0.046107
973.7670,0.046129
974.6988,0.046133
975.6307,0.046101
976.5625,0.046046
977.4943,0.046427
978.4262,0.046746
979.3580,0.046712
980.2899,0.046876
981.2217,0.046895
982.1535,0.046697
983.0854,0.046853
984.0172,0.047453
984.9490,0.047583
985.8809,0.047542
986.8127,0.047894
987.7445,0.048398
988.6764,0.048797
989.6082,0.048944
990.5400,0.048980
991.4719,0.049152
992.4037,0.049583
993.3355,0.049951
994.2674,0.050091
995.1992,0.050622
996.1310,0.051131
997.0629,0.051370
997.9947,0.051776
998.9265,0.052227
999.8584,0.052565
1000.7902,0.052908
1001.7220,0.053788
1002.6539,0.054626
1003.5857,0.055377
1004.5175,0.056227
1005.4494,0.056937
1006.3812,0.057576
1007.3131,0.058361
1008.2449,0.059411
1009.1767,0.060598
1010.1086,0.061525
1011.0404,0.062473
1011.9722,0.063738
1012.9041,0.065419
1013.8359,0.067178
1014.7677,0.068746
1015.6996,0.070509
1016.6314,0.072591
1017.5632,0.075152
1018.4951,0.077846
1019.4269,0.080546
1020.3587,0.083436
1021.2906,0.086468
1022.2224,0.090011
1023.1542,0.094164
1024.0861,0.098839
1025.0179,0.103676
1025.9497,0.109119
1026.8816,0.115664
1027.8134,0.122770
1028.7452,0.130521
1029.6771,0.139162
1030.6089,0.148860
1031.5407,0.160168
1032.4726,0.172950
1033.4044,0.187247
1034.3362,0.203157
1035.2681,0.221320
1036.1999,0.241213
1037.1318,0.262762
1038.0636,0.286032
1038.9954,0.309653
1039.9273,0.332183
1040.8591,0.352940
1041.7909,0.370562
1042.7228,0.383481
1043.6546,0.390131
1044.5864,0.390583
1045.5183,0.384465
1046.4501,0.372463
1047.3819,0.356421
1048.3138,0.336965
1049.2456,0.315042
1050.1774,0.292054
1051.1093,0.268809
1052.0411,0.245696
1052.9729,0.223174
1053.9048,0.201355
1054.8366,0.181126
1055.7684,0.163354
1056.7003,0.147928
1057.6321,0.134771
1058.5639,0.123702
1059.4958,0.114621
1060.4276,0.107511
1061.3594,0.102122
1062.2913,0.097932
1063.2231,0.094864
1064.1550,0.092739
1065.0868,0.091349
1066.0186,0.090933
1066.9505,0.091331
1067.8823,0.092148
1068.8141,0.093589
1069.7460,0.095354
1070.6778,0.097568
1071.6096,0.100430
1072.5415,0.103847
1073.4733,0.107533
1074.4051,0.111520
1075.3370,0.115734
1076.2688,0.120469
1077.2006,0.125390
1078.1325,0.130485
1079.0643,0.135825
1079.9961,0.140984
1080.9280,0.145943
1081.8598,0.150386
1082.7916,0.154592
1083.7235,0.158132
1084.6553,0.160356
1085.5871,0.161627
1086.5190,0.162001
1087.4508,0.160893
1088.3826,0.158126
1089.3145,0.154277
1090.2463,0.149136
1091.1782,0.143067
1092.1100,0.136199
1093.0418,0.128503
1093.9737,0.120646
1094.9055,0.112812
1095.8373,0.105226
1096.7692,0.097826
1097.7010,0.090730
1098.6328,0.084424
1099.5647,0.078970
1100.4965,0.074009
1101.4283,0.069605
1102.3602,0.065850
1103.2920,0.062437
1104.2238,0.059556
1105.1557,0.057122
1106.0875,0.054908
1107.0193,0.052963
1107.9512,0.051420
1108.8830,0.050090
1109.8148,0.048944
1110.7467,0.047882
1111.6785,0.047235
1112.6103,0.046593
1113.5422,0.045564
1114.4740,0.045094
1115.4058,0.044851
1116.3377,0.044266
1117.2695,0.043750
1118.2014,0.043460
1119.1332,0.043404
1120.0650,0.043210
1120.9969,0.042822
1121.9287,0.042745
1122.8605,0.042657
1123.7924,0.042532
1124.7242,0.042402
1125.6560,0.042029
1126.5879,0.041709
1127.5197,0.041698
1128.4515,0.041778
1129.3834,0.041416
1130.3152,0.041197
1131.2470,0.041090
1132.1789,0.040611
1133.1107,0.040390
1134.0425,0.040257
1134.9744,0.039956
1135.9062,0.039693
1136.8380,0.039566
1137.7699,0.039363
1138.7017,0.038874
1139.6335,0.038467
1140.5654,0.038386
1141.4972,0.038222
1142.4290,0.037985
1143.3609,0.037992
1144.2927,0.038037
1145.2246,0.037862
1146.1564,0.037700
1147.0882,0.037598
1148.0201,0.037455
1148.9519,0.037486
1149.8837,0.037593
1150.8156,0.037521
1151.7474,0.037384
1152.6792,0.037304
1153.6111,0.037104
1154.5429,0.037078
1155.4747,0.037086
1156.4066,0.036782
1157.3384,0.036571
1158.2702,0.036378
1159.2021,0.036241
1160.1339,0.035927
1161.0657,0.035470
1161.9976,0.034997
1162.9294,0.034496
1163.8612,0.034168
1164.7931,0.033914
1165.7249,0.033782
1166.6567,0.033697
1167.5886,0.033398
1168.5204,0.032952
1169.4522,0.032921
1170.3841,0.032963
1171.3159,0.032739
1172.2477,0.032460
1173.1796,0.032388
1174.1114,0.032125
1175.0433,0.031965
1175.9751,0.032180
1176.9069,0.032186
1177.8388,0.031925
1178.7706,0.031821
1179.7024,0.031852
1180.6343,0.031887
1181.5661,0.031865
1182.4979,0.031731
1183.4298,0.031634
1184.3616,0.031731
1185.2934,0.031713
1186.2253,0.031660
1187.1571,0.031766
1188.0889,0.031789
1189.0208,0.031823
1189.9526,0.031997
1190.8844,0.032066
1191.8163,0.032052
1192.7481,0.032024
1193.6799,0.032007
1194.6118,0.031949
1195.5436,0.032003
1196.4754,0.031930
1197.4073,0.031852
1198.3391,0.032066
1199.2709,0.032321
1200.2028,0.032139
1201.1346,0.032183
1202.0665,0.032254
1202.9983,0.032168
1203.9301,0.032108
1204.8620,0.032310
1205.7938,0.032486
1206.7256,0.032362
1207.6575,0.032259
1208.5893,0.032445
1209.5211,0.032658
1210.4530,0.032584
1211.3848,0.032523
1212.3166,0.032648
1213.2485,0.032744
1214.1803,0.032693
1215.1121,0.032799
1216.0440,0.032701
1216.9758,0.032628
1217.9076,0.032794
1218.8395,0.033026
1219.7713,0.033245
1220.7031,0.033462
1221.6350,0.033499
1222.5668,0.033577
1223.4986,0.033506
1224.4305,0.033433
1225.3623,0.033667
1226.2941,0.034146
1227.2260,0.033999
1228.1578,0.033734
1229.0897,0.033868
1230.0215,0.034140
1230.9533,0.034381
1231.8852,0.034454
1232.8170,0.034575
1233.7488,0.034688
1234.6807,0.034726
1235.6125,0.034756
1236.5443,0.035010
1237.4762,0.035271
1238.4080,0.035355
1239.3398,0.035474
1240.2717,0.035775
1241.2035,0.036124
1242.1353,0.036132
1243.0672,0.036199
1243.9990,0.036689
1244.9308,0.037016
1245.8627,0.037391
1246.7945,0.037653
1247.7263,0.037499
1248.6582,0.037522
1249.5900,0.038048
1250.5218,0.038779
1251.4537,0.039226
1252.3855,0.039452
1253.3173,0.039691
1254.2492,0.039904
1255.1810,0.040362
1256.1129,0.040942
1257.0447,0.041533
1257.9765,0.042395
1258.9084,0.043102
1259.8402,0.043532
1260.7720,0.044102
1261.7039,0.044982
1262.6357,0.045549
1263.5675,0.046157
1264.4994,0.047070
1265.4312,0.048272
1266.3630,0.049564
1267.2949,0.050521
1268.2267,0.051372
1269.1585,0.052406
1270.0904,0.053312
1271.0222,0.054269
1271.9540,0.055118
1272.8859,0.055527
1273.8177,0.055524
1274.7495,0.055209
1275.6814,0.054966
1276.6132,0.054863
1277.5450,0.054319
1278.4769,0.053506
1279.4087,0.052649
1280.3405,0.051909
1281.2724,0.051335
1282.2042,0.050711
1283.1361,0.050072
1284.0679,0.049501
1284.9997,0.048988
1285.9316,0.048710
1286.8634,0.048564
1287.7952,0.048513
1288.7271,0.048531
1289.6589,0.048482
1290.5907,0.048569
1291.5226,0.048746
1292.4544,0.048741
1293.3862,0.048756
1294.3181,0.049183
1295.2499,0.049598
1296.1817,0.049926
1297.1136,0.050487
1298.0454,0.050830
1298.9772,0.051034
1299.9091,0.051512
1300.8409,0.052150
1301.7727,0.052632
1302.7046,0.052963
1303.6364,0.053390
1304.5682,0.053839
1305.5001,0.054327
1306.4319,0.054843
1307.3637,0.055341
1308.2956,0.055830
1309.2274,0.056457
1310.1592,0.056570
1311.0911,0.056684
1312.0229,0.057249
1312.9548,0.057855
1313.8866,0.058436
1314.8184,0.058829
1315.7503,0.059082
1316.6821,0.059286
1317.6139,0.059770
1318.5458,0.060110
1319.4776,0.060435
1320.4094,0.060810
1321.3413,0.060735
1322.2731,0.060720
1323.2049,0.060609
1324.1368,0.060574
1325.0686,0.060762
1326.0004,0.060951
1326.9323,0.060899
1327.8641,0.060747
1328.7959,0.060487
1329.7278,0.060414
1330.6596,0.060247
1331.5914,0.060024
1332.5233,0.059672
1333.4551,0.059079
1334.3869,0.058667
1335.3188,0.058109
1336.2506,0.057750
1337.1824,0.057370
1338.1143,0.056658
1339.0461,0.056697
1339.9780,0.057221
1340.9098,0.056962
1341.8416,0.056088
1342.7735,0.055170
1343.7053,0.054610
1344.6371,0.054029
1345.5690,0.053500
1346.5008,0.052936
1347.4326,0.052624
1348.3645,0.052247
1349.2963,0.051811
1350.2281,0.051489
1351.1600,0.051095
1352.0918,0.050905
1353.0236,0.050896
1353.9555,0.050490
1354.8873,0.050300
1355.8191,0.050508
1356.7510,0.050489
1357.6828,0.050319
1358.6146,0.050386
1359.5465,0.050395
1360.4783,0.050278
1361.4101,0.050461
1362.3420,0.051063
1363.2738,0.051867
1364.2056,0.052771
1365.1375,0.052841
1366.0693,0.053120
1367.0012,0.053721
1367.9330,0.054754
1368.8648,0.056616
1369.7967,0.058792
1370.7285,0.060317
1371.6603,0.061905
1372.5922,0.064135
1373.5240,0.066680
1374.4558,0.069684
1375.3877,0.072481
1376.3195,0.073816
1377.2513,0.074361
1378.1832,0.075120
1379.1150,0.076484
1380.0468,0.077560
1380.9787,0.078041
1381.9105,0.078174
1382.8423,0.077924
1383.7742,0.077500
1384.7060,0.077449
1385.6378,0.077039
1386.5697,0.076295
1387.5015,0.076269
1388.4333,0.076230
1389.3652,0.074224
1390.2970,0.072660
1391.2288,0.071729
1392.1607,0.070604
1393.0925,0.069819
1394.0244,0.069605
1394.9562,0.070223
1395.8880,0.070342
1396.8199,0.069292
1397.7517,0.068728
1398.6835,0.069457
1399.6154,0.070964
1400.5472,0.071378
1401.4790,0.070202
1402.4109,0.069585
1403.3427,0.069625
1404.2745,0.070089
1405.2064,0.071307
1406.1382,0.072620
1407.0700,0.072220
1408.0019,0.071750
1408.9337,0.071582
1409.8655,0.071459
1410.7974,0.071669
1411.7292,0.072050
1412.6610,0.072361
1413.5929,0.072059
1414.5247,0.071683
1415.4565,0.071512
1416.3884,0.071212
1417.3202,0.071158
1418.2520,0.071659
1419.1839,0.072103
1420.1157,0.073397
1421.0476,0.072336
1421.9794,0.070166
1422.9112,0.069738
1423.8431,0.069897
1424.7749,0.070266
1425.7067,0.069248
1426.6386,0.068079
1427.5704,0.067395
1428.5022,0.066572
1429.4341,0.065986
1430.3659,0.066288
1431.2977,0.066145
1432.2296,0.064169
1433.1614,0.062740
1434.0932,0.062382
1435.0251,0.061898
1435.9569,0.061332
1436.8887,0.062415
1437.8206,0.063508
1438.7524,0.061516
1439.6842,0.060419
1440.6161,0.060383
1441.5479,0.060780
1442.4797,0.061269
1443.4116,0.061447
1444.3434,0.061688
1445.2752,0.062285
1446.2071,0.063075
1447.1389,0.064083
1448.0707,0.065447
1449.0026,0.066947
1449.9344,0.066997
1450.8663,0.066756
1451.7981,0.067198
1452.7299,0.067524
1453.6618,0.066408
1454.5936,0.065137
1455.5254,0.065111
1456.4573,0.065300
1457.3891,0.065012
1458.3209,0.063154
1459.2528,0.060708
1460.1846,0.058064
1461.1164,0.054937
1462.0483,0.053031
1462.9801,0.051628
1463.9119,0.050117
1464.8438,0.049007
1465.7756,0.048552
1466.7074,0.046674
1467.6393,0.044660
1468.5711,0.043454
1469.5029,0.042768
1470.4348,0.042139
1471.3666,0.041696
1472.2984,0.042202
1473.2303,0.042544
1474.1621,0.041836
1475.0939,0.041054
1476.0258,0.040615
1476.9576,0.041181
1477.8895,0.041000
1478.8213,0.040455
1479.7531,0.040706
1480.6850,0.040980
1481.6168,0.041434
1482.5486,0.041435
1483.4805,0.040799
1484.4123,0.040584
1485.3441,0.040652
1486.2760,0.040159
1487.2078,0.039637
1488.1396,0.039415
1489.0715,0.038575
1490.0033,0.038554
1490.9351,0.038631
1491.8670,0.035986
1492.7988,0.033988
1493.7306,0.033388
1494.6625,0.032988
1495.5943,0.032647
1496.5261,0.032911
1497.4580,0.033092
1498.3898,0.031995
1499.3216,0.031860
1500.2535,0.031345
1501.1853,0.030322
1502.1171,0.030301
1503.0490,0.029880
1503.9808,0.029265
1504.9127,0.029347
1505.8445,0.030251
1506.7763,0.031054
1507.7082,0.031016
1508.6400,0.029369
1509.5718,0.028926
1510.5037,0.028876
1511.4355,0.028310
1512.3673,0.028352
1513.2992,0.029169
1514.2310,0.028284
1515.1628,0.027939
1516.0947,0.028616
1517.0265,0.029275
1517.9583,0.029513
1518.8902,0.027503
1519.8220,0.027026
1520.7538,0.028753
1521.6857,0.029776
1522.6175,0.028485
1523.5493,0.027509
1524.4812,0.027142
1525.4130,0.027531
1526.3448,0.028200
1527.2767,0.027028
1528.2085,0.027010
1529.1403,0.027684
1530.0722,0.027519
1531.0040,0.027565
1531.9359,0.027785
1532.8677,0.027912
1533.7995,0.028277
1534.7314,0.028206
1535.6632,0.026603
1536.5950,0.026164
1537.5269,0.026444
1538.4587,0.026931
1539.3905,0.028958
1540.3224,0.031340
1541.2542,0.028987
1542.1860,0.026907
1543.1179,0.027288
1544.0497,0.026962
1544.9815,0.026945
1545.9134,0.027952
1546.8452,0.027307
1547.7770,0.026895
1548.7089,0.027427
1549.6407,0.027854
1550.5725,0.028418
1551.5044,0.028112
1552.4362,0.027553
1553.3680,0.027788
1554.2999,0.028434
1555.2317,0.028904
1556.1635,0.027624
1557.0954,0.026773
1558.0272,0.028146
1558.9591,0.031339
1559.8909,0.032046
1560.8227,0.029460
1561.7546,0.027922
1562.6864,0.027476
1563.6182,0.028066
1564.5501,0.028787
1565.4819,0.029447
1566.4137,0.029145
1567.3456,0.029006
1568.2774,0.029475
1569.2092,0.029965
1570.1411,0.031320
1571.0729,0.031459
1572.0047,0.029953
1572.9366,0.029854
1573.8684,0.030281
1574.8002,0.030708
1575.7321,0.031415
1576.6639,0.032944
1577.5957,0.033545
1578.5276,0.032434
1579.4594,0.032351
1580.3912,0.032560
1581.3231,0.032809
1582.2549,0.033153
1583.1867,0.033526
1584.1186,0.034200
1585.0504,0.034456
1585.9822,0.034567
1586.9141,0.035018
1587.8459,0.035419
1588.7778,0.035871
1589.7096,0.036288
1590.6414,0.037016
1591.5733,0.037588
1592.5051,0.037788
1593.4369,0.038235
1594.3688,0.038428
1595.3006,0.038915
1596.2324,0.040035
1597.1643,0.040910
1598.0961,0.041448
1599.0279,0.041930
1599.9598,0.042479
1600.8916,0.043207
1601.8234,0.044078
1602.7553,0.045114
1603.6871,0.046493
1604.6189,0.047576
1605.5508,0.047923
1606.4826,0.048641
1607.4144,0.049852
1608.3463,0.051292
1609.2781,0.052622
1610.2099,0.053519
1611.1418,0.054446
1612.0736,0.055293
1613.0054,0.055739
1613.9373,0.056750
1614.8691,0.058143
1615.8010,0.059800
1616.7328,0.062356
1617.6646,0.066265
1618.5965,0.067658
1619.5283,0.066689
1620.4601,0.066854
1621.3920,0.067844
1622.3238,0.069754
1623.2556,0.072941
1624.1875,0.076548
1625.1193,0.078383
1626.0511,0.078446
1626.9830,0.078822
1627.9148,0.080359
1628.8466,0.082710
1629.7785,0.083539
1630.7103,0.083651
1631.6421,0.083826
1632.5740,0.084931
1633.5058,0.086451
1634.4376,0.088009
1635.3695,0.090994
1636.3013,0.095955
1637.2331,0.097665
1638.1650,0.095741
1639.0968,0.094649
1640.0286,0.094399
1640.9605,0.094184
1641.8923,0.093521
1642.8242,0.093311
1643.7560,0.093018
1644.6878,0.092643
1645.6197,0.093496
1646.5515,0.095294
1647.4833,0.096928
1648.4152,0.096647
1649.3470,0.094463
1650.2788,0.092551
1651.2107,0.091002
1652.1425,0.090168
1653.0743,0.093304
1654.0062,0.098517
1654.9380,0.095711
1655.8698,0.091054
1656.8017,0.088673
1657.7335,0.087263
1658.6653,0.086234
1659.5972,0.085226
1660.5290,0.083946
1661.4608,0.083090
1662.3927,0.082533
1663.3245,0.082077
1664.2563,0.081505
1665.1882,0.079662
1666.1200,0.077939
1667.0518,0.075956
1667.9837,0.074153
1668.9155,0.073348
1669.8474,0.072976
1670.7792,0.071799
1671.7110,0.070432
1672.6429,0.069529
1673.5747,0.067458
1674.5065,0.065988
1675.4384,0.066369
1676.3702,0.066564
1677.3020,0.063218
1678.2339,0.060601
1679.1657,0.059897
1680.0975,0.059114
1681.0294,0.058058
1681.9612,0.056065
1682.8930,0.054308
1683.8249,0.054946
1684.7567,0.056796
1685.6885,0.054622
1686.6204,0.049775
1687.5522,0.048136
1688.4840,0.048663
1689.4159,0.048405
1690.3477,0.046516
1691.2795,0.045110
1692.2114,0.043813
1693.1432,0.042736
1694.0750,0.041983
1695.0069,0.041021
1695.9387,0.040823
1696.8706,0.040530
1697.8024,0.038006
1698.7342,0.036729
1699.6661,0.036372
1700.5979,0.036659
1701.5297,0.035702
1702.4616,0.031959
1703.3934,0.031503
1704.3252,0.032104
1705.2571,0.032407
1706.1889,0.031528
1707.1207,0.031066
1708.0526,0.030012
1708.9844,0.028199
1709.9162,0.028083
1710.8481,0.028389
1711.7799,0.027212
1712.7117,0.025576
1713.6436,0.025338
1714.5754,0.025740
1715.5072,0.025473
1716.4391,0.024518
1717.3709,0.023871
1718.3027,0.023640
1719.2346,0.022225
1720.1664,0.020910
1721.0982,0.020707
1722.0301,0.020981
1722.9619,0.021021
1723.8937,0.020914
1724.8256,0.020856
1725.7574,0.020267
1726.6893,0.019647
1727.6211,0.019444
1728.5529,0.019292
1729.4848,0.019297
1730.4166,0.019340
1731.3484,0.018796
1732.2803,0.017838
1733.2121,0.017575
1734.1439,0.017994
1735.0758,0.018010
1736.0076,0.015889
1736.9394,0.014701
1737.8713,0.015179
1738.8031,0.015891
1739.7349,0.016189
1740.6668,0.016446
1741.5986,0.015508
1742.5304,0.014703
1743.4623,0.015111
1744.3941,0.015469
1745.3259,0.014967
1746.2578,0.014707
1747.1896,0.014681
1748.1214,0.014739
1749.0533,0.014914
1749.9851,0.014611
1750.9169,0.013690
1751.8488,0.013616
1752.7806,0.013313
1753.7125,0.012653
1754.6443,0.012896
1755.5761,0.013150
1756.5080,0.013266
1757.4398,0.013455
1758.3716,0.012980
1759.3035,0.012350
1760.2353,0.012308
1761.1671,0.011982
1762.0990,0.011832
1763.0308,0.011752
1763.9626,0.011296
1764.8945,0.011618
1765.8263,0.012111
1766.7581,0.012038
1767.6900,0.011671
1768.6218,0.011772
1769.5536,0.011466
1770.4855,0.010366
1771.4173,0.010467
1772.3491,0.011049
1773.2810,0.010736
1774.2128,0.009693
1775.1446,0.009063
1776.0765,0.009640
1777.0083,0.009866
1777.9401,0.009077
1778.8720,0.009339
1779.8038,0.010014
1780.7357,0.009677
1781.6675,0.009434
1782.5993,0.009418
1783.5312,0.009190
1784.4630,0.009251
1785.3948,0.009640
1786.3267,0.009727
1787.2585,0.009067
1788.1903,0.008972
1789.1222,0.009107
1790.0540,0.009032
1790.9858,0.009111
1791.9177,0.009227
1792.8495,0.009125
1793.7813,0.009055
1794.7132,0.008435
1795.6450,0.008294
1796.5768,0.008550
1797.5087,0.008135
1798.4405,0.007862
1799.3723,0.008386
1800.3042,0.008945
1801.2360,0.008593
1802.1678,0.007710
1803.0997,0.007611
1804.0315,0.007669
1804.9633,0.007636
1805.8952,0.007586
1806.8270,0.007609
1807.7589,0.007883
1808.6907,0.007896
1809.6225,0.007339
1810.5544,0.007204
1811.4862,0.007928
1812.4180,0.007821
1813.3499,0.007313
1814.2817,0.006817
1815.2135,0.006590
1816.1454,0.007215
1817.0772,0.007710
1818.0090,0.007578
1818.9409,0.007515
1819.8727,0.007231
1820.8045,0.007175
1821.7364,0.007098
1822.6682,0.006427
1823.6000,0.005850
1824.5319,0.006291
1825.4637,0.007424
1826.3955,0.007412
1827.3274,0.006521
1828.2592,0.006881
1829.1910,0.007510
1830.1229,0.007700
1831.0547,0.007655
1831.9865,0.006854
1832.9184,0.005465
1833.8502,0.005089
1834.7821,0.005363
1835.7139,0.005743
1836.6457,0.006041
1837.5776,0.006132
1838.5094,0.005892
1839.4412,0.005547
1840.3731,0.006258
1841.3049,0.006631
1842.2367,0.006316
1843.1686,0.006255
1844.1004,0.005897
1845.0322,0.005688
1845.9641,0.004745
1846.8959,0.004255
1847.8277,0.005086
1848.7596,0.005933
1849.6914,0.005762
1850.6232,0.005022
1851.5551,0.005415
1852.4869,0.006410
1853.4187,0.006953
1854.3506,0.006577
1855.2824,0.005783
1856.2142,0.005467
1857.1461,0.005537
1858.0779,0.006208
1859.0097,0.006451
1859.9416,0.005397
1860.8734,0.004355
1861.8052,0.004376
1862.7371,0.005661
1863.6689,0.005844
1864.6008,0.004853
1865.5326,0.004948
1866.4644,0.006140
1867.3963,0.007145
1868.3281,0.007952
1869.2599,0.006730
1870.1918,0.004312
1871.1236,0.003696
1872.0554,0.005120
1872.9873,0.006738
1873.9191,0.006503
1874.8509,0.005432
1875.7828,0.005338
1876.7146,0.005462
1877.6464,0.005654
1878.5783,0.005429
1879.5101,0.004765
1880.4419,0.004894
1881.3738,0.005640
1882.3056,0.005314
1883.2374,0.004695
1884.1693,0.005385
1885.1011,0.006428
1886.0329,0.007099
1886.9648,0.006217
1887.8966,0.005445
1888.8284,0.005608
1889.7603,0.006203
1890.6921,0.006011
1891.6240,0.004518
1892.5558,0.004337
1893.4876,0.005623
1894.4195,0.005409
1895.3513,0.004518
1896.2831,0.004303
1897.2150,0.004522
1898.1468,0.005999
1899.0786,0.007375
1900.0105,0.007335
1900.9423,0.007189
1901.8741,0.006707
1902.8060,0.006344
1903.7378,0.007064
1904.6696,0.006689
1905.6015,0.005312
1906.5333,0.005554
1907.4651,0.006448
1908.3970,0.006480
1909.3288,0.005611
1910.2606,0.005248
1911.1925,0.006638
1912.1243,0.007586
1913.0561,0.006423
1913.9880,0.004918
1914.9198,0.005111
1915.8516,0.006141
1916.7835,0.007062
1917.7153,0.007516
1918.6472,0.007158
1919.5790,0.006329
1920.5108,0.006042
1921.4427,0.006632
1922.3745,0.007355
1923.3063,0.006987
1924.2382,0.005859
1925.1700,0.005840
1926.1018,0.005773
1927.0337,0.005966
1927.9655,0.006498
1928.8973,0.005008
1929.8292,0.004380
1930.7610,0.006033
1931.6928,0.006047
1932.6247,0.005716
1933.5565,0.005885
1934.4883,0.004899
1935.4202,0.003710
1936.3520,0.004379
1937.2838,0.005199
1938.2157,0.004839
1939.1475,0.003823
1940.0793,0.003225
1941.0112,0.003204
1941.9430,0.003609
1942.8748,0.002987
1943.8067,0.002646
1944.7385,0.001715
1945.6704,0.002292
1946.6022,0.003770
1947.5340,0.003599
1948.4659,0.002826
1949.3977,0.003467
1950.3295,0.005065
1951.2614,0.004875
1952.1932,0.003601
1953.1250,0.004542
1954.0569,0.005501
1954.9887,0.004196
1955.9205,0.002575
1956.8524,0.001644
1957.7842,0.001470
1958.7160,0.001789
1959.6479,0.003590
1960.5797,0.002820
1961.5115,-0.000360
1962.4434,-0.000451
1963.3752,-0.000175
1964.3070,-0.000632
1965.2389,-0.001253
1966.1707,-0.000010
1967.1025,0.002024
1968.0344,0.001295
1968.9662,-0.000049
1969.8980,0.001263
1970.8299,0.001080
1971.7617,0.000944
1972.6936,0.001004
1973.6254,0.000144
1974.5572,0.002957
1975.4891,0.001443
1976.4209,-0.000580
1977.3527,0.003784
1978.2846,0.005461
1979.2164,0.001957
1980.1482,0.001116
1981.0801,0.004394
1982.0119,0.005191
1982.9437,0.002982
1983.8756,0.003350
1984.8074,0.003035
1985.7392,0.001717
1986.6711,0.001943
1987.6029,0.002120
1988.5347,0.001979
1989.4666,0.001433
1990.3984,0.000502
1991.3302,0.000506
1992.2621,0.004453
1993.1939,0.004430
1994.1257,0.001531
1995.0576,0.002268
1995.9894,0.002586
1996.9212,0.002167
1997.8531,0.000704
1998.7849,0.000104
1999.7167,0.000488
2000.6486,0.001732
2001.5804,0.002879
2002.5123,0.003349
2003.4441,0.003781
2004.3759,0.004486
2005.3078,0.002662
2006.2396,-0.000526
2007.1714,-0.000576
2008.1033,0.000941
2009.0351,-0.000464
2009.9669,-0.000808
2010.8988,0.003128
2011.8306,0.004908
2012.7624,0.001421
2013.6943,-0.002457
2014.6261,-0.002674
2015.5579,0.000061
2016.4898,0.001129
2017.4216,0.001642
2018.3534,0.002421
2019.2853,0.003623
2020.2171,0.001015
2021.1489,-0.002817
2022.0808,-0.004871
2023.0126,-0.002550
2023.9444,0.000146
2024.8763,-0.000600
2025.8081,0.000341
2026.7399,0.003485
2027.6718,0.002692
2028.6036,0.003154
2029.5355,0.003390
2030.4673,-0.000656
2031.3991,-0.002729
2032.3310,-0.000700
2033.2628,0.000963
2034.1946,0.002515
2035.1265,0.002849
2036.0583,0.003429
2036.9901,0.004361
2037.9220,0.002695
2038.8538,0.000486
2039.7856,0.000468
2040.7175,0.001736
2041.6493,0.001908
2042.5811,0.002563
2043.5130,0.003742
2044.4448,0.004037
2045.3766,0.003258
2046.3085,0.003438
2047.2403,0.003831
2048.1721,0.002679
2049.1040,0.002762
2050.0358,0.004880
2050.9676,0.007130
2051.8995,0.004871
2052.8313,0.004320
2053.7631,0.006451
2054.6950,0.005169
2055.6268,0.003248
2056.5587,0.004466
2057.4905,0.006410
2058.4223,0.007282
2059.3542,0.006702
2060.2860,0.005697
2061.2178,0.006048
2062.1497,0.006895
2063.0815,0.006134
2064.0133,0.004396
2064.9452,0.004579
2065.8770,0.005736
2066.8088,0.006195
2067.7407,0.005645
2068.6725,0.005945
2069.6043,0.005253
2070.5362,0.003866
2071.4680,0.004422
2072.3998,0.006653
2073.3317,0.008307
2074.2635,0.007303
2075.1953,0.006338
2076.1272,0.005122
2077.0590,0.005104
2077.9908,0.006082
2078.9227,0.006886
2079.8545,0.006896
2080.7863,0.006351
2081.7182,0.007952
2082.6500,0.009524
2083.5819,0.009151
2084.5137,0.007979
2085.4455,0.007367
2086.3774,0.007472
2087.3092,0.007080
2088.2410,0.005918
2089.1729,0.006140
2090.1047,0.006190
2091.0365,0.006833
2091.9684,0.007806
2092.9002,0.006756
2093.8320,0.006628
2094.7639,0.007391
2095.6957,0.008125
2096.6275,0.007890
2097.5594,0.006340
2098.4912,0.005287
2099.4230,0.005849
2100.3549,0.006122
2101.2867,0.005724
2102.2185,0.005337
2103.1504,0.005768
2104.0822,0.006775
2105.0140,0.006234
2105.9459,0.006799
2106.8777,0.006763
2107.8095,0.006507
2108.7414,0.007206
2109.6732,0.008158
2110.6051,0.008107
2111.5369,0.007154
2112.4687,0.006796
2113.4006,0.007323
2114.3324,0.007157
2115.2642,0.006401
2116.1961,0.006356
2117.1279,0.008179
2118.0597,0.009571
2118.9916,0.008659
2119.9234,0.006604
2120.8552,0.006350
2121.7871,0.007070
2122.7189,0.008332
2123.6507,0.008191
2124.5826,0.007217
2125.5144,0.007183
2126.4462,0.007389
2127.3781,0.008616
2128.3099,0.009162
2129.2417,0.008391
2130.1736,0.007991
2131.1054,0.007586
2132.0372,0.006991
2132.9691,0.006515
2133.9009,0.006721
2134.8327,0.006896
2135.7646,0.007372
2136.6964,0.005996
2137.6282,0.003776
2138.5601,0.006482
2139.4919,0.007922
2140.4238,0.006566
2141.3556,0.006685
2142.2874,0.005403
2143.2193,0.003570
2144.1511,0.003817
2145.0829,0.005572
2146.0148,0.004168
2146.9466,0.003378
2147.8784,0.004544
2148.8103,0.004349
2149.7421,0.003260
2150.6739,0.005302
2151.6058,0.008991
2152.5376,0.008335
2153.4694,0.004030
2154.4013,0.002374
2155.3331,0.001192
2156.2649,-0.001565
2157.1968,-0.004840
2158.1286,-0.005613
2159.0604,-0.002567
2159.9923,-0.000522
2160.9241,0.001559
2161.8559,0.002951
2162.7878,0.001686
2163.7196,-0.002433
2164.6514,-0.004226
2165.5833,-0.001297
2166.5151,0.003001
2167.4470,0.001928
2168.3788,-0.002347
2169.3106,-0.002482
2170.2425,0.001945
2171.1743,0.004386
2172.1061,0.006861
2173.0380,0.006753
2173.9698,0.005393
2174.9016,0.003641
2175.8335,0.000784
2176.7653,0.000432
2177.6971,0.003762
2178.6290,0.005202
2179.5608,0.003068
2180.4926,0.001139
2181.4245,0.002569
2182.3563,0.002691
2183.2881,0.001815
2184.2200,0.001876
2185.1518,0.001514
2186.0836,-0.000437
2187.0155,-0.002070
2187.9473,0.000913
2188.8791,0.001774
2189.8110,0.001687
2190.7428,0.003199
2191.6746,0.002588
2192.6065,0.000619
2193.5383,-0.000332
2194.4702,0.002988
2195.4020,0.005775
2196.3338,0.003533
2197.2657,0.001546
2198.1975,0.002461
2199.1293,0.005010
2200.0612,0.003785
2200.9930,0.003557
2201.9248,0.004471
2202.8567,0.004614
2203.7885,0.003397
2204.7203,0.002508
2205.6522,0.002680
2206.5840,0.002856
2207.5158,0.003340
2208.4477,0.004907
2209.3795,0.003972
2210.3113,0.002832
2211.2432,0.003246
2212.1750,0.002726
2213.1068,0.004186
2214.0387,0.005043
2214.9705,0.003888
2215.9023,0.003868
2216.8342,0.005266
2217.7660,0.006093
2218.6978,0.005152
2219.6297,0.003912
2220.5615,0.005289
2221.4934,0.007102
2222.4252,0.005678
2223.3570,0.003952
2224.2889,0.002942
2225.2207,0.003098
2226.1525,0.003984
2227.0844,0.003661
2228.0162,0.003954
2228.9480,0.004937
2229.8799,0.005722
2230.8117,0.003950
2231.7435,0.003190
2232.6754,0.006320
2233.6072,0.008416
2234.5390,0.006417
2235.4709,0.004547
2236.4027,0.005230
2237.3345,0.005085
2238.2664,0.004540
2239.1982,0.004350
2240.1300,0.005920
2241.0619,0.006250
2241.9937,0.005132
2242.9255,0.004243
2243.8574,0.004561
2244.7892,0.006105
2245.7210,0.005239
2246.6529,0.004172
2247.5847,0.004411
2248.5166,0.005346
2249.4484,0.005245
2250.3802,0.004943
2251.3121,0.006022
2252.2439,0.006171
2253.1757,0.005572
2254.1076,0.005431
2255.0394,0.005728
2255.9712,0.005434
2256.9031,0.005227
2257.8349,0.004839
2258.7667,0.004723
2259.6986,0.006353
2260.6304,0.007076
2261.5622,0.006690
2262.4941,0.005430
2263.4259,0.005491
2264.3577,0.005985
2265.2896,0.005543
2266.2214,0.005591
2267.1532,0.005681
2268.0851,0.006315
2269.0169,0.005468
2269.9487,0.003917
2270.8806,0.004466
2271.8124,0.004684
2272.7442,0.003400
2273.6761,0.003963
2274.6079,0.005339
2275.5397,0.005473
2276.4716,0.004459
2277.4034,0.004647
2278.3353,0.004791
2279.2671,0.004781
2280.1989,0.004783
2281.1308,0.005101
2282.0626,0.005322
2282.9944,0.005739
2283.9263,0.005632
2284.8581,0.005060
2285.7899,0.004982
2286.7218,0.005271
2287.6536,0.005543
2288.5854,0.004931
2289.5173,0.004726
2290.4491,0.005517
2291.3809,0.006344
2292.3128,0.005899
2293.2446,0.004618
2294.1764,0.004876
2295.1083,0.005733
2296.0401,0.006140
2296.9719,0.006087
2297.9038,0.005214
2298.8356,0.005015
2299.7674,0.005421
2300.6993,0.005088
2301.6311,0.005409
2302.5629,0.005220
2303.4948,0.004989
2304.4266,0.005312
2305.3585,0.005132
2306.2903,0.004902
2307.2221,0.004795
2308.1540,0.005570
2309.0858,0.006321
2310.0176,0.005897
2310.9495,0.005468
2311.8813,0.005667
2312.8131,0.005729
2313.7450,0.006470
2314.6768,0.005612
2315.6086,0.005032
2316.5405,0.005535
2317.4723,0.004907
2318.4041,0.004681
2319.3360,0.005253
2320.2678,0.005011
2321.1996,0.004738
2322.1315,0.004504
2323.0633,0.003969
2323.9951,0.004930
2324.9270,0.005716
2325.8588,0.005642
2326.7906,0.006043
2327.7225,0.006409
2328.6543,0.006643
2329.5861,0.006575
2330.5180,0.006284
2331.4498,0.005361
2332.3817,0.004865
2333.3135,0.004843
2334.2453,0.005312
2335.1772,0.005777
2336.1090,0.004925
2337.0408,0.004404
2337.9727,0.004592
2338.9045,0.005197
2339.8363,0.004973
2340.7682,0.005008
2341.7000,0.005747
2342.6318,0.005136
2343.5637,0.004630
2344.4955,0.004999
2345.4273,0.005912
2346.3592,0.005443
2347.2910,0.004741
2348.2228,0.005317
2349.1547,0.006089
2350.0865,0.006206
2351.0183,0.005686
2351.9502,0.005603
2352.8820,0.005910
2353.8138,0.005087
2354.7457,0.004681
2355.6775,0.005119
2356.6093,0.005378
2357.5412,0.004447
2358.4730,0.003462
2359.4049,0.003983
2360.3367,0.004862
2361.2685,0.005241
2362.2004,0.006612
2363.1322,0.007348
2364.0640,0.005744
2364.9959,0.003640
2365.9277,0.003463
2366.8595,0.004764
2367.7914,0.004758
2368.7232,0.004095
2369.6550,0.004430
2370.5869,0.004262
2371.5187,0.003846
2372.4505,0.003784
2373.3824,0.003835
2374.3142,0.004030
2375.2460,0.004238
2376.1779,0.004497
2377.1097,0.004565
2378.0415,0.004077
2378.9734,0.004196
2379.9052,0.004351
2380.8370,0.004248
2381.7689,0.003987
2382.7007,0.004174
2383.6325,0.004855
2384.5644,0.005822
2385.4962,0.005404
2386.4281,0.004477
2387.3599,0.004239
2388.2917,0.004379
2389.2236,0.004664
2390.1554,0.004421
2391.0872,0.005022
2392.0191,0.005455
2392.9509,0.004928
2393.8827,0.004766
2394.8146,0.004310
2395.7464,0.004346
2396.6782,0.004776
2397.6101,0.004990
2398.5419,0.004641
2399.4737,0.004605
2400.4056,0.004532
2401.3374,0.004841
2402.2692,0.005092
2403.2011,0.004659
2404.1329,0.004152
2405.0647,0.004544
2405.9966,0.005010
2406.9284,0.004643
2407.8602,0.004252
2408.7921,0.004663
2409.7239,0.005375
2410.6557,0.004771
2411.5876,0.004198
2412.5194,0.004197
2413.4512,0.004604
2414.3831,0.005126
2415.3149,0.004512
2416.2468,0.004195
2417.1786,0.005002
2418.1104,0.004910
2419.0423,0.004660
2419.9741,0.004905
2420.9059,0.004443
2421.8378,0.004157
2422.7696,0.004282
2423.7014,0.004426
2424.6333,0.003942
2425.5651,0.003748
2426.4969,0.003077
2427.4288,0.002286
2428.3606,0.002929
2429.2924,0.004114
2430.2243,0.003955
2431.1561,0.002789
2432.0879,0.003109
2433.0198,0.004141
2433.9516,0.004132
2434.8834,0.004095
2435.8153,0.004137
2436.7471,0.003480
2437.6789,0.003059
2438.6108,0.003559
2439.5426,0.004291
2440.4744,0.005219
2441.4063,0.005354
2442.3381,0.004550
2443.2700,0.004403
2444.2018,0.004255
2445.1336,0.003140
2446.0655,0.003235
2446.9973,0.004027
2447.9291,0.004163
2448.8610,0.003722
2449.7928,0.003753
2450.7246,0.003952
2451.6565,0.003376
2452.5883,0.003443
2453.5201,0.003371
2454.4520,0.003969
2455.3838,0.004053
2456.3156,0.003253
2457.2475,0.003688
2458.1793,0.004420
2459.1111,0.005321
2460.0430,0.004956
2460.9748,0.003539
2461.9066,0.003125
2462.8385,0.002986
2463.7703,0.003417
2464.7021,0.005086
2465.6340,0.006076
2466.5658,0.005767
2467.4976,0.004196
2468.4295,0.003845
2469.3613,0.005449
2470.2932,0.005799
2471.2250,0.004522
2472.1568,0.004194
2473.0887,0.004314
2474.0205,0.004187
2474.9523,0.004381
2475.8842,0.004447
2476.8160,0.004580
2477.7478,0.004461
2478.6797,0.004438
2479.6115,0.004937
2480.5433,0.005530
2481.4752,0.005260
2482.4070,0.004790
2483.3388,0.003657
2484.2707,0.002834
2485.2025,0.003691
2486.1343,0.004724
2487.0662,0.005357
2487.9980,0.005310
2488.9298,0.004860
2489.8617,0.004851
2490.7935,0.004281
2491.7253,0.004638
2492.6572,0.005040
2493.5890,0.005162
2494.5208,0.005402
2495.4527,0.005141
2496.3845,0.004411
2497.3164,0.004613
2498.2482,0.004896
2499.1800,0.004167
2500.1119,0.003917
2501.0437,0.004555
2501.9755,0.004481
2502.9074,0.004538
2503.8392,0.004642
2504.7710,0.004684
2505.7029,0.004766
2506.6347,0.005211
2507.5665,0.005459
2508.4984,0.005466
2509.4302,0.005227
2510.3620,0.004435
2511.2939,0.004914
2512.2257,0.004635
2513.1575,0.003781
2514.0894,0.004567
2515.0212,0.004932
2515.9530,0.004354
2516.8849,0.004000
2517.8167,0.004404
2518.7485,0.004692
2519.6804,0.004595
2520.6122,0.005026
2521.5440,0.004691
2522.4759,0.003693
2523.4077,0.003916
2524.3396,0.005291
2525.2714,0.005493
2526.2032,0.005124
2527.1351,0.005017
2528.0669,0.004815
2528.9987,0.004754
2529.9306,0.005292
2530.8624,0.004335
2531.7942,0.003950
2532.7261,0.005123
2533.6579,0.005676
2534.5897,0.005779
2535.5216,0.005198
2536.4534,0.004617
2537.3852,0.005617
2538.3171,0.005553
2539.2489,0.004933
2540.1807,0.005208
2541.1126,0.006070
2542.0444,0.005961
2542.9762,0.004868
2543.9081,0.004266
2544.8399,0.004809
2545.7717,0.004964
2546.7036,0.004677
2547.6354,0.005513
2548.5672,0.005558
2549.4991,0.005466
2550.4309,0.005103
2551.3627,0.003900
2552.2946,0.003322
2553.2264,0.003352
2554.1583,0.003494
2555.0901,0.002779
2556.0219,0.002421
2556.9538,0.003157
2557.8856,0.004730
2558.8174,0.005349
2559.7493,0.004343
2560.6811,0.003725
2561.6129,0.003839
2562.5448,0.004222
2563.4766,0.004387
2564.4084,0.003700
2565.3403,0.004276
2566.2721,0.004941
2567.2039,0.004070
2568.1358,0.003367
2569.0676,0.003790
2569.9994,0.004551
2570.9313,0.005530
2571.8631,0.005797
2572.7949,0.005241
2573.7268,0.004517
2574.6586,0.003913
2575.5904,0.004014
2576.5223,0.004085
2577.4541,0.003299
2578.3859,0.003118
2579.3178,0.004274
2580.2496,0.004369
2581.1815,0.003725
2582.1133,0.003804
2583.0451,0.004321
2583.9770,0.004321
2584.9088,0.004342
2585.8406,0.004304
2586.7725,0.004167
2587.7043,0.004465
2588.6361,0.004727
2589.5680,0.004494
2590.4998,0.004355
2591.4316,0.004617
2592.3635,0.004802
2593.2953,0.004590
2594.2271,0.004772
2595.1590,0.004927
2596.0908,0.004460
2597.0226,0.004269
2597.9545,0.004730
2598.8863,0.004774
2599.8181,0.004529
2600.7500,0.004262
2601.6818,0.004101
2602.6136,0.004135
2603.5455,0.004347
2604.4773,0.004737
2605.4091,0.005403
2606.3410,0.005471
2607.2728,0.005127
2608.2047,0.005050
2609.1365,0.004788
2610.0683,0.004829
2611.0002,0.004929
2611.9320,0.004714
2612.8638,0.004995
2613.7957,0.004742
2614.7275,0.004327
2615.6593,0.004712
2616.5912,0.005249
2617.5230,0.004884
2618.4548,0.004428
2619.3867,0.005397
2620.3185,0.005817
2621.2503,0.005081
2622.1822,0.004855
2623.1140,0.005422
2624.0458,0.005070
2624.9777,0.004671
2625.9095,0.005246
2626.8413,0.005335
2627.7732,0.005807
2628.7050,0.006345
2629.6368,0.005886
2630.5687,0.005306
2631.5005,0.005236
2632.4323,0.005647
2633.3642,0.006227
2634.2960,0.005768
2635.2279,0.005110
2636.1597,0.005505
2637.0915,0.005828
2638.0234,0.006046
2638.9552,0.006572
2639.8870,0.006437
2640.8189,0.006123
2641.7507,0.006125
2642.6825,0.006287
2643.6144,0.006568
2644.5462,0.006859
2645.4780,0.006755
2646.4099,0.006413
2647.3417,0.006385
2648.2735,0.006536
2649.2054,0.006811
2650.1372,0.006575
2651.0690,0.006549
2652.0009,0.006589
2652.9327,0.006369
2653.8645,0.006507
2654.7964,0.006629
2655.7282,0.006206
2656.6600,0.006003
2657.5919,0.006625
2658.5237,0.007253
2659.4555,0.007004
2660.3874,0.006897
2661.3192,0.007072
2662.2511,0.007254
2663.1829,0.007363
2664.1147,0.007026
2665.0466,0.006942
2665.9784,0.007289
2666.9102,0.007568
2667.8421,0.007961
2668.7739,0.007851
2669.7057,0.007468
2670.6376,0.007206
2671.5694,0.007256
2672.5012,0.007384
2673.4331,0.007785
2674.3649,0.007936
2675.2967,0.007757
2676.2286,0.007557
2677.1604,0.007614
2678.0922,0.007792
2679.0241,0.007894
2679.9559,0.008241
2680.8877,0.008623
2681.8196,0.008527
2682.7514,0.008383
2683.6832,0.008497
2684.6151,0.008551
2685.5469,0.008336
2686.4787,0.008606
2687.4106,0.008887
2688.3424,0.008749
2689.2742,0.008785
2690.2061,0.008861
2691.1379,0.008846
2692.0698,0.008823
2693.0016,0.008699
2693.9334,0.009015
2694.8653,0.009608
2695.7971,0.009950
2696.7289,0.010212
2697.6608,0.010231
2698.5926,0.009876
2699.5244,0.009942
2700.4563,0.010079
2701.3881,0.010073
2702.3199,0.010312
2703.2518,0.010366
2704.1836,0.010053
2705.1154,0.010251
2706.0473,0.010410
2706.9791,0.010479
2707.9109,0.010785
2708.8428,0.010704
2709.7746,0.010343
2710.7064,0.010209
2711.6383,0.010606
2712.5701,0.011267
2713.5019,0.011357
2714.4338,0.011103
2715.3656,0.011118
2716.2974,0.011244
2717.2293,0.010967
2718.1611,0.010948
2719.0930,0.011400
2720.0248,0.012230
2720.9566,0.012848
2721.8885,0.012549
2722.8203,0.011883
2723.7521,0.011729
2724.6840,0.011986
2725.6158,0.012226
2726.5476,0.012245
2727.4795,0.012465
2728.4113,0.012486
2729.3431,0.012376
2730.2750,0.012459
2731.2068,0.012468
2732.1386,0.012839
2733.0705,0.013459
2734.0023,0.013430
2734.9341,0.013073
2735.8660,0.012750
2736.7978,0.012884
2737.7296,0.013582
2738.6615,0.014117
2739.5933,0.013646
2740.5251,0.013451
2741.4570,0.013706
2742.3888,0.013470
2743.3206,0.013303
2744.2525,0.013562
2745.1843,0.013651
2746.1162,0.013545
2747.0480,0.013336
2747.9798,0.013486
2748.9117,0.014075
2749.8435,0.014277
2750.7753,0.013696
2751.7072,0.013704
2752.6390,0.014243
2753.5708,0.014456
2754.5027,0.014613
2755.4345,0.014542
2756.3663,0.013978
2757.2982,0.013798
2758.2300,0.014304
2759.1618,0.014759
2760.0937,0.014674
2761.0255,0.014122
2761.9573,0.014120
2762.8892,0.014185
2763.8210,0.014016
2764.7528,0.013879
2765.6847,0.013738
2766.6165,0.013933
2767.5483,0.014375
2768.4802,0.014737
2769.4120,0.014565
2770.3438,0.014275
2771.2757,0.014725
2772.2075,0.014876
2773.1394,0.014432
2774.0712,0.014535
2775.0030,0.014760
2775.9349,0.014761
2776.8667,0.014391
2777.7985,0.014335
2778.7304,0.014788
2779.6622,0.015138
2780.5940,0.014989
2781.5259,0.015102
2782.4577,0.015550
2783.3895,0.015271
2784.3214,0.014734
2785.2532,0.014716
2786.1850,0.015025
2787.1169,0.015950
2788.0487,0.016699
2788.9805,0.016588
2789.9124,0.016598
2790.8442,0.016786
2791.7760,0.017090
2792.7079,0.017824
2793.6397,0.018100
2794.5715,0.017932
2795.5034,0.017694
2796.4352,0.017499
2797.3670,0.017564
2798.2989,0.017791
2799.2307,0.018037
2800.1626,0.018659
2801.0944,0.019470
2802.0262,0.019863
2802.9581,0.019833
2803.8899,0.020109
2804.8217,0.020364
2805.7536,0.020909
2806.6854,0.021442
2807.6172,0.021479
2808.5491,0.021308
2809.4809,0.021514
2810.4127,0.022181
2811.3446,0.022593
2812.2764,0.022646
2813.2082,0.022821
2814.1401,0.023086
2815.0719,0.023371
2816.0037,0.023539
2816.9356,0.023814
2817.8674,0.024107
2818.7992,0.024463
2819.7311,0.024128
2820.6629,0.024009
2821.5947,0.024454
2822.5266,0.024829
2823.4584,0.025144
2824.3902,0.025239
2825.3221,0.025291
2826.2539,0.025712
2827.1857,0.025946
2828.1176,0.026337
2829.0494,0.026805
2829.9813,0.026994
2830.9131,0.027506
2831.8449,0.027928
2832.7768,0.027628
2833.7086,0.027659
2834.6404,0.028357
2835.5723,0.028934
2836.5041,0.029197
2837.4359,0.029148
2838.3678,0.029173
2839.2996,0.029673
2840.2314,0.030380
2841.1633,0.030902
2842.0951,0.030795
2843.0269,0.031041
2843.9588,0.031773
2844.8906,0.032088
2845.8224,0.031900
2846.7543,0.031909
2847.6861,0.032684
2848.6179,0.033424
2849.5498,0.033623
2850.4816,0.034147
2851.4134,0.034853
2852.3453,0.034947
2853.2771,0.034543
2854.2089,0.034666
2855.1408,0.035763
2856.0726,0.036338
2857.0045,0.036523
2857.9363,0.037982
2858.8681,0.039317
2859.8000,0.040149
2860.7318,0.040747
2861.6636,0.040470
2862.5955,0.040820
2863.5273,0.042492
2864.4591,0.043576
2865.3910,0.044381
2866.3228,0.045548
2867.2546,0.046864
2868.1865,0.047614
2869.1183,0.048149
2870.0501,0.049554
2870.9820,0.051411
2871.9138,0.052527
2872.8456,0.053162
2873.7775,0.054472
2874.7093,0.055717
2875.6411,0.055851
2876.5730,0.056430
2877.5048,0.057711
2878.4366,0.058695
2879.3685,0.059405
2880.3003,0.060122
2881.2321,0.060771
2882.1640,0.061291
2883.0958,0.061695
2884.0277,0.062091
2884.9595,0.062331
2885.8913,0.062780
2886.8232,0.063493
2887.7550,0.063975
2888.6868,0.063656
2889.6187,0.063837
2890.5505,0.064962
2891.4823,0.065404
2892.4142,0.065114
2893.3460,0.065185
2894.2778,0.065754
2895.2097,0.066104
2896.1415,0.066525
2897.0733,0.067101
2898.0052,0.066783
2898.9370,0.066698
2899.8688,0.066688
2900.8007,0.066379
2901.7325,0.066347
2902.6643,0.065963
2903.5962,0.065487
2904.5280,0.065601
2905.4598,0.064818
2906.3917,0.063665
2907.3235,0.063349
2908.2553,0.062568
2909.1872,0.061640
2910.1190,0.061218
2911.0509,0.060141
2911.9827,0.058991
2912.9145,0.058459
2913.8464,0.058237
2914.7782,0.057501
2915.7100,0.057493
2916.6419,0.058009
2917.5737,0.057105
2918.5055,0.056360
2919.4374,0.056650
2920.3692,0.057014
2921.3010,0.057421
2922.2329,0.057799
2923.1647,0.057956
2924.0965,0.058077
2925.0284,0.058650
2925.9602,0.059240
2926.8920,0.059548
2927.8239,0.059401
2928.7557,0.059690
2929.6875,0.060333
2930.6194,0.060536
2931.5512,0.060545
2932.4830,0.060585
2933.4149,0.060358
2934.3467,0.059473
2935.2785,0.058537
2936.2104,0.058524
2937.1422,0.058990
2938.0741,0.058792
2939.0059,0.058518
2939.9377,0.058856
2940.8696,0.058808
2941.8014,0.058612
2942.7332,0.057715
2943.6651,0.056856
2944.5969,0.056850
2945.5287,0.056333
2946.4606,0.056202
2947.3924,0.056608
2948.3242,0.056191
2949.2561,0.055971
2950.1879,0.056052
2951.1197,0.055821
2952.0516,0.055175
2952.9834,0.055182
2953.9152,0.055826
2954.8471,0.055876
2955.7789,0.056264
2956.7107,0.057501
2957.6426,0.058952
2958.5744,0.060562
2959.5062,0.061597
2960.4381,0.062861
2961.3699,0.065327
2962.3017,0.068276
2963.2336,0.070801
2964.1654,0.073159
2965.0972,0.076214
2966.0291,0.080054
2966.9609,0.083829
2967.8928,0.087678
2968.8246,0.091963
2969.7564,0.096795
2970.6883,0.101264
2971.6201,0.104853
2972.5519,0.108476
2973.4838,0.112678
2974.4156,0.116369
2975.3474,0.118859
2976.2793,0.120224
2977.2111,0.120809
2978.1429,0.120721
2979.0748,0.119499
2980.0066,0.116987
2980.9384,0.114148
2981.8703,0.110904
2982.8021,0.106478
2983.7339,0.101740
2984.6658,0.097162
2985.5976,0.092166
2986.5294,0.087380
2987.4613,0.083059
2988.3931,0.078333
2989.3249,0.073569
2990.2568,0.069923
2991.1886,0.065990
2992.1204,0.062292
2993.0523,0.060375
2993.9841,0.058759
2994.9160,0.056704
2995.8478,0.053884
2996.7796,0.051268
2997.7115,0.049595
2998.6433,0.048383
2999.5751,0.047726
3000.5070,0.047046
3001.4388,0.046187
3002.3706,0.045059
3003.3025,0.044493
3004.2343,0.044228
3005.1661,0.043423
3006.0980,0.042583
3007.0298,0.042363
3007.9616,0.042699
3008.8935,0.042400
3009.8253,0.041685
3010.7571,0.041554
3011.6890,0.041908
3012.6208,0.042096
3013.5526,0.042071
3014.4845,0.041962
3015.4163,0.041943
3016.3481,0.041682
3017.2800,0.040896
3018.2118,0.040487
3019.1436,0.041396
3020.0755,0.042329
3021.0073,0.041966
3021.9392,0.041223
3022.8710,0.040945
3023.8028,0.041319
3024.7347,0.041742
3025.6665,0.042701
3026.5983,0.043080
3027.5302,0.042385
3028.4620,0.041714
3029.3938,0.042488
3030.3257,0.043768
3031.2575,0.043884
3032.1893,0.044114
3033.1212,0.044537
3034.0530,0.044686
3034.9848,0.044451
3035.9167,0.044565
3036.8485,0.045675
3037.7803,0.046183
3038.7122,0.046133
3039.6440,0.046087
3040.5758,0.046252
3041.5077,0.046782
3042.4395,0.046915
3043.3713,0.046659
3044.3032,0.046728
3045.2350,0.047758
3046.1668,0.048658
3047.0987,0.048594
3048.0305,0.048768
3048.9624,0.049355
3049.8942,0.050052
3050.8260,0.050262
3051.7579,0.050166
3052.6897,0.050744
3053.6215,0.051369
3054.5534,0.051751
3055.4852,0.052589
3056.4170,0.053195
3057.3489,0.052751
3058.2807,0.052755
3059.2125,0.052998
3060.1444,0.052721
3061.0762,0.053555
3062.0080,0.055010
3062.9399,0.055789
3063.8717,0.055679
3064.8035,0.055622
3065.7354,0.055982
3066.6672,0.056680
3067.5990,0.057609
3068.5309,0.058643
3069.4627,0.058858
3070.3945,0.058338
3071.3264,0.059249
3072.2582,0.060348
3073.1900,0.060972
3074.1219,0.062592
3075.0537,0.063440
3075.9856,0.062972
3076.9174,0.062236
3077.8492,0.062268
3078.7811,0.063222
3079.7129,0.064634
3080.6447,0.065019
3081.5766,0.064425
3082.5084,0.064970
3083.4402,0.066011
3084.3721,0.067089
3085.3039,0.068060
3086.2357,0.068704
3087.1676,0.069054
3088.0994,0.069801
3089.0312,0.070465
3089.9631,0.070958
3090.8949,0.071150
3091.8267,0.071675
3092.7586,0.072481
3093.6904,0.072214
3094.6222,0.072870
3095.5541,0.074233
3096.4859,0.074491
3097.4177,0.074700
3098.3496,0.075686
3099.2814,0.076865
3100.2132,0.077629
3101.1451,0.077640
3102.0769,0.077604
3103.0087,0.078832
3103.9406,0.080201
3104.8724,0.081590
3105.8043,0.082935
3106.7361,0.082265
3107.6679,0.082715
3108.5998,0.084397
3109.5316,0.084512
3110.4634,0.083979
3111.3953,0.084453
3112.3271,0.085731
3113.2589,0.086118
3114.1908,0.086113
3115.1226,0.086919
3116.0544,0.087746
3116.9863,0.088951
3117.9181,0.091104
3118.8499,0.093045
3119.7818,0.093124
3120.7136,0.092473
3121.6454,0.092746
3122.5773,0.093468
3123.5091,0.095023
3124.4409,0.096340
3125.3728,0.096646
3126.3046,0.097395
3127.2364,0.097747
3128.1683,0.098807
3129.1001,0.100607
3130.0319,0.101529
3130.9638,0.101283
3131.8956,0.101243
3132.8275,0.103104
3133.7593,0.104340
3134.6911,0.103502
3135.6230,0.103933
3136.5548,0.106151
3137.4866,0.108260
3138.4185,0.109240
3139.3503,0.109427
3140.2821,0.109867
3141.2140,0.109921
3142.1458,0.110482
3143.0776,0.112000
3144.0095,0.113510
3144.9413,0.114107
3145.8731,0.114728
3146.8050,0.116067
3147.7368,0.116901
3148.6686,0.117816
3149.6005,0.119495
3150.5323,0.119760
3151.4641,0.120055
3152.3960,0.122446
3153.3278,0.123054
3154.2596,0.121973
3155.1915,0.122476
3156.1233,0.123647
3157.0551,0.123826
3157.9870,0.124431
3158.9188,0.127330
3159.8507,0.128499
3160.7825,0.129152
3161.7143,0.130660
3162.6462,0.131818
3163.5780,0.132215
3164.5098,0.132905
3165.4417,0.134494
3166.3735,0.135262
3167.3053,0.135099
3168.2372,0.136048
3169.1690,0.137585
3170.1008,0.138678
3171.0327,0.138301
3171.9645,0.139443
3172.8963,0.141260
3173.8282,0.142187
3174.7600,0.142971
3175.6918,0.144200
3176.6237,0.144929
3177.5555,0.145393
3178.4873,0.146533
3179.4192,0.148015
3180.3510,0.149148
3181.2828,0.151087
3182.2147,0.151324
3183.1465,0.150499
3184.0783,0.152001
3185.0102,0.154196
3185.9420,0.154644
3186.8739,0.156300
3187.8057,0.158217
3188.7375,0.158921
3189.6694,0.159206
3190.6012,0.159099
3191.5330,0.159134
3192.4649,0.161099
3193.3967,0.162454
3194.3285,0.163087
3195.2604,0.164807
3196.1922,0.165042
3197.1240,0.164415
3198.0559,0.166073
3198.9877,0.168246
3199.9195,0.168295
3200.8514,0.166725
3201.7832,0.168162
3202.7150,0.171426
3203.6469,0.172836
3204.5787,0.172222
3205.5105,0.172953
3206.4424,0.173855
3207.3742,0.174667
3208.3060,0.175055
3209.2379,0.176067
3210.1697,0.177040
3211.1015,0.178187
3212.0334,0.179768
3212.9652,0.181821
3213.8971,0.182071
3214.8289,0.182600
3215.7607,0.183114
3216.6926,0.183054
3217.6244,0.184042
3218.5562,0.185536
3219.4881,0.187070
3220.4199,0.187840
3221.3517,0.187114
3222.2836,0.186326
3223.2154,0.186164
3224.1472,0.188535
3225.0791,0.189501
3226.0109,0.188869
3226.9427,0.189164
3227.8746,0.190948
3228.8064,0.192820
3229.7382,0.193277
3230.6701,0.191348
3231.6019,0.191301
3232.5337,0.193262
3233.4656,0.195557
3234.3974,0.195920
3235.3292,0.195686
3236.2611,0.195819
3237.1929,0.197891
3238.1247,0.199541
3239.0566,0.199897
3239.9884,0.198961
3240.9202,0.199325
3241.8521,0.201213
3242.7839,0.201497
3243.7158,0.199625
3244.6476,0.199010
3245.5794,0.199892
3246.5113,0.202675
3247.4431,0.203558
3248.3749,0.202061
3249.3068,0.201913
3250.2386,0.204171
3251.1704,0.204111
3252.1023,0.204312
3253.0341,0.204094
3253.9659,0.204440
3254.8978,0.204440
3255.8296,0.205398
3256.7614,0.207286
3257.6933,0.206870
3258.6251,0.204819
3259.5569,0.205172
3260.4888,0.205560
3261.4206,0.207087
3262.3524,0.207843
3263.2843,0.208563
3264.2161,0.208459
3265.1479,0.209106
3266.0798,0.209727
3267.0116,0.209965
3267.9434,0.211331
3268.8753,0.212479
3269.8071,0.210679
3270.7390,0.210706
3271.6708,0.210377
3272.6026,0.208731
3273.5345,0.208791
3274.4663,0.209851
3275.3981,0.210547
3276.3300,0.211582
3277.2618,0.210593
3278.1936,0.210771
3279.1255,0.211330
3280.0573,0.212194
3280.9891,0.211750
3281.9210,0.211631
3282.8528,0.212456
3283.7846,0.212079
3284.7165,0.212315
3285.6483,0.213755
3286.5801,0.213099
3287.5120,0.212770
3288.4438,0.212600
3289.3756,0.214178
3290.3075,0.214726
3291.2393,0.214218
3292.1711,0.213834
3293.1030,0.214274
3294.0348,0.215271
3294.9666,0.216108
3295.8985,0.215862
3296.8303,0.214620
3297.7622,0.215035
3298.6940,0.216939
3299.6258,0.217406
3300.5577,0.217383
3301.4895,0.217379
3302.4213,0.216275
3303.3532,0.215458
3304.2850,0.215284
3305.2168,0.216209
3306.1487,0.217553
3307.0805,0.216854
3308.0123,0.216027
3308.9442,0.215691
3309.8760,0.216663
3310.8078,0.216632
3311.7397,0.216872
3312.6715,0.217291
3313.6033,0.217311
3314.5352,0.217359
3315.4670,0.218723
3316.3988,0.220113
3317.3307,0.219699
3318.2625,0.218202
3319.1943,0.217876
3320.1262,0.217198
3321.0580,0.218882
3321.9898,0.220371
3322.9217,0.219665
3323.8535,0.219027
3324.7854,0.219807
3325.7172,0.221098
3326.6490,0.221721
3327.5809,0.220399
3328.5127,0.219960
3329.4445,0.220968
3330.3764,0.220825
3331.3082,0.221214
3332.2400,0.221858
3333.1719,0.220568
3334.1037,0.221416
3335.0355,0.221302
3335.9674,0.219425
3336.8992,0.219257
3337.8310,0.222325
3338.7629,0.223457
3339.6947,0.223900
3340.6265,0.223290
3341.5584,0.222417
3342.4902,0.220380
3343.4220,0.220016
3344.3539,0.221302
3345.2857,0.221193
3346.2175,0.221321
3347.1494,0.223325
3348.0812,0.222416
3349.0130,0.221399
3349.9449,0.222596
3350.8767,0.223568
3351.8086,0.221716
3352.7404,0.222169
3353.6722,0.222462
3354.6041,0.221857
3355.5359,0.222786
3356.4677,0.223258
3357.3996,0.223464
3358.3314,0.223014
3359.2632,0.222393
3360.1951,0.225630
3361.1269,0.225334
3362.0587,0.223780
3362.9906,0.223896
3363.9224,0.224208
3364.8542,0.223788
3365.7861,0.223906
3366.7179,0.222950
3367.6497,0.222059
3368.5816,0.221586
3369.5134,0.222212
3370.4452,0.222001
3371.3771,0.219404
3372.3089,0.219602
3373.2407,0.223340
3374.1726,0.223809
3375.1044,0.224245
3376.0362,0.223736
3376.9681,0.221895
3377.8999,0.217892
3378.8317,0.216556
3379.7636,0.218874
3380.6954,0.221182
3381.6273,0.220010
3382.5591,0.219707
3383.4909,0.219608
3384.4228,0.218916
3385.3546,0.218183
3386.2864,0.218165
3387.2183,0.217654
3388.1501,0.219854
3389.0819,0.220905
3390.0138,0.221107
3390.9456,0.219241
3391.8774,0.217199
3392.8093,0.216646
3393.7411,0.216564
3394.6729,0.213872
3395.6048,0.212878
3396.5366,0.212454
3397.4684,0.211537
3398.4003,0.211752
3399.3321,0.212389
3400.2639,0.212260
3401.1958,0.213095
3402.1276,0.212577
3403.0594,0.211242
3403.9913,0.209078
3404.9231,0.207874
3405.8549,0.208953
3406.7868,0.208795
3407.7186,0.206402
3408.6505,0.205830
3409.5823,0.204184
3410.5141,0.204586
3411.4460,0.205397
3412.3778,0.204690
3413.3096,0.205169
3414.2415,0.205057
3415.1733,0.201303
3416.1051,0.201559
3417.0370,0.202097
3417.9688,0.202572
3418.9006,0.200371
3419.8325,0.199117
3420.7643,0.200718
3421.6961,0.198446
3422.6280,0.194575
3423.5598,0.196458
3424.4916,0.197689
3425.4235,0.195609
3426.3553,0.194257
3427.2871,0.191574
3428.2190,0.189265
3429.1508,0.191693
3430.0826,0.191089
3431.0145,0.189897
3431.9463,0.189013
3432.8781,0.190417
3433.8100,0.187892
3434.7418,0.183857
3435.6737,0.183433
3436.6055,0.185002
3437.5373,0.184429
3438.4692,0.184666
3439.4010,0.183417
3440.3328,0.180313
3441.2647,0.177977
3442.1965,0.178890
3443.1283,0.179229
3444.0602,0.176446
3444.9920,0.177316
3445.9238,0.180207
3446.8557,0.179788
3447.7875,0.179103
3448.7193,0.177438
3449.6512,0.175309
3450.5830,0.170076
3451.5148,0.167268
3452.4467,0.169069
3453.3785,0.171677
3454.3103,0.171622
3455.2422,0.171818
3456.1740,0.169629
3457.1058,0.168162
3458.0377,0.166700
3458.9695,0.167212
3459.9013,0.168377
3460.8332,0.166285
3461.7650,0.164682
3462.6969,0.165095
3463.6287,0.163183
3464.5605,0.162476
3465.4924,0.161932
3466.4242,0.160663
3467.3560,0.160329
3468.2879,0.162721
3469.2197,0.159823
3470.1515,0.155190
3471.0834,0.154191
3472.0152,0.154731
3472.9470,0.151400
3473.8789,0.150988
3474.8107,0.149265
3475.7425,0.149069
3476.6744,0.151343
3477.6062,0.150947
3478.5380,0.148673
3479.4699,0.148158
3480.4017,0.148475
3481.3335,0.146694
3482.2654,0.144260
3483.1972,0.144548
3484.1290,0.143962
3485.0609,0.141695
3485.9927,0.140122
3486.9245,0.140401
3487.8564,0.139580
3488.7882,0.139172
3489.7201,0.138313
3490.6519,0.139188
3491.5837,0.139068
3492.5156,0.136549
3493.4474,0.133317
3494.3792,0.134263
3495.3111,0.136545
3496.2429,0.136296
3497.1747,0.133013
3498.1066,0.132046
3499.0384,0.130612
3499.9702,0.128488
3500.9021,0.126924
3501.8339,0.126114
3502.7657,0.125399
3503.6976,0.129693
3504.6294,0.128778
3505.5612,0.125148
3506.4931,0.123710
3507.4249,0.122916
3508.3567,0.123607
3509.2886,0.124021
3510.2204,0.122383
3511.1522,0.121808
3512.0841,0.121078
3513.0159,0.119344
3513.9477,0.114873
3514.8796,0.113292
3515.8114,0.115944
3516.7432,0.117798
3517.6751,0.115372
3518.6069,0.113579
3519.5388,0.113054
3520.4706,0.113932
3521.4024,0.114300
3522.3343,0.115576
3523.2661,0.114254
3524.1979,0.111981
3525.1298,0.112065
3526.0616,0.109184
3526.9934,0.107288
3527.9253,0.106571
3528.8571,0.105157
3529.7889,0.107360
3530.7208,0.106491
3531.6526,0.102643
3532.5844,0.101141
3533.5163,0.103276
3534.4481,0.103233
3535.3799,0.100753
3536.3118,0.100590
3537.2436,0.100525
3538.1754,0.099563
3539.1073,0.098125
3540.0391,0.096636
3540.9709,0.096655
3541.9028,0.096032
3542.8346,0.095871
3543.7664,0.094480
3544.6983,0.094627
3545.6301,0.094584
3546.5620,0.092758
3547.4938,0.092822
3548.4256,0.090196
3549.3575,0.087531
3550.2893,0.087785
3551.2211,0.086874
3552.1530,0.085862
3553.0848,0.084728
3554.0166,0.086706
3554.9485,0.085708
3555.8803,0.082996
3556.8121,0.083986
3557.7440,0.084045
3558.6758,0.083390
3559.6076,0.081729
3560.5395,0.079012
3561.4713,0.079205
3562.4031,0.081111
3563.3350,0.079748
3564.2668,0.075825
3565.1986,0.073268
3566.1305,0.074357
3567.0623,0.076497
3567.9941,0.078355
3568.9260,0.080048
3569.8578,0.078196
3570.7896,0.074497
3571.7215,0.071726
3572.6533,0.070062
3573.5852,0.069326
3574.5170,0.068595
3575.4488,0.067518
3576.3807,0.067870
3577.3125,0.069454
3578.2443,0.069804
3579.1762,0.068643
3580.1080,0.066626
3581.0398,0.065452
3581.9717,0.065172
3582.9035,0.063129
3583.8353,0.063385
3584.7672,0.062724
3585.6990,0.062974
3586.6308,0.064565
3587.5627,0.065177
3588.4945,0.062465
3589.4263,0.057512
3590.3582,0.055892
3591.2900,0.055920
3592.2218,0.055427
3593.1537,0.056837
3594.0855,0.058143
3595.0173,0.055998
3595.9492,0.054847
3596.8810,0.053082
3597.8128,0.049736
3598.7447,0.049011
3599.6765,0.049977
3600.6084,0.051375
3601.5402,0.050817
3602.4720,0.049742
3603.4039,0.047963
3604.3357,0.048372
3605.2675,0.049331
3606.1994,0.046520
3607.1312,0.045891
3608.0630,0.047594
3608.9949,0.046478
3609.9267,0.044996
3610.8585,0.044725
3611.7904,0.044644
3612.7222,0.045469
3613.6540,0.045420
3614.5859,0.043975
3615.5177,0.043839
3616.4495,0.044070
3617.3814,0.043721
3618.3132,0.042920
3619.2450,0.040755
3620.1769,0.039596
3621.1087,0.040350
3622.0405,0.040274
3622.9724,0.038427
3623.9042,0.037511
3624.8360,0.037304
3625.7679,0.037610
3626.6997,0.037646
3627.6316,0.037614
3628.5634,0.037777
3629.4952,0.038123
3630.4271,0.038446
3631.3589,0.038163
3632.2907,0.035095
3633.2226,0.031817
3634.1544,0.031254
3635.0862,0.031938
3636.0181,0.033648
3636.9499,0.033252
3637.8817,0.032867
3638.8136,0.031738
3639.7454,0.030816
3640.6772,0.030302
3641.6091,0.030167
3642.5409,0.030595
3643.4727,0.030042
3644.4046,0.029471
3645.3364,0.030315
3646.2682,0.029728
3647.2001,0.029445
3648.1319,0.029837
3649.0637,0.029115
3649.9956,0.025921
3650.9274,0.024458
3651.8592,0.024808
3652.7911,0.024946
3653.7229,0.021894
3654.6547,0.020642
3655.5866,0.021400
3656.5184,0.022585
3657.4503,0.022444
3658.3821,0.021856
3659.3139,0.021147
3660.2458,0.019800
3661.1776,0.019404
3662.1094,0.019993
3663.0413,0.020806
3663.9731,0.021164
3664.9049,0.020771
3665.8368,0.019750
3666.7686,0.019000
3667.7004,0.018767
3668.6323,0.018986
3669.5641,0.020251
3670.4959,0.019414
3671.4278,0.017931
3672.3596,0.017455
3673.2914,0.016936
3674.2233,0.013857
3675.1551,0.011655
3676.0869,0.011537
3677.0188,0.012124
3677.9506,0.012559
3678.8824,0.009148
3679.8143,0.007710
3680.7461,0.009909
3681.6779,0.010063
3682.6098,0.009721
3683.5416,0.009682
3684.4735,0.009767
3685.4053,0.010571
3686.3371,0.009537
3687.2690,0.006536
3688.2008,0.006660
3689.1326,0.009937
3690.0645,0.011363
3690.9963,0.008258
3691.9281,0.005244
3692.8600,0.004281
3693.7918,0.005173
3694.7236,0.006672
3695.6555,0.006759
3696.5873,0.005579
3697.5191,0.006104
3698.4510,0.006255
3699.3828,0.005489
3700.3146,0.005248
3701.2465,0.005508
3702.1783,0.005799
3703.1101,0.006013
3704.0420,0.005260
3704.9738,0.004443
3705.9056,0.004634
3706.8375,0.003859
3707.7693,0.003317
3708.7011,0.003306
3709.6330,0.003805
3710.5648,0.004173
3711.4967,0.004549
3712.4285,0.005175
3713.3603,0.003535
3714.2922,0.001224
3715.2240,0.000850
3716.1558,0.000942
3717.0877,0.001131
3718.0195,0.002091
3718.9513,0.002744
3719.8832,0.003552
3720.8150,0.003674
3721.7468,0.002989
3722.6787,0.001743
3723.6105,0.001385
3724.5423,0.001857
3725.4742,0.002674
3726.4060,0.001765
3727.3378,0.000710
3728.2697,0.000991
3729.2015,0.001245
3730.1333,0.001342
3731.0652,0.001980
3731.9970,0.003291
3732.9288,0.003569
3733.8607,0.002454
3734.7925,0.002984
3735.7243,0.002131
3736.6562,-0.001795
3737.5880,-0.003070
3738.5199,-0.002324
3739.4517,-0.000340
3740.3835,0.001151
3741.3154,-0.000269
3742.2472,-0.001453
3743.1790,-0.001368
3744.1109,-0.000339
3745.0427,0.000905
3745.9745,0.000731
3746.9064,-0.000675
3747.8382,-0.000916
3748.7700,-0.000090
3749.7019,-0.000603
3750.6337,-0.000064
3751.5655,0.000161
3752.4974,-0.000786
3753.4292,-0.000107
3754.3610,0.001138
3755.2929,-0.000784
3756.2247,-0.002904
3757.1565,-0.000771
3758.0884,0.000124
3759.0202,-0.000704
3759.9520,-0.000451
3760.8839,0.000585
3761.8157,0.001125
3762.7475,0.000866
3763.6794,0.000460
3764.6112,0.000159
3765.5431,0.001158
3766.4749,0.001563
3767.4067,0.001297
3768.3386,0.001207
3769.2704,-0.000990
3770.2022,-0.001003
3771.1341,0.000875
3772.0659,0.000618
3772.9977,0.000090
3773.9296,-0.000301
3774.8614,0.000864
3775.7932,0.002267
3776.7251,0.002404
3777.6569,0.002555
3778.5887,0.002597
3779.5206,0.001519
3780.4524,0.000652
3781.3842,0.001513
3782.3161,0.001599
3783.2479,0.000645
3784.1797,0.000071
3785.1116,0.000895
3786.0434,0.001389
3786.9752,0.001427
3787.9071,0.001289
3788.8389,0.001254
3789.7707,0.001825
3790.7026,0.001577
3791.6344,0.000242
3792.5662,0.000179
3793.4981,0.000775
3794.4299,0.000970
3795.3618,0.001656
3796.2936,0.001711
3797.2254,0.001461
3798.1573,0.002042
3799.0891,0.002111
3800.0209,0.000199
3800.9528,-0.001098
3801.8846,-0.000495
3802.8164,0.000314
3803.7483,0.000918
3804.6801,-0.000616
3805.6119,-0.000662
3806.5438,0.000498
3807.4756,0.000485
3808.4074,0.000274
3809.3393,0.000909
3810.2711,0.000490
3811.2029,-0.000319
3812.1348,0.000189
3813.0666,0.000516
3813.9984,0.000273
3814.9303,0.000537
3815.8621,0.001451
3816.7939,0.001640
3817.7258,0.000984
3818.6576,0.000531
3819.5894,-0.001114
3820.5213,-0.001639
3821.4531,0.000248
3822.3850,0.001053
3823.3168,-0.000596
3824.2486,-0.002145
3825.1805,-0.001420
3826.1123,-0.001028
3827.0441,-0.000552
3827.9760,0.000836
3828.9078,0.001340
3829.8396,0.000401
3830.7715,-0.000820
3831.7033,-0.000987
3832.6351,-0.000368
3833.5670,0.000439
3834.4988,0.000167
3835.4306,-0.001324
3836.3625,-0.002164
3837.2943,-0.001315
3838.2261,-0.000545
3839.1580,0.000634
3840.0898,0.001923
3841.0216,0.001857
3841.9535,0.001484
3842.8853,0.000739
3843.8171,0.000026
3844.7490,-0.000636
3845.6808,-0.001186
3846.6126,-0.000854
3847.5445,-0.000526
3848.4763,0.000133
3849.4082,0.000397
3850.3400,0.000446
3851.2718,0.000505
3852.2037,0.000164
3853.1355,0.000728
3854.0673,0.002149
3854.9992,0.001737
3855.9310,-0.001169
3856.8628,-0.000702
3857.7947,0.000610
3858.7265,-0.000808
3859.6583,0.000032
3860.5902,0.000441
3861.5220,0.000539
3862.4538,0.001190
3863.3857,0.001191
3864.3175,0.001430
3865.2493,0.001193
3866.1812,0.000412
3867.1130,0.000311
3868.0448,-0.001097
3868.9767,-0.002004
3869.9085,-0.000236
3870.8403,0.000561
3871.7722,0.000185
3872.7040,0.000841
3873.6358,0.000151
3874.5677,-0.001061
3875.4995,-0.001561
3876.4314,-0.001111
3877.3632,-0.000749
3878.2950,-0.001035
3879.2269,0.000034
3880.1587,0.001830
3881.0905,0.001576
3882.0224,0.000500
3882.9542,-0.000700
3883.8860,-0.001442
3884.8179,-0.001652
3885.7497,-0.001345
3886.6815,-0.000132
3887.6134,0.000073
3888.5452,-0.000822
3889.4770,-0.001532
3890.4089,-0.001498
3891.3407,-0.000342
3892.2725,0.000814
3893.2044,0.000439
3894.1362,-0.000447
3895.0680,-0.000287
3895.9999,-0.001261
3896.9317,-0.001613
3897.8635,-0.000288
3898.7954,0.000529
3899.7272,0.001245
3900.6590,0.002905
3901.5909,0.002544
3902.5227,0.001536
3903.4546,0.000815
3904.3864,0.000483
3905.3182,-0.000369
3906.2501,-0.002566
3907.1819,-0.001978
3908.1137,-0.000330
3909.0456,0.000469
3909.9774,0.000752
3910.9092,0.000545
3911.8411,0.000563
3912.7729,0.000076
3913.7047,0.000284
3914.6366,0.000778
3915.5684,0.000169
3916.5002,-0.000530
3917.4321,0.000057
3918.3639,0.000049
3919.2957,0.000562
3920.2276,0.002148
3921.1594,0.001512
3922.0912,0.000373
3923.0231,0.000159
3923.9549,-0.000164
3924.8867,-0.000506
3925.8186,0.000560
3926.7504,0.001377
3927.6822,-0.000451
3928.6141,-0.001038
3929.5459,-0.000089
3930.4777,0.000371
3931.4096,0.000477
3932.3414,0.000361
3933.2733,0.000009
3934.2051,0.000179
3935.1369,0.000500
3936.0688,0.000479
3937.0006,0.000710
3937.9324,0.001126
3938.8643,0.000637
3939.7961,0.000832
3940.7279,0.000796
3941.6598,0.000010
3942.5916,-0.000308
3943.5234,0.000419
3944.4553,0.001074
3945.3871,0.001245
3946.3189,0.001063
3947.2508,0.001108
3948.1826,0.001685
3949.1144,0.001494
3950.0463,0.001417
3950.9781,0.001119
3951.9099,0.000605
3952.8418,0.001157
3953.7736,0.000926
3954.7054,0.001093
3955.6373,0.002178
3956.5691,0.001691
3957.5009,0.000870
3958.4328,0.001359
3959.3646,0.001175
3960.2965,0.000778
3961.2283,0.000827
3962.1601,0.001458
3963.0920,0.001646
3964.0238,0.000618
3964.9556,0.000385
3965.8875,0.000629
3966.8193,0.000830
3967.7511,0.001338
3968.6830,0.000750
3969.6148,0.000733
3970.5466,0.000846
3971.4785,0.000533
3972.4103,0.001121
3973.3421,0.001926
3974.2740,0.001786
3975.2058,0.001428
3976.1376,0.000777
3977.0695,0.000950
3978.0013,0.001273
3978.9331,0.001115
3979.8650,0.000597
3980.7968,0.000170
3981.7286,0.000643
3982.6605,0.001730
3983.5923,0.001382
3984.5241,0.000199
3985.4560,0.000047
3986.3878,0.001083
3987.3197,0.001277
3988.2515,0.000607
3989.1833,0.000730
3990.1152,0.001157
3991.0470,0.000535
3991.9788,0.000767
3992.9107,0.001734
3993.8425,0.000971
3994.7743,-0.000120
3995.7062,0.000314
3996.6380,0.000826
3997.5698,0.000678
3998.5017,0.000249
3999.4335,0.000784
4000.3653,0.000825
