Wavenumber,Intensity
650.4205,0.392797
651.3523,0.384321
652.2841,0.402848
653.2160,0.418872
654.1478,0.409030
655.0796,0.407556
656.0115,0.412660
656.9433,0.408504
657.8751,0.404540
658.8070,0.405521
659.7388,0.404530
660.6706,0.403270
661.6025,0.401264
662.5343,0.399176
663.4661,0.395154
664.3980,0.386889
665.3298,0.381396
666.2616,0.381338
667.1935,0.378791
668.1253,0.386881
669.0571,0.401152
669.9890,0.383195
670.9208,0.375071
671.8526,0.377154
672.7845,0.377508
673.7163,0.382589
674.6481,0.377031
675.5800,0.371931
676.5118,0.371267
677.4437,0.370776
678.3755,0.373828
679.3073,0.373004
680.2392,0.370707
681.1710,0.370465
682.1028,0.364148
683.0347,0.361611
683.9665,0.363434
684.8983,0.366827
685.8302,0.362822
686.7620,0.356992
687.6938,0.357091
688.6257,0.354493
689.5575,0.351789
690.4893,0.353751
691.4212,0.352269
692.3530,0.350974
693.2848,0.349320
694.2167,0.346989
695.1485,0.348400
696.0803,0.350930
697.0122,0.349173
697.9440,0.345318
698.8758,0.340955
699.8077,0.340200
700.7395,0.339737
701.6713,0.338106
702.6032,0.336356
703.5350,0.335777
704.4669,0.336467
705.3987,0.338225
706.3305,0.337517
707.2624,0.332561
708.1942,0.329110
709.1260,0.328047
710.0579,0.328204
710.9897,0.329586
711.9215,0.326188
712.8534,0.321890
713.7852,0.320534
714.7170,0.318555
715.6489,0.316857
716.5807,0.318736
717.5125,0.317280
718.4444,0.313025
719.3762,0.311765
720.3080,0.311111
721.2399,0.305720
722.1717,0.303639
723.1035,0.306439
724.0354,0.306252
724.9672,0.304368
725.8990,0.305346
726.8309,0.302958
727.7627,0.300642
728.6945,0.299895
729.6264,0.298142
730.5582,0.295861
731.4901,0.293355
732.4219,0.290973
733.3537,0.291550
734.2856,0.293532
735.2174,0.293644
736.1492,0.291581
737.0811,0.289822
738.0129,0.286150
738.9447,0.283446
739.8766,0.282040
740.8084,0.284456
741.7402,0.282756
742.6721,0.276207
743.6039,0.274132
744.5357,0.275720
745.4676,0.273725
746.3994,0.272190
747.3312,0.273165
748.2631,0.272651
749.1949,0.269273
750.1267,0.266407
751.0586,0.266507
751.9904,0.267405
752.9222,0.265808
753.8541,0.263086
754.7859,0.261294
755.7177,0.260759
756.6496,0.259042
757.5814,0.257423
758.5132,0.256869
759.4451,0.257059
760.3769,0.255941
761.3088,0.252316
762.2406,0.250161
763.1724,0.249440
764.1043,0.248725
765.0361,0.249290
765.9679,0.247695
766.8998,0.244274
767.8316,0.241892
768.7634,0.241366
769.6953,0.239306
770.6271,0.238826
771.5589,0.237788
772.4908,0.236066
773.4226,0.236030
774.3544,0.236354
775.2863,0.235027
776.2181,0.233048
777.1499,0.231648
778.0818,0.229776
779.0136,0.227513
779.9454,0.226142
780.8773,0.225431
781.8091,0.225734
782.7409,0.224806
783.6728,0.222679
784.6046,0.221228
785.5364,0.220415
786.4683,0.218244
787.4001,0.215289
788.3320,0.213740
789.2638,0.213370
790.1956,0.212529
791.1275,0.212738
792.0593,0.212644
792.9911,0.211753
793.9230,0.209808
794.8548,0.208528
795.7866,0.207138
796.7185,0.205334
797.6503,0.203856
798.5821,0.202730
799.5140,0.201772
800.4458,0.199924
801.3776,0.198034
802.3095,0.197865
803.2413,0.197907
804.1731,0.197088
805.1050,0.194721
806.0368,0.193077
806.9686,0.192549
807.9005,0.192437
808.8323,0.192197
809.7641,0.190956
810.6960,0.187721
811.6278,0.185105
812.5596,0.183843
813.4915,0.183137
814.4233,0.182770
815.3552,0.181372
816.2870,0.180589
817.2188,0.180541
818.1507,0.179811
819.0825,0.178229
820.0143,0.176236
820.9462,0.174568
821.8780,0.173150
822.8098,0.173261
823.7417,0.173110
824.6735,0.171722
825.6053,0.170860
826.5372,0.170342
827.4690,0.169466
828.4008,0.169362
829.3327,0.168755
830.2645,0.166768
831.1963,0.164587
832.1282,0.163166
833.0600,0.163011
833.9918,0.162716
834.9237,0.160432
835.8555,0.159123
836.7873,0.158951
837.7192,0.158425
838.6510,0.156651
839.5828,0.155180
840.5147,0.154901
841.4465,0.153752
842.3784,0.151573
843.3102,0.150502
844.2420,0.149851
845.1739,0.149440
846.1057,0.148678
847.0375,0.147377
847.9694,0.146761
848.9012,0.146143
849.8330,0.145617
850.7649,0.145604
851.6967,0.145098
852.6285,0.143456
853.5604,0.141405
854.4922,0.140716
855.4240,0.140441
856.3559,0.139327
857.2877,0.138027
858.2195,0.137644
859.1514,0.137907
860.0832,0.136953
861.0150,0.135506
861.9469,0.135633
862.8787,0.135789
863.8105,0.135317
864.7424,0.134800
865.6742,0.134981
866.6060,0.134983
867.5379,0.134921
868.4697,0.135380
869.4016,0.136100
870.3334,0.136548
871.2652,0.137724
872.1971,0.139104
873.1289,0.140694
874.0607,0.142249
874.9926,0.143155
875.9244,0.143685
876.8562,0.144599
877.7881,0.145173
878.7199,0.144058
879.6517,0.141779
880.5836,0.138848
881.5154,0.134813
882.4472,0.130945
883.3791,0.127213
884.3109,0.123264
885.2427,0.120216
886.1746,0.117476
887.1064,0.115106
888.0382,0.112355
888.9701,0.109619
889.9019,0.108051
890.8337,0.106733
891.7656,0.105781
892.6974,0.104641
893.6292,0.103193
894.5611,0.102051
895.4929,0.101609
896.4247,0.101024
897.3566,0.100567
898.2884,0.100172
899.2203,0.099337
900.1521,0.098732
901.0839,0.098247
902.0158,0.097612
902.9476,0.097573
903.8794,0.097425
904.8113,0.096938
905.7431,0.096842
906.6749,0.097016
907.6068,0.096701
908.5386,0.096398
909.4704,0.096313
910.4023,0.096129
911.3341,0.096055
912.2659,0.096462
913.1978,0.096369
914.1296,0.096015
915.0614,0.096337
915.9933,0.097000
916.9251,0.097662
917.8569,0.098378
918.7888,0.098331
919.7206,0.098270
920.6524,0.099062
921.5843,0.099691
922.5161,0.099895
923.4479,0.099782
924.3798,0.099816
925.3116,0.100006
926.2435,0.099528
927.1753,0.099146
928.1071,0.099062
929.0390,0.098164
929.9708,0.097062
930.9026,0.096244
931.8345,0.095821
932.7663,0.095285
933.6981,0.093962
934.6300,0.092581
935.5618,0.091721
936.4936,0.091008
937.4255,0.090107
938.3573,0.089451
939.2891,0.088796
940.2210,0.088059
941.1528,0.087566
942.0846,0.087058
943.0165,0.086082
943.9483,0.085515
944.8801,0.085120
945.8120,0.084050
946.7438,0.083286
947.6756,0.082622
948.6075,0.081680
949.5393,0.081202
950.4711,0.080621
951.4030,0.079763
952.3348,0.079125
953.2667,0.078727
954.1985,0.078263
955.1303,0.077519
956.0622,0.076694
956.9940,0.075614
957.9258,0.074846
958.8577,0.074876
959.7895,0.074693
960.7213,0.074438
961.6532,0.074136
962.5850,0.073851
963.5168,0.073953
964.4487,0.074098
965.3805,0.074310
966.3123,0.075076
967.2442,0.075587
968.1760,0.075286
969.1078,0.075423
970.0397,0.076075
970.9715,0.076762
971.9033,0.077778
972.8352,0.078756
973.7670,0.079525
974.6988,0.080665
975.6307,0.082006
976.5625,0.083821
977.4943,0.085628
978.4262,0.087472
979.3580,0.089570
980.2899,0.091833
981.2217,0.094655
982.1535,0.097669
983.0854,0.100589
984.0172,0.103454
984.9490,0.106794
985.8809,0.110564
986.8127,0.114224
987.7445,0.117421
988.6764,0.120365
989.6082,0.123158
990.5400,0.125542
991.4719,0.127303
992.4037,0.128801
993.3355,0.129982
994.2674,0.130945
995.1992,0.131603
996.1310,0.131912
997.0629,0.132575
997.9947,0.132629
998.9265,0.131988
999.8584,0.131410
1000.7902,0.130447
1001.7220,0.128779
1002.6539,0.127427
1003.5857,0.125870
1004.5175,0.123700
1005.4494,0.121569
1006.3812,0.119643
1007.3131,0.118061
1008.2449,0.116809
1009.1767,0.115896
1010.1086,0.115248
1011.0404,0.115278
1011.9722,0.115758
1012.9041,0.116001
1013.8359,0.116317
1014.7677,0.117034
1015.6996,0.117748
1016.6314,0.118361
1017.5632,0.118823
1018.4951,0.119164
1019.4269,0.118990
1020.3587,0.118919
1021.2906,0.119367
1022.2224,0.120054
1023.1542,0.120926
1024.0861,0.122047
1025.0179,0.123626
1025.9497,0.125804
1026.8816,0.127867
1027.8134,0.130173
1028.7452,0.132762
1029.6771,0.135654
1030.6089,0.138984
1031.5407,0.142356
1032.4726,0.145953
1033.4044,0.150065
1034.3362,0.154652
1035.2681,0.159661
1036.1999,0.165491
1037.1318,0.172104
1038.0636,0.179122
1038.9954,0.186156
1039.9273,0.193363
1040.8591,0.200350
1041.7909,0.206619
1042.7228,0.211798
1043.6546,0.214759
1044.5864,0.215580
1045.5183,0.214278
1046.4501,0.210745
1047.3819,0.205134
1048.3138,0.198280
1049.2456,0.190960
1050.1774,0.183635
1051.1093,0.176329
1052.0411,0.169741
1052.9729,0.163632
1053.9048,0.158227
1054.8366,0.153723
1055.7684,0.150030
1056.7003,0.146497
1057.6321,0.143185
1058.5639,0.140378
1059.4958,0.137902
1060.4276,0.135380
1061.3594,0.133031
1062.2913,0.131021
1063.2231,0.129363
1064.1550,0.127849
1065.0868,0.126617
1066.0186,0.125381
1066.9505,0.123828
1067.8823,0.122705
1068.8141,0.121710
1069.7460,0.120415
1070.6778,0.119529
1071.6096,0.119109
1072.5415,0.118737
1073.4733,0.118321
1074.4051,0.117737
1075.3370,0.117443
1076.2688,0.117412
1077.2006,0.117035
1078.1325,0.116616
1079.0643,0.116357
1079.9961,0.115982
1080.9280,0.115614
1081.8598,0.114955
1082.7916,0.113864
1083.7235,0.112504
1084.6553,0.110749
1085.5871,0.108680
1086.5190,0.106284
1087.4508,0.103713
1088.3826,0.101143
1089.3145,0.098564
1090.2463,0.095868
1091.1782,0.093217
1092.1100,0.090946
1093.0418,0.088976
1093.9737,0.087360
1094.9055,0.086102
1095.8373,0.085057
1096.7692,0.084064
1097.7010,0.083426
1098.6328,0.083155
1099.5647,0.083215
1100.4965,0.083168
1101.4283,0.082810
1102.3602,0.082824
1103.2920,0.083293
1104.2238,0.083562
1105.1557,0.083573
1106.0875,0.083539
1107.0193,0.083383
1107.9512,0.083413
1108.8830,0.083382
1109.8148,0.083148
1110.7467,0.083016
1111.6785,0.082847
1112.6103,0.082407
1113.5422,0.082224
1114.4740,0.081976
1115.4058,0.081794
1116.3377,0.081664
1117.2695,0.081137
1118.2014,0.080744
1119.1332,0.080720
1120.0650,0.080525
1120.9969,0.080144
1121.9287,0.079867
1122.8605,0.079983
1123.7924,0.080259
1124.7242,0.080228
1125.6560,0.080436
1126.5879,0.080665
1127.5197,0.080765
1128.4515,0.080874
1129.3834,0.081205
1130.3152,0.081549
1131.2470,0.081670
1132.1789,0.081904
1133.1107,0.082288
1134.0425,0.082565
1134.9744,0.082643
1135.9062,0.082739
1136.8380,0.082603
1137.7699,0.082340
1138.7017,0.082293
1139.6335,0.082036
1140.5654,0.081150
1141.4972,0.080402
1142.4290,0.079466
1143.3609,0.078178
1144.2927,0.076941
1145.2246,0.075603
1146.1564,0.074056
1147.0882,0.072432
1148.0201,0.070854
1148.9519,0.069521
1149.8837,0.068291
1150.8156,0.067098
1151.7474,0.065843
1152.6792,0.064948
1153.6111,0.064182
1154.5429,0.063470
1155.4747,0.062876
1156.4066,0.062389
1157.3384,0.061915
1158.2702,0.061291
1159.2021,0.060923
1160.1339,0.060494
1161.0657,0.059758
1161.9976,0.059191
1162.9294,0.058623
1163.8612,0.057837
1164.7931,0.057075
1165.7249,0.056346
1166.6567,0.055551
1167.5886,0.054890
1168.5204,0.054234
1169.4522,0.053619
1170.3841,0.052889
1171.3159,0.052328
1172.2477,0.051990
1173.1796,0.051604
1174.1114,0.051163
1175.0433,0.050826
1175.9751,0.050480
1176.9069,0.050276
1177.8388,0.050108
1178.7706,0.050014
1179.7024,0.050086
1180.6343,0.050006
1181.5661,0.050021
1182.4979,0.050160
1183.4298,0.050150
1184.3616,0.050271
1185.2934,0.050462
1186.2253,0.050569
1187.1571,0.050529
1188.0889,0.050606
1189.0208,0.050588
1189.9526,0.050497
1190.8844,0.050564
1191.8163,0.050738
1192.7481,0.050799
1193.6799,0.050719
1194.6118,0.050537
1195.5436,0.050446
1196.4754,0.050487
1197.4073,0.050729
1198.3391,0.051216
1199.2709,0.051430
1200.2028,0.051212
1201.1346,0.051118
1202.0665,0.051224
1202.9983,0.051356
1203.9301,0.051737
1204.8620,0.052047
1205.7938,0.052101
1206.7256,0.052263
1207.6575,0.052481
1208.5893,0.052643
1209.5211,0.052688
1210.4530,0.052784
1211.3848,0.052725
1212.3166,0.052742
1213.2485,0.052755
1214.1803,0.052676
1215.1121,0.052657
1216.0440,0.052594
1216.9758,0.052539
1217.9076,0.052837
1218.8395,0.052839
1219.7713,0.052444
1220.7031,0.052182
1221.6350,0.052305
1222.5668,0.052396
1223.4986,0.052313
1224.4305,0.052251
1225.3623,0.052474
1226.2941,0.052582
1227.2260,0.052392
1228.1578,0.052515
1229.0897,0.052870
1230.0215,0.052997
1230.9533,0.053028
1231.8852,0.053100
1232.8170,0.053319
1233.7488,0.053626
1234.6807,0.053808
1235.6125,0.053636
1236.5443,0.053818
1237.4762,0.054149
1238.4080,0.054187
1239.3398,0.054054
1240.2717,0.054147
1241.2035,0.054393
1242.1353,0.054572
1243.0672,0.054795
1243.9990,0.054876
1244.9308,0.054878
1245.8627,0.054921
1246.7945,0.054801
1247.7263,0.054950
1248.6582,0.055348
1249.5900,0.055539
1250.5218,0.055794
1251.4537,0.056120
1252.3855,0.056199
1253.3173,0.056131
1254.2492,0.056230
1255.1810,0.056612
1256.1129,0.056916
1257.0447,0.057202
1257.9765,0.057428
1258.9084,0.057808
1259.8402,0.058108
1260.7720,0.058181
1261.7039,0.058451
1262.6357,0.058661
1263.5675,0.059064
1264.4994,0.059385
1265.4312,0.059639
1266.3630,0.060018
1267.2949,0.059852
1268.2267,0.059764
1269.1585,0.060086
1270.0904,0.060228
1271.0222,0.060603
1271.9540,0.061014
1272.8859,0.061235
1273.8177,0.061044
1274.7495,0.060860
1275.6814,0.060761
1276.6132,0.060692
1277.5450,0.060622
1278.4769,0.060190
1279.4087,0.059643
1280.3405,0.059374
1281.2724,0.059091
1282.2042,0.058839
1283.1361,0.058407
1284.0679,0.058029
1284.9997,0.057809
1285.9316,0.057534
1286.8634,0.056952
1287.7952,0.056798
1288.7271,0.057064
1289.6589,0.056919
1290.5907,0.056827
1291.5226,0.057085
1292.4544,0.057334
1293.3862,0.056937
1294.3181,0.056658
1295.2499,0.056766
1296.1817,0.056908
1297.1136,0.056959
1298.0454,0.057172
1298.9772,0.057355
1299.9091,0.057465
1300.8409,0.057757
1301.7727,0.057998
1302.7046,0.058218
1303.6364,0.058633
1304.5682,0.059107
1305.5001,0.059229
1306.4319,0.059241
1307.3637,0.059562
1308.2956,0.059834
1309.2274,0.059932
1310.1592,0.060281
1311.0911,0.060732
1312.0229,0.061025
1312.9548,0.061154
1313.8866,0.061534
1314.8184,0.062065
1315.7503,0.062094
1316.6821,0.062056
1317.6139,0.062283
1318.5458,0.062845
1319.4776,0.063091
1320.4094,0.063464
1321.3413,0.063843
1322.2731,0.063914
1323.2049,0.063738
1324.1368,0.063794
1325.0686,0.064041
1326.0004,0.064098
1326.9323,0.064145
1327.8641,0.064144
1328.7959,0.064030
1329.7278,0.064040
1330.6596,0.064328
1331.5914,0.064344
1332.5233,0.064141
1333.4551,0.063836
1334.3869,0.063725
1335.3188,0.063614
1336.2506,0.063267
1337.1824,0.063017
1338.1143,0.063148
1339.0461,0.063203
1339.9780,0.063518
1340.9098,0.064104
1341.8416,0.064004
1342.7735,0.063360
1343.7053,0.062807
1344.6371,0.062349
1345.5690,0.062202
1346.5008,0.062098
1347.4326,0.061784
1348.3645,0.061529
1349.2963,0.061589
1350.2281,0.061587
1351.1600,0.061534
1352.0918,0.061530
1353.0236,0.061651
1353.9555,0.061654
1354.8873,0.061806
1355.8191,0.061833
1356.7510,0.061805
1357.6828,0.061624
1358.6146,0.061502
1359.5465,0.061144
1360.4783,0.060705
1361.4101,0.060834
1362.3420,0.061388
1363.2738,0.062191
1364.2056,0.063467
1365.1375,0.063397
1366.0693,0.062778
1367.0012,0.062401
1367.9330,0.062546
1368.8648,0.063035
1369.7967,0.063187
1370.7285,0.063069
1371.6603,0.063141
1372.5922,0.063601
1373.5240,0.064387
1374.4558,0.065813
1375.3877,0.066883
1376.3195,0.067043
1377.2513,0.066937
1378.1832,0.066791
1379.1150,0.066968
1380.0468,0.067248
1380.9787,0.067448
1381.9105,0.067457
1382.8423,0.067134
1383.7742,0.067144
1384.7060,0.067231
1385.6378,0.066745
1386.5697,0.066449
1387.5015,0.067559
1388.4333,0.069019
1389.3652,0.068286
1390.2970,0.066921
1391.2288,0.066284
1392.1607,0.065583
1393.0925,0.064980
1394.0244,0.064550
1394.9562,0.065046
1395.8880,0.066581
1396.8199,0.066948
1397.7517,0.066529
1398.6835,0.066425
1399.6154,0.067617
1400.5472,0.068206
1401.4790,0.067222
1402.4109,0.066833
1403.3427,0.066877
1404.2745,0.066959
1405.2064,0.067842
1406.1382,0.069279
1407.0700,0.069566
1408.0019,0.069201
1408.9337,0.069118
1409.8655,0.069134
1410.7974,0.069472
1411.7292,0.069850
1412.6610,0.069862
1413.5929,0.069878
1414.5247,0.069572
1415.4565,0.069282
1416.3884,0.069050
1417.3202,0.068682
1418.2520,0.068745
1419.1839,0.069464
1420.1157,0.071555
1421.0476,0.072322
1421.9794,0.070206
1422.9112,0.069103
1423.8431,0.069418
1424.7749,0.070184
1425.7067,0.069905
1426.6386,0.068714
1427.5704,0.067823
1428.5022,0.067402
1429.4341,0.067246
1430.3659,0.067744
1431.2977,0.068168
1432.2296,0.067328
1433.1614,0.066175
1434.0932,0.065548
1435.0251,0.065410
1435.9569,0.065007
1436.8887,0.065710
1437.8206,0.068119
1438.7524,0.067235
1439.6842,0.065276
1440.6161,0.064757
1441.5479,0.064709
1442.4797,0.064557
1443.4116,0.064447
1444.3434,0.064136
1445.2752,0.063759
1446.2071,0.063664
1447.1389,0.064160
1448.0707,0.065283
1449.0026,0.067000
1449.9344,0.067463
1450.8663,0.066670
1451.7981,0.066136
1452.7299,0.066107
1453.6618,0.065958
1454.5936,0.065104
1455.5254,0.064279
1456.4573,0.064175
1457.3891,0.066212
1458.3209,0.067719
1459.2528,0.066045
1460.1846,0.064417
1461.1164,0.062317
1462.0483,0.060291
1462.9801,0.059004
1463.9119,0.057853
1464.8438,0.057164
1465.7756,0.057561
1466.7074,0.057355
1467.6393,0.055825
1468.5711,0.054258
1469.5029,0.053123
1470.4348,0.052300
1471.3666,0.051395
1472.2984,0.051206
1473.2303,0.052548
1474.1621,0.053676
1475.0939,0.053022
1476.0258,0.051730
1476.9576,0.051682
1477.8895,0.052296
1478.8213,0.051653
1479.7531,0.050785
1480.6850,0.050626
1481.6168,0.050876
1482.5486,0.050804
1483.4805,0.050178
1484.4123,0.049478
1485.3441,0.048837
1486.2760,0.048342
1487.2078,0.048189
1488.1396,0.048599
1489.0715,0.048809
1490.0033,0.048745
1490.9351,0.049440
1491.8670,0.049488
1492.7988,0.048295
1493.7306,0.047238
1494.6625,0.046535
1495.5943,0.046047
1496.5261,0.046062
1497.4580,0.046809
1498.3898,0.047003
1499.3216,0.047144
1500.2535,0.047673
1501.1853,0.046814
1502.1171,0.045700
1503.0490,0.045119
1503.9808,0.044431
1504.9127,0.043533
1505.8445,0.043492
1506.7763,0.045563
1507.7082,0.050143
1508.6400,0.051117
1509.5718,0.048703
1510.5037,0.047062
1511.4355,0.046151
1512.3673,0.045890
1513.2992,0.046314
1514.2310,0.045538
1515.1628,0.044539
1516.0947,0.045023
1517.0265,0.045795
1517.9583,0.046906
1518.8902,0.046787
1519.8220,0.044962
1520.7538,0.044209
1521.6857,0.046067
1522.6175,0.049157
1523.5493,0.049039
1524.4812,0.047228
1525.4130,0.046153
1526.3448,0.047540
1527.2767,0.048956
1528.2085,0.048237
1529.1403,0.047798
1530.0722,0.047707
1531.0040,0.047186
1531.9359,0.046638
1532.8677,0.046993
1533.7995,0.048350
1534.7314,0.049427
1535.6632,0.048755
1536.5950,0.047222
1537.5269,0.046347
1538.4587,0.046102
1539.3905,0.046345
1540.3224,0.048609
1541.2542,0.051685
1542.1860,0.051346
1543.1179,0.051533
1544.0497,0.051830
1544.9815,0.051212
1545.9134,0.050744
1546.8452,0.050773
1547.7770,0.050290
1548.7089,0.049793
1549.6407,0.050113
1550.5725,0.051538
1551.5044,0.052854
1552.4362,0.051888
1553.3680,0.050456
1554.2999,0.050150
1555.2317,0.050414
1556.1635,0.050889
1557.0954,0.050741
1558.0272,0.050263
1558.9591,0.053200
1559.8909,0.060957
1560.8227,0.062016
1561.7546,0.059406
1562.6864,0.056893
1563.6182,0.055591
1564.5501,0.055435
1565.4819,0.056060
1566.4137,0.056861
1567.3456,0.056800
1568.2774,0.056603
1569.2092,0.057514
1570.1411,0.059819
1571.0729,0.062397
1572.0047,0.061609
1572.9366,0.059836
1573.8684,0.059576
1574.8002,0.060221
1575.7321,0.061173
1576.6639,0.064205
1577.5957,0.068570
1578.5276,0.067992
1579.4594,0.066185
1580.3912,0.065992
1581.3231,0.066935
1582.2549,0.067875
1583.1867,0.068413
1584.1186,0.068896
1585.0504,0.069751
1585.9822,0.070879
1586.9141,0.071737
1587.8459,0.072990
1588.7778,0.074278
1589.7096,0.075183
1590.6414,0.076047
1591.5733,0.076928
1592.5051,0.078006
1593.4369,0.079428
1594.3688,0.080926
1595.3006,0.082413
1596.2324,0.083914
1597.1643,0.085506
1598.0961,0.086706
1599.0279,0.087720
1599.9598,0.089117
1600.8916,0.090810
1601.8234,0.092796
1602.7553,0.094940
1603.6871,0.096792
1604.6189,0.098474
1605.5508,0.100104
1606.4826,0.101615
1607.4144,0.103398
1608.3463,0.105793
1609.2781,0.107790
1610.2099,0.109805
1611.1418,0.112390
1612.0736,0.114070
1613.0054,0.114991
1613.9373,0.116241
1614.8691,0.117901
1615.8010,0.120386
1616.7328,0.124664
1617.6646,0.132141
1618.5965,0.136898
1619.5283,0.135262
1620.4601,0.134192
1621.3920,0.135412
1622.3238,0.137168
1623.2556,0.139996
1624.1875,0.145433
1625.1193,0.149585
1626.0511,0.149179
1626.9830,0.148961
1627.9148,0.150550
1628.8466,0.153783
1629.7785,0.155549
1630.7103,0.154361
1631.6421,0.153348
1632.5740,0.153288
1633.5058,0.153331
1634.4376,0.153582
1635.3695,0.156323
1636.3013,0.163863
1637.2331,0.169600
1638.1650,0.167676
1639.0968,0.164434
1640.0286,0.161467
1640.9605,0.159787
1641.8923,0.159040
1642.8242,0.157598
1643.7560,0.155595
1644.6878,0.153950
1645.6197,0.153072
1646.5515,0.154746
1647.4833,0.158278
1648.4152,0.157906
1649.3470,0.154470
1650.2788,0.150198
1651.2107,0.146587
1652.1425,0.144882
1653.0743,0.147551
1654.0062,0.155500
1654.9380,0.156781
1655.8698,0.150053
1656.8017,0.143635
1657.7335,0.139742
1658.6653,0.137598
1659.5972,0.135094
1660.5290,0.132144
1661.4608,0.130041
1662.3927,0.128427
1663.3245,0.127490
1664.2563,0.126875
1665.1882,0.124296
1666.1200,0.121043
1667.0518,0.118599
1667.9837,0.116918
1668.9155,0.115491
1669.8474,0.115254
1670.7792,0.114375
1671.7110,0.110704
1672.6429,0.107836
1673.5747,0.105988
1674.5065,0.104133
1675.4384,0.102772
1676.3702,0.102133
1677.3020,0.100225
1678.2339,0.096964
1679.1657,0.094127
1680.0975,0.092164
1681.0294,0.090574
1681.9612,0.088523
1682.8930,0.086095
1683.8249,0.084514
1684.7567,0.085419
1685.6885,0.086981
1686.6204,0.084531
1687.5522,0.080443
1688.4840,0.077241
1689.4159,0.075756
1690.3477,0.074593
1691.2795,0.072312
1692.2114,0.069895
1693.1432,0.068121
1694.0750,0.066491
1695.0069,0.064793
1695.9387,0.063333
1696.8706,0.062606
1697.8024,0.062089
1698.7342,0.060761
1699.6661,0.058912
1700.5979,0.057668
1701.5297,0.058193
1702.4616,0.056941
1703.3934,0.054660
1704.3252,0.053608
1705.2571,0.052703
1706.1889,0.051007
1707.1207,0.049669
1708.0526,0.048651
1708.9844,0.047163
1709.9162,0.045884
1710.8481,0.045470
1711.7799,0.045109
1712.7117,0.043996
1713.6436,0.042343
1714.5754,0.040586
1715.5072,0.039904
1716.4391,0.039770
1717.3709,0.039047
1718.3027,0.038567
1719.2346,0.038567
1720.1664,0.038033
1721.0982,0.036696
1722.0301,0.035628
1722.9619,0.035307
1723.8937,0.035146
1724.8256,0.034447
1725.7574,0.033658
1726.6893,0.033015
1727.6211,0.032159
1728.5529,0.031374
1729.4848,0.030675
1730.4166,0.030100
1731.3484,0.029974
1732.2803,0.029635
1733.2121,0.029126
1734.1439,0.029069
1735.0758,0.030005
1736.0076,0.030128
1736.9394,0.028497
1737.8713,0.027332
1738.8031,0.026685
1739.7349,0.026161
1740.6668,0.025927
1741.5986,0.025736
1742.5304,0.025345
1743.4623,0.025093
1744.3941,0.024910
1745.3259,0.024629
1746.2578,0.023912
1747.1896,0.023478
1748.1214,0.023306
1749.0533,0.023306
1749.9851,0.023366
1750.9169,0.022816
1751.8488,0.022479
1752.7806,0.022546
1753.7125,0.022002
1754.6443,0.021427
1755.5761,0.021451
1756.5080,0.021650
1757.4398,0.020992
1758.3716,0.020018
1759.3035,0.020263
1760.2353,0.020268
1761.1671,0.019548
1762.0990,0.019132
1763.0308,0.019122
1763.9626,0.019268
1764.8945,0.019265
1765.8263,0.019053
1766.7581,0.019108
1767.6900,0.019195
1768.6218,0.018848
1769.5536,0.018505
1770.4855,0.017980
1771.4173,0.017591
1772.3491,0.017753
1773.2810,0.018107
1774.2128,0.018014
1775.1446,0.017453
1776.0765,0.017087
1777.0083,0.017100
1777.9401,0.017185
1778.8720,0.016876
1779.8038,0.016548
1780.7357,0.016370
1781.6675,0.016466
1782.5993,0.016708
1783.5312,0.016675
1784.4630,0.016417
1785.3948,0.016294
1786.3267,0.016305
1787.2585,0.015957
1788.1903,0.015628
1789.1222,0.015488
1790.0540,0.015330
1790.9858,0.015327
1791.9177,0.015254
1792.8495,0.015026
1793.7813,0.015213
1794.7132,0.015102
1795.6450,0.014653
1796.5768,0.014445
1797.5087,0.014120
1798.4405,0.013962
1799.3723,0.014577
1800.3042,0.014925
1801.2360,0.014742
1802.1678,0.014680
1803.0997,0.014313
1804.0315,0.014059
1804.9633,0.014326
1805.8952,0.014440
1806.8270,0.014350
1807.7589,0.013996
1808.6907,0.013734
1809.6225,0.013326
1810.5544,0.012493
1811.4862,0.012493
1812.4180,0.013552
1813.3499,0.013951
1814.2817,0.013047
1815.2135,0.012593
1816.1454,0.012812
1817.0772,0.012786
1818.0090,0.012681
1818.9409,0.012452
1819.8727,0.012155
1820.8045,0.011779
1821.7364,0.011887
1822.6682,0.012507
1823.6000,0.012708
1824.5319,0.013219
1825.4637,0.013159
1826.3955,0.012025
1827.3274,0.011203
1828.2592,0.011507
1829.1910,0.012238
1830.1229,0.012673
1831.0547,0.012374
1831.9865,0.011892
1832.9184,0.012021
1833.8502,0.012153
1834.7821,0.012274
1835.7139,0.012171
1836.6457,0.011591
1837.5776,0.011643
1838.5094,0.011995
1839.4412,0.011419
1840.3731,0.010966
1841.3049,0.011425
1842.2367,0.012518
1843.1686,0.012905
1844.1004,0.011446
1845.0322,0.010426
1845.9641,0.010804
1846.8959,0.010418
1847.8277,0.010506
1848.7596,0.011395
1849.6914,0.011930
1850.6232,0.011446
1851.5551,0.010519
1852.4869,0.010884
1853.4187,0.011881
1854.3506,0.011386
1855.2824,0.010669
1856.2142,0.010497
1857.1461,0.010994
1858.0779,0.012212
1859.0097,0.012397
1859.9416,0.011562
1860.8734,0.011023
1861.8052,0.010549
1862.7371,0.010367
1863.6689,0.010642
1864.6008,0.010669
1865.5326,0.010239
1866.4644,0.009637
1867.3963,0.009882
1868.3281,0.011141
1869.2599,0.011231
1870.1918,0.010623
1871.1236,0.009618
1872.0554,0.009706
1872.9873,0.010729
1873.9191,0.010563
1874.8509,0.009591
1875.7828,0.009773
1876.7146,0.010365
1877.6464,0.010066
1878.5783,0.009592
1879.5101,0.009822
1880.4419,0.010259
1881.3738,0.010533
1882.3056,0.010371
1883.2374,0.010331
1884.1693,0.010104
1885.1011,0.010099
1886.0329,0.010222
1886.9648,0.009962
1887.8966,0.009350
1888.8284,0.009359
1889.7603,0.009859
1890.6921,0.009436
1891.6240,0.009388
1892.5558,0.009363
1893.4876,0.009937
1894.4195,0.010326
1895.3513,0.010438
1896.2831,0.009926
1897.2150,0.009646
1898.1468,0.009992
1899.0786,0.010838
1900.0105,0.010815
1900.9423,0.010215
1901.8741,0.009649
1902.8060,0.009772
1903.7378,0.010456
1904.6696,0.010929
1905.6015,0.011037
1906.5333,0.011090
1907.4651,0.011371
1908.3970,0.011267
1909.3288,0.010462
1910.2606,0.010171
1911.1925,0.010459
1912.1243,0.010400
1913.0561,0.010788
1913.9880,0.011246
1914.9198,0.010599
1915.8516,0.009020
1916.7835,0.009108
1917.7153,0.010398
1918.6472,0.010711
1919.5790,0.010746
1920.5108,0.009771
1921.4427,0.008129
1922.3745,0.007631
1923.3063,0.008178
1924.2382,0.009265
1925.1700,0.008383
1926.1018,0.007952
1927.0337,0.008593
1927.9655,0.009386
1928.8973,0.010065
1929.8292,0.010587
1930.7610,0.010265
1931.6928,0.009843
1932.6247,0.010154
1933.5565,0.010679
1934.4883,0.010998
1935.4202,0.009657
1936.3520,0.008447
1937.2838,0.008279
1938.2157,0.009368
1939.1475,0.010449
1940.0793,0.009842
1941.0112,0.007738
1941.9430,0.007329
1942.8748,0.007968
1943.8067,0.006553
1944.7385,0.005765
1945.6704,0.007546
1946.6022,0.009088
1947.5340,0.008414
1948.4659,0.007110
1949.3977,0.008514
1950.3295,0.008004
1951.2614,0.006351
1952.1932,0.006753
1953.1250,0.007326
1954.0569,0.008055
1954.9887,0.008189
1955.9205,0.007763
1956.8524,0.006388
1957.7842,0.006213
1958.7160,0.007484
1959.6479,0.007188
1960.5797,0.006982
1961.5115,0.007889
1962.4434,0.007235
1963.3752,0.005214
1964.3070,0.005352
1965.2389,0.005341
1966.1707,0.005909
1967.1025,0.006671
1968.0344,0.006158
1968.9662,0.006924
1969.8980,0.007493
1970.8299,0.007897
1971.7617,0.006091
1972.6936,0.005263
1973.6254,0.007821
1974.5572,0.007019
1975.4891,0.003366
1976.4209,0.003173
1977.3527,0.005763
1978.2846,0.003354
1979.2164,0.000600
1980.1482,0.002368
1981.0801,0.004735
1982.0119,0.003138
1982.9437,0.004638
1983.8756,0.008858
1984.8074,0.007666
1985.7392,0.004107
1986.6711,0.002518
1987.6029,0.005194
1988.5347,0.008152
1989.4666,0.007488
1990.3984,0.008459
1991.3302,0.006793
1992.2621,0.003593
1993.1939,0.002679
1994.1257,0.005149
1995.0576,0.006845
1995.9894,0.007692
1996.9212,0.008647
1997.8531,0.008018
1998.7849,0.006815
1999.7167,0.005532
2000.6486,0.004329
2001.5804,0.004233
2002.5123,0.004166
2003.4441,0.004580
2004.3759,0.006276
2005.3078,0.007830
2006.2396,0.005634
2007.1714,0.003471
2008.1033,0.004368
2009.0351,0.005043
2009.9669,0.003053
2010.8988,0.003553
2011.8306,0.004568
2012.7624,0.003679
2013.6943,0.003602
2014.6261,0.005762
2015.5579,0.009026
2016.4898,0.010390
2017.4216,0.006300
2018.3534,0.002366
2019.2853,0.001471
2020.2171,0.000192
2021.1489,0.002296
2022.0808,0.004771
2023.0126,0.002087
2023.9444,0.001095
2024.8763,0.004074
2025.8081,0.005894
2026.7399,0.006756
2027.6718,0.007913
2028.6036,0.006026
2029.5355,0.003066
2030.4673,0.006699
2031.3991,0.006712
2032.3310,0.003849
2033.2628,0.006906
2034.1946,0.006950
2035.1265,0.005488
2036.0583,0.005699
2036.9901,0.003253
2037.9220,0.002175
2038.8538,0.005561
2039.7856,0.008684
2040.7175,0.009836
2041.6493,0.007432
2042.5811,0.006886
2043.5130,0.008204
2044.4448,0.010002
2045.3766,0.011946
2046.3085,0.010179
2047.2403,0.008971
2048.1721,0.007397
2049.1040,0.004847
2050.0358,0.008393
2050.9676,0.011792
2051.8995,0.011351
2052.8313,0.011775
2053.7631,0.012055
2054.6950,0.010294
2055.6268,0.009659
2056.5587,0.012255
2057.4905,0.012163
2058.4223,0.010847
2059.3542,0.013130
2060.2860,0.012560
2061.2178,0.011748
2062.1497,0.011391
2063.0815,0.011473
2064.0133,0.011905
2064.9452,0.014101
2065.8770,0.015483
2066.8088,0.014409
2067.7407,0.013968
2068.6725,0.012634
2069.6043,0.012523
2070.5362,0.013427
2071.4680,0.012965
2072.3998,0.011646
2073.3317,0.011634
2074.2635,0.012632
2075.1953,0.013064
2076.1272,0.012760
2077.0590,0.013995
2077.9908,0.014194
2078.9227,0.014054
2079.8545,0.014046
2080.7863,0.015572
2081.7182,0.016815
2082.6500,0.016200
2083.5819,0.014660
2084.5137,0.014575
2085.4455,0.014814
2086.3774,0.013936
2087.3092,0.014332
2088.2410,0.014916
2089.1729,0.015008
2090.1047,0.015633
2091.0365,0.015281
2091.9684,0.014237
2092.9002,0.015295
2093.8320,0.016662
2094.7639,0.015426
2095.6957,0.014087
2096.6275,0.014365
2097.5594,0.014452
2098.4912,0.015451
2099.4230,0.015418
2100.3549,0.015135
2101.2867,0.015005
2102.2185,0.015244
2103.1504,0.015295
2104.0822,0.015422
2105.0140,0.016043
2105.9459,0.016022
2106.8777,0.014687
2107.8095,0.013832
2108.7414,0.014407
2109.6732,0.014241
2110.6051,0.014179
2111.5369,0.014555
2112.4687,0.015447
2113.4006,0.015159
2114.3324,0.014855
2115.2642,0.016012
2116.1961,0.016459
2117.1279,0.017113
2118.0597,0.016701
2118.9916,0.015814
2119.9234,0.016709
2120.8552,0.017743
2121.7871,0.017476
2122.7189,0.016791
2123.6507,0.016546
2124.5826,0.014783
2125.5144,0.013535
2126.4462,0.014158
2127.3781,0.015332
2128.3099,0.015163
2129.2417,0.015363
2130.1736,0.015726
2131.1054,0.015900
2132.0372,0.015662
2132.9691,0.013610
2133.9009,0.014200
2134.8327,0.013820
2135.7646,0.011712
2136.6964,0.011055
2137.6282,0.011701
2138.5601,0.011984
2139.4919,0.013756
2140.4238,0.014646
2141.3556,0.011418
2142.2874,0.011523
2143.2193,0.012595
2144.1511,0.010706
2145.0829,0.012414
2146.0148,0.015315
2146.9466,0.013142
2147.8784,0.008757
2148.8103,0.006509
2149.7421,0.008745
2150.6739,0.011719
2151.6058,0.010542
2152.5376,0.009041
2153.4694,0.009550
2154.4013,0.011590
2155.3331,0.009905
2156.2649,0.009587
2157.1968,0.010262
2158.1286,0.007666
2159.0604,0.003431
2159.9923,0.002970
2160.9241,0.001686
2161.8559,-0.001710
2162.7878,0.000142
2163.7196,0.002753
2164.6514,0.002608
2165.5833,0.004279
2166.5151,0.006138
2167.4470,0.008068
2168.3788,0.009220
2169.3106,0.008764
2170.2425,0.007500
2171.1743,0.005511
2172.1061,0.007063
2173.0380,0.006692
2173.9698,0.005294
2174.9016,0.007598
2175.8335,0.009081
2176.7653,0.009575
2177.6971,0.008315
2178.6290,0.008291
2179.5608,0.008603
2180.4926,0.007964
2181.4245,0.009811
2182.3563,0.010034
2183.2881,0.008941
2184.2200,0.009638
2185.1518,0.008469
2186.0836,0.008047
2187.0155,0.007701
2187.9473,0.006180
2188.8791,0.005802
2189.8110,0.005206
2190.7428,0.006207
2191.6746,0.007725
2192.6065,0.009219
2193.5383,0.010351
2194.4702,0.009577
2195.4020,0.007518
2196.3338,0.008312
2197.2657,0.008080
2198.1975,0.008851
2199.1293,0.013320
2200.0612,0.012185
2200.9930,0.009244
2201.9248,0.008448
2202.8567,0.008435
2203.7885,0.008585
2204.7203,0.006872
2205.6522,0.005983
2206.5840,0.008539
2207.5158,0.011345
2208.4477,0.009946
2209.3795,0.009321
2210.3113,0.009221
2211.2432,0.007923
2212.1750,0.007283
2213.1068,0.006225
2214.0387,0.007320
2214.9705,0.007931
2215.9023,0.008581
2216.8342,0.009818
2217.7660,0.012565
2218.6978,0.012975
2219.6297,0.010178
2220.5615,0.009376
2221.4934,0.010942
2222.4252,0.011749
2223.3570,0.010616
2224.2889,0.008792
2225.2207,0.007307
2226.1525,0.008155
2227.0844,0.008775
2228.0162,0.008237
2228.9480,0.009671
2229.8799,0.010826
2230.8117,0.010193
2231.7435,0.009678
2232.6754,0.010609
2233.6072,0.009102
2234.5390,0.008706
2235.4709,0.009905
2236.4027,0.009862
2237.3345,0.010577
2238.2664,0.009710
2239.1982,0.009219
2240.1300,0.009944
2241.0619,0.009269
2241.9937,0.008409
2242.9255,0.010027
2243.8574,0.010358
2244.7892,0.010440
2245.7210,0.011097
2246.6529,0.011038
2247.5847,0.009824
2248.5166,0.008634
2249.4484,0.009493
2250.3802,0.010844
2251.3121,0.009434
2252.2439,0.007873
2253.1757,0.009507
2254.1076,0.010896
2255.0394,0.010345
2255.9712,0.009386
2256.9031,0.008936
2257.8349,0.009355
2258.7667,0.010372
2259.6986,0.010412
2260.6304,0.010352
2261.5622,0.010286
2262.4941,0.009653
2263.4259,0.009597
2264.3577,0.009480
2265.2896,0.009631
2266.2214,0.009539
2267.1532,0.010191
2268.0851,0.010769
2269.0169,0.011904
2269.9487,0.011232
2270.8806,0.010329
2271.8124,0.010493
2272.7442,0.010719
2273.6761,0.011409
2274.6079,0.010653
2275.5397,0.010352
2276.4716,0.009798
2277.4034,0.009833
2278.3353,0.009540
2279.2671,0.008676
2280.1989,0.009238
2281.1308,0.010269
2282.0626,0.010693
2282.9944,0.009771
2283.9263,0.010072
2284.8581,0.010264
2285.7899,0.009777
2286.7218,0.010658
2287.6536,0.010654
2288.5854,0.010809
2289.5173,0.011353
2290.4491,0.010666
2291.3809,0.009822
2292.3128,0.008981
2293.2446,0.009120
2294.1764,0.010487
2295.1083,0.010919
2296.0401,0.010957
2296.9719,0.010323
2297.9038,0.009898
2298.8356,0.009922
2299.7674,0.010571
2300.6993,0.011373
2301.6311,0.011019
2302.5629,0.010515
2303.4948,0.010691
2304.4266,0.011207
2305.3585,0.011012
2306.2903,0.010749
2307.2221,0.009919
2308.1540,0.009029
2309.0858,0.008933
2310.0176,0.009664
2310.9495,0.009662
2311.8813,0.009646
2312.8131,0.009702
2313.7450,0.009181
2314.6768,0.009594
2315.6086,0.010640
2316.5405,0.010804
2317.4723,0.010113
2318.4041,0.010285
2319.3360,0.010101
2320.2678,0.009776
2321.1996,0.010131
2322.1315,0.010322
2323.0633,0.010401
2323.9951,0.010120
2324.9270,0.009638
2325.8588,0.009732
2326.7906,0.009883
2327.7225,0.010010
2328.6543,0.010330
2329.5861,0.010386
2330.5180,0.009863
2331.4498,0.008881
2332.3817,0.008426
2333.3135,0.008822
2334.2453,0.009446
2335.1772,0.010286
2336.1090,0.011029
2337.0408,0.010596
2337.9727,0.009578
2338.9045,0.008639
2339.8363,0.008520
2340.7682,0.008771
2341.7000,0.008400
2342.6318,0.008637
2343.5637,0.009423
2344.4955,0.009198
2345.4273,0.008921
2346.3592,0.009159
2347.2910,0.009716
2348.2228,0.009272
2349.1547,0.009163
2350.0865,0.009010
2351.0183,0.008822
2351.9502,0.008767
2352.8820,0.008948
2353.8138,0.009072
2354.7457,0.009227
2355.6775,0.009678
2356.6093,0.009827
2357.5412,0.009163
2358.4730,0.008602
2359.4049,0.008090
2360.3367,0.008027
2361.2685,0.007810
2362.2004,0.007742
2363.1322,0.008503
2364.0640,0.008884
2364.9959,0.008443
2365.9277,0.007210
2366.8595,0.007296
2367.7914,0.008379
2368.7232,0.008064
2369.6550,0.007361
2370.5869,0.007045
2371.5187,0.007335
2372.4505,0.007772
2373.3824,0.008595
2374.3142,0.008800
2375.2460,0.008440
2376.1779,0.007939
2377.1097,0.007649
2378.0415,0.007946
2378.9734,0.007362
2379.9052,0.007907
2380.8370,0.008559
2381.7689,0.008040
2382.7007,0.007952
2383.6325,0.008334
2384.5644,0.007534
2385.4962,0.006827
2386.4281,0.007340
2387.3599,0.008366
2388.2917,0.008376
2389.2236,0.007741
2390.1554,0.007315
2391.0872,0.007367
2392.0191,0.007638
2392.9509,0.008036
2393.8827,0.008066
2394.8146,0.007988
2395.7464,0.008407
2396.6782,0.008069
2397.6101,0.007672
2398.5419,0.008274
2399.4737,0.008800
2400.4056,0.009219
2401.3374,0.009599
2402.2692,0.008581
2403.2011,0.007590
2404.1329,0.008116
2405.0647,0.008040
2405.9966,0.007276
2406.9284,0.007315
2407.8602,0.007835
2408.7921,0.008010
2409.7239,0.008014
2410.6557,0.007335
2411.5876,0.007295
2412.5194,0.007739
2413.4512,0.007785
2414.3831,0.007389
2415.3149,0.007001
2416.2468,0.006610
2417.1786,0.005839
2418.1104,0.006034
2419.0423,0.006874
2419.9741,0.007588
2420.9059,0.007634
2421.8378,0.007187
2422.7696,0.006837
2423.7014,0.007642
2424.6333,0.008209
2425.5651,0.007864
2426.4969,0.006407
2427.4288,0.006428
2428.3606,0.007365
2429.2924,0.007483
2430.2243,0.006706
2431.1561,0.006279
2432.0879,0.006491
2433.0198,0.007291
2433.9516,0.007156
2434.8834,0.006334
2435.8153,0.006153
2436.7471,0.006366
2437.6789,0.006900
2438.6108,0.006842
2439.5426,0.006807
2440.4744,0.006868
2441.4063,0.006553
2442.3381,0.006240
2443.2700,0.005828
2444.2018,0.005702
2445.1336,0.006334
2446.0655,0.006813
2446.9973,0.006642
2447.9291,0.007102
2448.8610,0.007207
2449.7928,0.006617
2450.7246,0.006250
2451.6565,0.007012
2452.5883,0.007459
2453.5201,0.006367
2454.4520,0.005866
2455.3838,0.005690
2456.3156,0.005372
2457.2475,0.005599
2458.1793,0.006222
2459.1111,0.006213
2460.0430,0.006381
2460.9748,0.006257
2461.9066,0.005825
2462.8385,0.006882
2463.7703,0.007280
2464.7021,0.006670
2465.6340,0.006398
2466.5658,0.006279
2467.4976,0.006506
2468.4295,0.006749
2469.3613,0.006593
2470.2932,0.005931
2471.2250,0.005343
2472.1568,0.005886
2473.0887,0.006361
2474.0205,0.006050
2474.9523,0.006501
2475.8842,0.006987
2476.8160,0.006822
2477.7478,0.006708
2478.6797,0.006304
2479.6115,0.006069
2480.5433,0.005019
2481.4752,0.004295
2482.4070,0.005122
2483.3388,0.006073
2484.2707,0.006870
2485.2025,0.006447
2486.1343,0.005776
2487.0662,0.005645
2487.9980,0.006509
2488.9298,0.006448
2489.8617,0.006246
2490.7935,0.006636
2491.7253,0.007024
2492.6572,0.006918
2493.5890,0.006175
2494.5208,0.005755
2495.4527,0.006320
2496.3845,0.007034
2497.3164,0.006934
2498.2482,0.006464
2499.1800,0.006449
2500.1119,0.006403
2501.0437,0.006869
2501.9755,0.007208
2502.9074,0.006559
2503.8392,0.006374
2504.7710,0.006558
2505.7029,0.005927
2506.6347,0.005743
2507.5665,0.006352
2508.4984,0.006435
2509.4302,0.006143
2510.3620,0.006133
2511.2939,0.006681
2512.2257,0.006958
2513.1575,0.006866
2514.0894,0.007308
2515.0212,0.006851
2515.9530,0.006336
2516.8849,0.006603
2517.8167,0.005780
2518.7485,0.005385
2519.6804,0.006760
2520.6122,0.006765
2521.5440,0.005280
2522.4759,0.005218
2523.4077,0.006895
2524.3396,0.007368
2525.2714,0.006733
2526.2032,0.006899
2527.1351,0.006909
2528.0669,0.005880
2528.9987,0.006180
2529.9306,0.006466
2530.8624,0.005082
2531.7942,0.005121
2532.7261,0.005755
2533.6579,0.005276
2534.5897,0.005203
2535.5216,0.006027
2536.4534,0.006807
2537.3852,0.006689
2538.3171,0.006114
2539.2489,0.006562
2540.1807,0.006102
2541.1126,0.005536
2542.0444,0.005797
2542.9762,0.005851
2543.9081,0.005884
2544.8399,0.005561
2545.7717,0.005003
2546.7036,0.005354
2547.6354,0.005605
2548.5672,0.004991
2549.4991,0.004930
2550.4309,0.006205
2551.3627,0.007055
2552.2946,0.006095
2553.2264,0.005062
2554.1583,0.005721
2555.0901,0.006506
2556.0219,0.006189
2556.9538,0.006314
2557.8856,0.006212
2558.8174,0.005885
2559.7493,0.006089
2560.6811,0.006498
2561.6129,0.006397
2562.5448,0.005354
2563.4766,0.005144
2564.4084,0.005690
2565.3403,0.005952
2566.2721,0.005573
2567.2039,0.006047
2568.1358,0.006856
2569.0676,0.006415
2569.9994,0.006052
2570.9313,0.006322
2571.8631,0.006531
2572.7949,0.005941
2573.7268,0.005456
2574.6586,0.005692
2575.5904,0.006035
2576.5223,0.006402
2577.4541,0.006061
2578.3859,0.005695
2579.3178,0.005555
2580.2496,0.005858
2581.1815,0.005939
2582.1133,0.005300
2583.0451,0.005696
2583.9770,0.007448
2584.9088,0.007886
2585.8406,0.005847
2586.7725,0.004936
2587.7043,0.005796
2588.6361,0.006166
2589.5680,0.005593
2590.4998,0.005068
2591.4316,0.005895
2592.3635,0.006147
2593.2953,0.005353
2594.2271,0.005403
2595.1590,0.006536
2596.0908,0.006584
2597.0226,0.005979
2597.9545,0.005988
2598.8863,0.005488
2599.8181,0.005704
2600.7500,0.007168
2601.6818,0.007805
2602.6136,0.006691
2603.5455,0.005858
2604.4773,0.005623
2605.4091,0.005366
2606.3410,0.006036
2607.2728,0.006908
2608.2047,0.006929
2609.1365,0.007018
2610.0683,0.006909
2611.0002,0.006803
2611.9320,0.007537
2612.8638,0.007347
2613.7957,0.006694
2614.7275,0.006448
2615.6593,0.006723
2616.5912,0.007135
2617.5230,0.006980
2618.4548,0.006618
2619.3867,0.007226
2620.3185,0.008036
2621.2503,0.007874
2622.1822,0.006926
2623.1140,0.006187
2624.0458,0.006670
2624.9777,0.007394
2625.9095,0.006876
2626.8413,0.006569
2627.7732,0.006953
2628.7050,0.007405
2629.6368,0.008034
2630.5687,0.008182
2631.5005,0.007984
2632.4323,0.007869
2633.3642,0.007524
2634.2960,0.007123
2635.2279,0.007301
2636.1597,0.007356
2637.0915,0.007563
2638.0234,0.007841
2638.9552,0.007588
2639.8870,0.007424
2640.8189,0.007969
2641.7507,0.008248
2642.6825,0.008368
2643.6144,0.008629
2644.5462,0.008715
2645.4780,0.008470
2646.4099,0.008534
2647.3417,0.008470
2648.2735,0.008318
2649.2054,0.008137
2650.1372,0.007905
2651.0690,0.008021
2652.0009,0.008249
2652.9327,0.008371
2653.8645,0.008915
2654.7964,0.009103
2655.7282,0.008608
2656.6600,0.008895
2657.5919,0.009207
2658.5237,0.009035
2659.4555,0.008739
2660.3874,0.008698
2661.3192,0.009167
2662.2511,0.009342
2663.1829,0.009120
2664.1147,0.009263
2665.0466,0.009472
2665.9784,0.009240
2666.9102,0.009251
2667.8421,0.009216
2668.7739,0.009133
2669.7057,0.009295
2670.6376,0.009699
2671.5694,0.009919
2672.5012,0.009912
2673.4331,0.009691
2674.3649,0.009450
2675.2967,0.009508
2676.2286,0.009579
2677.1604,0.009876
2678.0922,0.010017
2679.0241,0.009890
2679.9559,0.009614
2680.8877,0.009649
2681.8196,0.009867
2682.7514,0.009732
2683.6832,0.009966
2684.6151,0.010706
2685.5469,0.010935
2686.4787,0.010605
2687.4106,0.010266
2688.3424,0.010352
2689.2742,0.010487
2690.2061,0.010361
2691.1379,0.010423
2692.0698,0.010966
2693.0016,0.010868
2693.9334,0.010442
2694.8653,0.010627
2695.7971,0.010814
2696.7289,0.010762
2697.6608,0.010620
2698.5926,0.010833
2699.5244,0.011297
2700.4563,0.011371
2701.3881,0.011261
2702.3199,0.011510
2703.2518,0.011675
2704.1836,0.011394
2705.1154,0.011319
2706.0473,0.011504
2706.9791,0.011947
2707.9109,0.012175
2708.8428,0.011647
2709.7746,0.011112
2710.7064,0.011483
2711.6383,0.011711
2712.5701,0.011398
2713.5019,0.011580
2714.4338,0.011904
2715.3656,0.012090
2716.2974,0.012452
2717.2293,0.012378
2718.1611,0.011947
2719.0930,0.011697
2720.0248,0.011691
2720.9566,0.011937
2721.8885,0.012358
2722.8203,0.012632
2723.7521,0.012910
2724.6840,0.012922
2725.6158,0.012656
2726.5476,0.012814
2727.4795,0.012899
2728.4113,0.012807
2729.3431,0.012883
2730.2750,0.013201
2731.2068,0.013472
2732.1386,0.013083
2733.0705,0.013099
2734.0023,0.013488
2734.9341,0.013307
2735.8660,0.013154
2736.7978,0.013258
2737.7296,0.013482
2738.6615,0.013541
2739.5933,0.013639
2740.5251,0.013610
2741.4570,0.013293
2742.3888,0.013315
2743.3206,0.013664
2744.2525,0.013852
2745.1843,0.013824
2746.1162,0.014080
2747.0480,0.014128
2747.9798,0.014161
2748.9117,0.014727
2749.8435,0.014752
2750.7753,0.014370
2751.7072,0.014408
2752.6390,0.014791
2753.5708,0.014977
2754.5027,0.014646
2755.4345,0.014316
2756.3663,0.014233
2757.2982,0.014797
2758.2300,0.015181
2759.1618,0.014983
2760.0937,0.015156
2761.0255,0.015657
2761.9573,0.015611
2762.8892,0.015158
2763.8210,0.015243
2764.7528,0.015202
2765.6847,0.014799
2766.6165,0.014872
2767.5483,0.015213
2768.4802,0.015529
2769.4120,0.015842
2770.3438,0.015853
2771.2757,0.015403
2772.2075,0.014867
2773.1394,0.014699
2774.0712,0.015200
2775.0030,0.015753
2775.9349,0.016588
2776.8667,0.017142
2777.7985,0.016817
2778.7304,0.016492
2779.6622,0.016320
2780.5940,0.016485
2781.5259,0.017195
2782.4577,0.017384
2783.3895,0.016983
2784.3214,0.016899
2785.2532,0.017369
2786.1850,0.017703
2787.1169,0.017106
2788.0487,0.016453
2788.9805,0.016886
2789.9124,0.017929
2790.8442,0.018316
2791.7760,0.018357
2792.7079,0.018484
2793.6397,0.018527
2794.5715,0.018509
2795.5034,0.018445
2796.4352,0.018488
2797.3670,0.018393
2798.2989,0.018613
2799.2307,0.019208
2800.1626,0.019729
2801.0944,0.019926
2802.0262,0.019850
2802.9581,0.019934
2803.8899,0.019867
2804.8217,0.019881
2805.7536,0.020304
2806.6854,0.020593
2807.6172,0.020721
2808.5491,0.020666
2809.4809,0.021016
2810.4127,0.021588
2811.3446,0.021353
2812.2764,0.020999
2813.2082,0.021091
2814.1401,0.021332
2815.0719,0.021566
2816.0037,0.021553
2816.9356,0.021437
2817.8674,0.021646
2818.7992,0.022234
2819.7311,0.022596
2820.6629,0.022645
2821.5947,0.022636
2822.5266,0.022528
2823.4584,0.022598
2824.3902,0.022879
2825.3221,0.023278
2826.2539,0.023596
2827.1857,0.023642
2828.1176,0.024123
2829.0494,0.024615
2829.9813,0.024635
2830.9131,0.024772
2831.8449,0.024832
2832.7768,0.025118
2833.7086,0.025663
2834.6404,0.025362
2835.5723,0.024865
2836.5041,0.025212
2837.4359,0.025634
2838.3678,0.025970
2839.2996,0.026797
2840.2314,0.027771
2841.1633,0.027840
2842.0951,0.027629
2843.0269,0.028022
2843.9588,0.028157
2844.8906,0.027633
2845.8224,0.027362
2846.7543,0.027751
2847.6861,0.028283
2848.6179,0.028924
2849.5498,0.029773
2850.4816,0.030076
2851.4134,0.029907
2852.3453,0.029820
2853.2771,0.029917
2854.2089,0.030244
2855.1408,0.030265
2856.0726,0.030219
2857.0045,0.030587
2857.9363,0.031071
2858.8681,0.031187
2859.8000,0.031497
2860.7318,0.032424
2861.6636,0.033075
2862.5955,0.032982
2863.5273,0.032911
2864.4591,0.033630
2865.3910,0.034313
2866.3228,0.034769
2867.2546,0.035184
2868.1865,0.034999
2869.1183,0.035412
2870.0501,0.036541
2870.9820,0.037116
2871.9138,0.037202
2872.8456,0.037056
2873.7775,0.037530
2874.7093,0.038380
2875.6411,0.038877
2876.5730,0.039369
2877.5048,0.039564
2878.4366,0.039784
2879.3685,0.040715
2880.3003,0.041470
2881.2321,0.041486
2882.1640,0.041765
2883.0958,0.042620
2884.0277,0.043175
2884.9595,0.043269
2885.8913,0.043135
2886.8232,0.043185
2887.7550,0.043654
2888.6868,0.044293
2889.6187,0.044818
2890.5505,0.044865
2891.4823,0.044613
2892.4142,0.044789
2893.3460,0.045193
2894.2778,0.045673
2895.2097,0.046299
2896.1415,0.046852
2897.0733,0.047192
2898.0052,0.047665
2898.9370,0.048303
2899.8688,0.048455
2900.8007,0.048417
2901.7325,0.048191
2902.6643,0.048107
2903.5962,0.048476
2904.5280,0.048925
2905.4598,0.049236
2906.3917,0.049597
2907.3235,0.049833
2908.2553,0.049587
2909.1872,0.049216
2910.1190,0.049511
2911.0509,0.049870
2911.9827,0.049879
2912.9145,0.050135
2913.8464,0.050101
2914.7782,0.049905
2915.7100,0.049706
2916.6419,0.049755
2917.5737,0.049866
2918.5055,0.049949
2919.4374,0.050455
2920.3692,0.050278
2921.3010,0.049668
2922.2329,0.050127
2923.1647,0.050832
2924.0965,0.050940
2925.0284,0.051679
2925.9602,0.052226
2926.8920,0.052171
2927.8239,0.053170
2928.7557,0.054063
2929.6875,0.054483
2930.6194,0.054481
2931.5512,0.053780
2932.4830,0.053453
2933.4149,0.054166
2934.3467,0.054956
2935.2785,0.055605
2936.2104,0.056079
2937.1422,0.055743
2938.0741,0.055170
2939.0059,0.055908
2939.9377,0.057021
2940.8696,0.057246
2941.8014,0.056881
2942.7332,0.056865
2943.6651,0.057113
2944.5969,0.057186
2945.5287,0.056813
2946.4606,0.056862
2947.3924,0.057249
2948.3242,0.057191
2949.2561,0.057007
2950.1879,0.056607
2951.1197,0.056114
2952.0516,0.055892
2952.9834,0.056051
2953.9152,0.056988
2954.8471,0.057318
2955.7789,0.056985
2956.7107,0.057174
2957.6426,0.057605
2958.5744,0.058030
2959.5062,0.058490
2960.4381,0.058891
2961.3699,0.059070
2962.3017,0.058855
2963.2336,0.059274
2964.1654,0.060291
2965.0972,0.061357
2966.0291,0.062368
2966.9609,0.062453
2967.8928,0.062850
2968.8246,0.064972
2969.7564,0.066455
2970.6883,0.067360
2971.6201,0.068197
2972.5519,0.069375
2973.4838,0.071114
2974.4156,0.072536
2975.3474,0.074154
2976.2793,0.075862
2977.2111,0.076774
2978.1429,0.078104
2979.0748,0.079684
2980.0066,0.080360
2980.9384,0.080254
2981.8703,0.080069
2982.8021,0.080202
2983.7339,0.079993
2984.6658,0.079409
2985.5976,0.078178
2986.5294,0.076619
2987.4613,0.076497
2988.3931,0.076778
2989.3249,0.076497
2990.2568,0.075142
2991.1886,0.073897
2992.1204,0.073082
2993.0523,0.071775
2993.9841,0.070772
2994.9160,0.070844
2995.8478,0.070908
2996.7796,0.070473
2997.7115,0.068891
2998.6433,0.067616
2999.5751,0.068294
3000.5070,0.068816
3001.4388,0.068720
3002.3706,0.068567
3003.3025,0.068937
3004.2343,0.069730
3005.1661,0.069922
3006.0980,0.069819
3007.0298,0.069609
3007.9616,0.070192
3008.8935,0.070901
3009.8253,0.070931
3010.7571,0.071455
3011.6890,0.071859
3012.6208,0.071699
3013.5526,0.072507
3014.4845,0.073069
3015.4163,0.073231
3016.3481,0.074007
3017.2800,0.074632
3018.2118,0.075031
3019.1436,0.075650
3020.0755,0.075023
3021.0073,0.075261
3021.9392,0.077449
3022.8710,0.078321
3023.8028,0.077793
3024.7347,0.078255
3025.6665,0.079594
3026.5983,0.080522
3027.5302,0.080593
3028.4620,0.080464
3029.3938,0.080955
3030.3257,0.082451
3031.2575,0.083883
3032.1893,0.084546
3033.1212,0.085594
3034.0530,0.086246
3034.9848,0.086395
3035.9167,0.086795
3036.8485,0.087874
3037.7803,0.088955
3038.7122,0.089480
3039.6440,0.090374
3040.5758,0.091517
3041.5077,0.092121
3042.4395,0.092419
3043.3713,0.093443
3044.3032,0.094578
3045.2350,0.095317
3046.1668,0.096299
3047.0987,0.097415
3048.0305,0.097516
3048.9624,0.097970
3049.8942,0.099272
3050.8260,0.100421
3051.7579,0.100724
3052.6897,0.101273
3053.6215,0.100964
3054.5534,0.101786
3055.4852,0.103678
3056.4170,0.104954
3057.3489,0.105284
3058.2807,0.105627
3059.2125,0.106924
3060.1444,0.108512
3061.0762,0.108935
3062.0080,0.109672
3062.9399,0.111019
3063.8717,0.112363
3064.8035,0.113719
3065.7354,0.114854
3066.6672,0.116406
3067.5990,0.117596
3068.5309,0.118350
3069.4627,0.119797
3070.3945,0.120612
3071.3264,0.120518
3072.2582,0.120731
3073.1900,0.121898
3074.1219,0.122917
3075.0537,0.124033
3075.9856,0.125103
3076.9174,0.126202
3077.8492,0.128079
3078.7811,0.129884
3079.7129,0.130352
3080.6447,0.130758
3081.5766,0.131770
3082.5084,0.133166
3083.4402,0.134036
3084.3721,0.134843
3085.3039,0.135531
3086.2357,0.136470
3087.1676,0.137754
3088.0994,0.139791
3089.0312,0.140819
3089.9631,0.141361
3090.8949,0.142403
3091.8267,0.143351
3092.7586,0.144054
3093.6904,0.145468
3094.6222,0.147159
3095.5541,0.148896
3096.4859,0.149644
3097.4177,0.150708
3098.3496,0.152360
3099.2814,0.153926
3100.2132,0.155229
3101.1451,0.156538
3102.0769,0.157540
3103.0087,0.158605
3103.9406,0.159533
3104.8724,0.161741
3105.8043,0.163581
3106.7361,0.164237
3107.6679,0.165414
3108.5998,0.166865
3109.5316,0.168383
3110.4634,0.169626
3111.3953,0.169786
3112.3271,0.169727
3113.2589,0.170698
3114.1908,0.173422
3115.1226,0.175851
3116.0544,0.177259
3116.9863,0.177962
3117.9181,0.179775
3118.8499,0.180775
3119.7818,0.181660
3120.7136,0.183240
3121.6454,0.184492
3122.5773,0.184561
3123.5091,0.185509
3124.4409,0.187440
3125.3728,0.189023
3126.3046,0.189153
3127.2364,0.190825
3128.1683,0.194132
3129.1001,0.196756
3130.0319,0.197210
3130.9638,0.197455
3131.8956,0.199034
3132.8275,0.200366
3133.7593,0.201430
3134.6911,0.202705
3135.6230,0.204557
3136.5548,0.206722
3137.4866,0.208508
3138.4185,0.211114
3139.3503,0.211375
3140.2821,0.211422
3141.2140,0.213040
3142.1458,0.214459
3143.0776,0.214705
3144.0095,0.216333
3144.9413,0.217966
3145.8731,0.219297
3146.8050,0.221424
3147.7368,0.223390
3148.6686,0.225276
3149.6005,0.228380
3150.5323,0.228977
3151.4641,0.229705
3152.3960,0.231131
3153.3278,0.233155
3154.2596,0.234054
3155.1915,0.233609
3156.1233,0.234853
3157.0551,0.237339
3157.9870,0.237504
3158.9188,0.238793
3159.8507,0.240557
3160.7825,0.241420
3161.7143,0.242492
3162.6462,0.243403
3163.5780,0.243889
3164.5098,0.246653
3165.4417,0.249025
3166.3735,0.249507
3167.3053,0.250653
3168.2372,0.253575
3169.1690,0.254856
3170.1008,0.256229
3171.0327,0.256929
3171.9645,0.257962
3172.8963,0.260227
3173.8282,0.261780
3174.7600,0.262619
3175.6918,0.265168
3176.6237,0.266974
3177.5555,0.268231
3178.4873,0.268579
3179.4192,0.269955
3180.3510,0.271718
3181.2828,0.273310
3182.2147,0.273489
3183.1465,0.274368
3184.0783,0.274758
3185.0102,0.276150
3185.9420,0.278659
3186.8739,0.280029
3187.8057,0.280624
3188.7375,0.280739
3189.6694,0.280254
3190.6012,0.281546
3191.5330,0.283892
3192.4649,0.285141
3193.3967,0.286380
3194.3285,0.288990
3195.2604,0.289870
3196.1922,0.291401
3197.1240,0.290289
3198.0559,0.292452
3198.9877,0.296624
3199.9195,0.295631
3200.8514,0.294306
3201.7832,0.296581
3202.7150,0.297788
3203.6469,0.299390
3204.5787,0.300970
3205.5105,0.301131
3206.4424,0.299996
3207.3742,0.300827
3208.3060,0.302536
3209.2379,0.303553
3210.1697,0.304725
3211.1015,0.307419
3212.0334,0.308212
3212.9652,0.309747
3213.8971,0.308749
3214.8289,0.309667
3215.7607,0.311249
3216.6926,0.310786
3217.6244,0.310231
3218.5562,0.311602
3219.4881,0.312708
3220.4199,0.314651
3221.3517,0.315466
3222.2836,0.315862
3223.2154,0.315662
3224.1472,0.317677
3225.0791,0.318785
3226.0109,0.320315
3226.9427,0.321923
3227.8746,0.321097
3228.8064,0.319646
3229.7382,0.321530
3230.6701,0.323844
3231.6019,0.324899
3232.5337,0.322637
3233.4656,0.321148
3234.3974,0.319982
3235.3292,0.322206
3236.2611,0.321999
3237.1929,0.321675
3238.1247,0.323524
3239.0566,0.326184
3239.9884,0.326991
3240.9202,0.327914
3241.8521,0.328455
3242.7839,0.327131
3243.7158,0.327539
3244.6476,0.325624
3245.5794,0.323639
3246.5113,0.326896
3247.4431,0.328266
3248.3749,0.328521
3249.3068,0.328524
3250.2386,0.329104
3251.1704,0.329380
3252.1023,0.328690
3253.0341,0.327171
3253.9659,0.328972
3254.8978,0.329412
3255.8296,0.329511
3256.7614,0.328769
3257.6933,0.329300
3258.6251,0.329547
3259.5569,0.329468
3260.4888,0.328822
3261.4206,0.331839
3262.3524,0.330613
3263.2843,0.328088
3264.2161,0.329236
3265.1479,0.332729
3266.0798,0.331678
3267.0116,0.329800
3267.9434,0.330974
3268.8753,0.333816
3269.8071,0.333083
3270.7390,0.331379
3271.6708,0.330774
3272.6026,0.331879
3273.5345,0.332748
3274.4663,0.333893
3275.3981,0.331700
3276.3300,0.331430
3277.2618,0.333718
3278.1936,0.332611
3279.1255,0.329030
3280.0573,0.329933
3280.9891,0.329952
3281.9210,0.330278
3282.8528,0.330529
3283.7846,0.330141
3284.7165,0.329294
3285.6483,0.331133
3286.5801,0.332388
3287.5120,0.332498
3288.4438,0.331466
3289.3756,0.333891
3290.3075,0.334443
3291.2393,0.332342
3292.1711,0.329532
3293.1030,0.329589
3294.0348,0.329494
3294.9666,0.332071
3295.8985,0.331345
3296.8303,0.330787
3297.7622,0.331363
3298.6940,0.330324
3299.6258,0.330251
3300.5577,0.330509
3301.4895,0.330785
3302.4213,0.332161
3303.3532,0.330745
3304.2850,0.331846
3305.2168,0.333050
3306.1487,0.331502
3307.0805,0.330560
3308.0123,0.332120
3308.9442,0.332245
3309.8760,0.333890
3310.8078,0.331769
3311.7397,0.329760
3312.6715,0.329301
3313.6033,0.330470
3314.5352,0.329550
3315.4670,0.330755
3316.3988,0.330579
3317.3307,0.329902
3318.2625,0.330250
3319.1943,0.330166
3320.1262,0.327910
3321.0580,0.330553
3321.9898,0.332266
3322.9217,0.333829
3323.8535,0.334125
3324.7854,0.332677
3325.7172,0.329802
3326.6490,0.330073
3327.5809,0.328446
3328.5127,0.328796
3329.4445,0.330508
3330.3764,0.332203
3331.3082,0.330899
3332.2400,0.330935
3333.1719,0.333204
3334.1037,0.333953
3335.0355,0.331384
3335.9674,0.333259
3336.8992,0.332604
3337.8310,0.333261
3338.7629,0.334504
3339.6947,0.330514
3340.6265,0.324268
3341.5584,0.326586
3342.4902,0.329500
3343.4220,0.330473
3344.3539,0.331051
3345.2857,0.332127
3346.2175,0.330550
3347.1494,0.332785
3348.0812,0.331046
3349.0130,0.327845
3349.9449,0.325636
3350.8767,0.326151
3351.8086,0.327839
3352.7404,0.330556
3353.6722,0.327776
3354.6041,0.326226
3355.5359,0.328369
3356.4677,0.330682
3357.3996,0.329475
3358.3314,0.328857
3359.2632,0.327642
3360.1951,0.327440
3361.1269,0.328857
3362.0587,0.330614
3362.9906,0.327997
3363.9224,0.325611
3364.8542,0.324774
3365.7861,0.323629
3366.7179,0.322196
3367.6497,0.324412
3368.5816,0.323634
3369.5134,0.323063
3370.4452,0.321368
3371.3771,0.319417
3372.3089,0.319167
3373.2407,0.320083
3374.1726,0.320213
3375.1044,0.321009
3376.0362,0.318807
3376.9681,0.317609
3377.8999,0.315856
3378.8317,0.318879
3379.7636,0.318883
3380.6954,0.317950
3381.6273,0.316433
3382.5591,0.314097
3383.4909,0.312782
3384.4228,0.314193
3385.3546,0.316153
3386.2864,0.317318
3387.2183,0.313579
3388.1501,0.311852
3389.0819,0.310532
3390.0138,0.312162
3390.9456,0.312764
3391.8774,0.312473
3392.8093,0.311529
3393.7411,0.308617
3394.6729,0.305959
3395.6048,0.308430
3396.5366,0.307909
3397.4684,0.309009
3398.4003,0.307689
3399.3321,0.304019
3400.2639,0.302343
3401.1958,0.305722
3402.1276,0.305644
3403.0594,0.299618
3403.9913,0.295109
3404.9231,0.295579
3405.8549,0.295284
3406.7868,0.297381
3407.7186,0.295040
3408.6505,0.293882
3409.5823,0.295132
3410.5141,0.295879
3411.4460,0.290810
3412.3778,0.289789
3413.3096,0.288231
3414.2415,0.288502
3415.1733,0.287832
3416.1051,0.287872
3417.0370,0.286882
3417.9688,0.286379
3418.9006,0.282978
3419.8325,0.282845
3420.7643,0.282521
3421.6961,0.283960
3422.6280,0.284956
3423.5598,0.283356
3424.4916,0.280800
3425.4235,0.282305
3426.3553,0.280749
3427.2871,0.279825
3428.2190,0.275821
3429.1508,0.272430
3430.0826,0.272568
3431.0145,0.272406
3431.9463,0.270650
3432.8781,0.269808
3433.8100,0.266907
3434.7418,0.267771
3435.6737,0.268406
3436.6055,0.267069
3437.5373,0.264380
3438.4692,0.265035
3439.4010,0.264816
3440.3328,0.262470
3441.2647,0.257702
3442.1965,0.257312
3443.1283,0.255995
3444.0602,0.257971
3444.9920,0.257886
3445.9238,0.254674
3446.8557,0.252773
3447.7875,0.253887
3448.7193,0.249102
3449.6512,0.248507
3450.5830,0.247451
3451.5148,0.246748
3452.4467,0.245511
3453.3785,0.243859
3454.3103,0.241992
3455.2422,0.243868
3456.1740,0.243252
3457.1058,0.242084
3458.0377,0.240364
3458.9695,0.240715
3459.9013,0.237024
3460.8332,0.233629
3461.7650,0.233384
3462.6969,0.234905
3463.6287,0.235120
3464.5605,0.237429
3465.4924,0.234126
3466.4242,0.228242
3467.3560,0.224998
3468.2879,0.225146
3469.2197,0.226588
3470.1515,0.229633
3471.0834,0.229297
3472.0152,0.225127
3472.9470,0.219641
3473.8789,0.219895
3474.8107,0.219715
3475.7425,0.216628
3476.6744,0.215893
3477.6062,0.216630
3478.5380,0.215791
3479.4699,0.216036
3480.4017,0.215108
3481.3335,0.212974
3482.2654,0.208855
3483.1972,0.206532
3484.1290,0.204975
3485.0609,0.206538
3485.9927,0.204894
3486.9245,0.204270
3487.8564,0.205279
3488.7882,0.205156
3489.7201,0.201848
3490.6519,0.200615
3491.5837,0.199415
3492.5156,0.198670
3493.4474,0.196260
3494.3792,0.197071
3495.3111,0.195677
3496.2429,0.194426
3497.1747,0.192652
3498.1066,0.192527
3499.0384,0.193207
3499.9702,0.195490
3500.9021,0.191725
3501.8339,0.188211
3502.7657,0.189185
3503.6976,0.190891
3504.6294,0.187635
3505.5612,0.183722
3506.4931,0.181426
3507.4249,0.180567
3508.3567,0.178712
3509.2886,0.179375
3510.2204,0.176837
3511.1522,0.173630
3512.0841,0.173970
3513.0159,0.176114
3513.9477,0.176592
3514.8796,0.175353
3515.8114,0.173706
3516.7432,0.173530
3517.6751,0.172330
3518.6069,0.172635
3519.5388,0.168700
3520.4706,0.166747
3521.4024,0.167504
3522.3343,0.168123
3523.2661,0.164551
3524.1979,0.163462
3525.1298,0.163459
3526.0616,0.158897
3526.9934,0.155683
3527.9253,0.157928
3528.8571,0.157078
3529.7889,0.157613
3530.7208,0.159293
3531.6526,0.155460
3532.5844,0.151512
3533.5163,0.152628
3534.4481,0.153260
3535.3799,0.150118
3536.3118,0.147523
3537.2436,0.148210
3538.1754,0.148250
3539.1073,0.145256
3540.0391,0.144267
3540.9709,0.144163
3541.9028,0.140654
3542.8346,0.138455
3543.7664,0.139487
3544.6983,0.142343
3545.6301,0.143464
3546.5620,0.140929
3547.4938,0.136101
3548.4256,0.134450
3549.3575,0.133016
3550.2893,0.133534
3551.2211,0.133226
3552.1530,0.133799
3553.0848,0.135023
3554.0166,0.134812
3554.9485,0.132011
3555.8803,0.130092
3556.8121,0.128337
3557.7440,0.124946
3558.6758,0.122511
3559.6076,0.125346
3560.5395,0.127540
3561.4713,0.126019
3562.4031,0.122426
3563.3350,0.120713
3564.2668,0.120925
3565.1986,0.118246
3566.1305,0.115221
3567.0623,0.116779
3567.9941,0.119618
3568.9260,0.114511
3569.8578,0.110361
3570.7896,0.112352
3571.7215,0.113329
3572.6533,0.110795
3573.5852,0.107647
3574.5170,0.108196
3575.4488,0.107759
3576.3807,0.108816
3577.3125,0.106566
3578.2443,0.103161
3579.1762,0.103349
3580.1080,0.105438
3581.0398,0.103982
3581.9717,0.101847
3582.9035,0.101283
3583.8353,0.101973
3584.7672,0.098503
3585.6990,0.095047
3586.6308,0.094597
3587.5627,0.096463
3588.4945,0.096612
3589.4263,0.095035
3590.3582,0.093471
3591.2900,0.096435
3592.2218,0.096147
3593.1537,0.094043
3594.0855,0.092523
3595.0173,0.089885
3595.9492,0.087405
3596.8810,0.090295
3597.8128,0.090192
3598.7447,0.086151
3599.6765,0.083286
3600.6084,0.083340
3601.5402,0.083017
3602.4720,0.081871
3603.4039,0.081612
3604.3357,0.080856
3605.2675,0.078646
3606.1994,0.078894
3607.1312,0.080426
3608.0630,0.079542
3608.9949,0.077812
3609.9267,0.077439
3610.8585,0.077644
3611.7904,0.077776
3612.7222,0.074517
3613.6540,0.072649
3614.5859,0.073446
3615.5177,0.070945
3616.4495,0.069402
3617.3814,0.070582
3618.3132,0.070234
3619.2450,0.068773
3620.1769,0.068117
3621.1087,0.069024
3622.0405,0.066422
3622.9724,0.065829
3623.9042,0.065729
3624.8360,0.064720
3625.7679,0.063690
3626.6997,0.063105
3627.6316,0.063176
3628.5634,0.062442
3629.4952,0.061413
3630.4271,0.060971
3631.3589,0.058676
3632.2907,0.056621
3633.2226,0.056828
3634.1544,0.056813
3635.0862,0.056716
3636.0181,0.056682
3636.9499,0.055695
3637.8817,0.054177
3638.8136,0.053905
3639.7454,0.052504
3640.6772,0.050600
3641.6091,0.050316
3642.5409,0.050183
3643.4727,0.049450
3644.4046,0.047815
3645.3364,0.048423
3646.2682,0.048523
3647.2001,0.044799
3648.1319,0.044250
3649.0637,0.044936
3649.9956,0.040188
3650.9274,0.040413
3651.8592,0.041752
3652.7911,0.038422
3653.7229,0.039199
3654.6547,0.039801
3655.5866,0.038150
3656.5184,0.037402
3657.4503,0.036712
3658.3821,0.035403
3659.3139,0.033779
3660.2458,0.034038
3661.1776,0.034453
3662.1094,0.033115
3663.0413,0.032202
3663.9731,0.032154
3664.9049,0.031636
3665.8368,0.029924
3666.7686,0.027983
3667.7004,0.027597
3668.6323,0.026133
3669.5641,0.025056
3670.4959,0.024862
3671.4278,0.024268
3672.3596,0.022416
3673.2914,0.021409
3674.2233,0.022145
3675.1551,0.021231
3676.0869,0.019468
3677.0188,0.018412
3677.9506,0.017751
3678.8824,0.016821
3679.8143,0.016754
3680.7461,0.017057
3681.6779,0.016822
3682.6098,0.016930
3683.5416,0.016925
3684.4735,0.014598
3685.4053,0.013176
3686.3371,0.013837
3687.2690,0.014435
3688.2008,0.014156
3689.1326,0.013058
3690.0645,0.011929
3690.9963,0.011228
3691.9281,0.011409
3692.8600,0.010478
3693.7918,0.009260
3694.7236,0.009072
3695.6555,0.009049
3696.5873,0.009903
3697.5191,0.010295
3698.4510,0.009399
3699.3828,0.009398
3700.3146,0.009808
3701.2465,0.009275
3702.1783,0.008393
3703.1101,0.007531
3704.0420,0.006432
3704.9738,0.005259
3705.9056,0.005603
3706.8375,0.007859
3707.7693,0.008098
3708.7011,0.006602
3709.6330,0.006080
3710.5648,0.006752
3711.4967,0.006977
3712.4285,0.006428
3713.3603,0.006554
3714.2922,0.006737
3715.2240,0.005391
3716.1558,0.004291
3717.0877,0.004954
3718.0195,0.005907
3718.9513,0.005945
3719.8832,0.004674
3720.8150,0.004300
3721.7468,0.004359
3722.6787,0.003847
3723.6105,0.004090
3724.5423,0.004345
3725.4742,0.004722
3726.4060,0.005939
3727.3378,0.006285
3728.2697,0.004586
3729.2015,0.003295
3730.1333,0.003552
3731.0652,0.003197
3731.9970,0.002442
3732.9288,0.002275
3733.8607,0.000780
3734.7925,0.000392
3735.7243,0.001031
3736.6562,0.000746
3737.5880,-0.000469
3738.5199,-0.000582
3739.4517,-0.000302
3740.3835,-0.000053
3741.3154,-0.000014
3742.2472,0.000642
3743.1790,0.002247
3744.1109,0.001623
3745.0427,0.001423
3745.9745,0.002184
3746.9064,0.002351
3747.8382,0.002090
3748.7700,-0.000795
3749.7019,-0.002320
3750.6337,-0.000503
3751.5655,0.000391
3752.4974,-0.000901
3753.4292,0.000122
3754.3610,0.000741
3755.2929,-0.000634
3756.2247,0.001184
3757.1565,0.001472
3758.0884,0.001036
3759.0202,0.002066
3759.9520,0.003036
3760.8839,0.003054
3761.8157,0.003027
3762.7475,0.002043
3763.6794,0.002050
3764.6112,0.002604
3765.5431,0.002170
3766.4749,0.001728
3767.4067,0.001380
3768.3386,0.000836
3769.2704,0.000769
3770.2022,0.001915
3771.1341,0.001870
3772.0659,0.000787
3772.9977,0.000470
3773.9296,0.000755
3774.8614,0.000930
3775.7932,0.002085
3776.7251,0.003040
3777.6569,0.002853
3778.5887,0.002783
3779.5206,0.003192
3780.4524,0.002843
3781.3842,0.001758
3782.3161,0.000952
3783.2479,0.001252
3784.1797,0.001172
3785.1116,0.001337
3786.0434,0.002059
3786.9752,0.001610
3787.9071,0.000525
3788.8389,0.000217
3789.7707,0.000764
3790.7026,0.002113
3791.6344,0.003017
3792.5662,0.002509
3793.4981,0.001545
3794.4299,0.000461
3795.3618,0.000086
3796.2936,0.000825
3797.2254,0.001690
3798.1573,0.002250
3799.0891,0.001543
3800.0209,0.000948
3800.9528,0.000984
3801.8846,0.001281
3802.8164,0.000819
3803.7483,0.000007
3804.6801,0.000249
3805.6119,0.000832
3806.5438,0.002094
3807.4756,0.002095
3808.4074,0.000688
3809.3393,0.000908
3810.2711,0.001871
3811.2029,0.001934
3812.1348,0.001805
3813.0666,0.001726
3813.9984,0.002138
3814.9303,0.002911
3815.8621,0.002331
3816.7939,0.001497
3817.7258,0.000389
3818.6576,-0.000882
3819.5894,-0.000343
3820.5213,0.000153
3821.4531,-0.000251
3822.3850,-0.000187
3823.3168,-0.000264
3824.2486,-0.001095
3825.1805,-0.000674
3826.1123,0.000779
3827.0441,0.000939
3827.9760,0.001122
3828.9078,0.001575
3829.8396,0.001349
3830.7715,0.000593
3831.7033,0.000578
3832.6351,0.001190
3833.5670,0.001021
3834.4988,0.000780
3835.4306,0.001148
3836.3625,0.001754
3837.2943,0.002266
3838.2261,0.000304
3839.1580,-0.000137
3840.0898,0.002028
3841.0216,0.001331
3841.9535,-0.000260
3842.8853,0.000091
3843.8171,0.001119
3844.7490,0.001720
3845.6808,0.000265
3846.6126,-0.001366
3847.5445,-0.000593
3848.4763,0.000200
3849.4082,0.000832
3850.3400,0.001330
3851.2718,0.000601
3852.2037,-0.001114
3853.1355,-0.001003
3854.0673,-0.001390
3854.9992,-0.003337
3855.9310,-0.001661
3856.8628,0.000471
3857.7947,0.001367
3858.7265,0.001892
3859.6583,0.002012
3860.5902,0.002498
3861.5220,0.002048
3862.4538,0.000393
3863.3857,-0.001513
3864.3175,-0.002198
3865.2493,-0.000906
3866.1812,0.001076
3867.1130,0.001961
3868.0448,0.002110
3868.9767,0.002411
3869.9085,0.000786
3870.8403,-0.000628
3871.7722,-0.000206
3872.7040,0.000802
3873.6358,0.000979
3874.5677,0.000506
3875.4995,0.000721
3876.4314,0.000199
3877.3632,-0.000577
3878.2950,0.000113
3879.2269,0.000777
3880.1587,0.000862
3881.0905,0.001132
3882.0224,0.000485
3882.9542,-0.000618
3883.8860,-0.000207
3884.8179,0.000878
3885.7497,0.000314
3886.6815,0.000040
3887.6134,0.000638
3888.5452,0.000258
3889.4770,-0.000976
3890.4089,-0.001472
3891.3407,-0.000650
3892.2725,-0.000143
3893.2044,-0.000035
3894.1362,-0.000017
3895.0680,0.000970
3895.9999,0.002023
3896.9317,0.001897
3897.8635,0.000542
3898.7954,0.000049
3899.7272,0.001037
3900.6590,0.000910
3901.5909,0.000388
3902.5227,0.000741
3903.4546,-0.000039
3904.3864,-0.000937
3905.3182,-0.000156
3906.2501,0.000669
3907.1819,0.001076
3908.1137,0.000959
3909.0456,0.000075
3909.9774,0.000593
3910.9092,0.001887
3911.8411,0.001468
3912.7729,0.000375
3913.7047,0.000615
3914.6366,0.001092
3915.5684,0.001125
3916.5002,0.001784
3917.4321,0.002329
3918.3639,0.001154
3919.2957,-0.000008
3920.2276,0.000835
3921.1594,0.001292
3922.0912,0.001198
3923.0231,0.001262
3923.9549,0.000837
3924.8867,0.000465
3925.8186,0.000998
3926.7504,0.001064
3927.6822,0.000448
3928.6141,-0.000126
3929.5459,-0.000966
3930.4777,-0.000847
3931.4096,-0.001414
3932.3414,-0.001737
3933.2733,0.000536
3934.2051,0.001491
3935.1369,0.000221
3936.0688,0.000719
3937.0006,0.002338
3937.9324,0.001471
3938.8643,0.000069
3939.7961,0.000727
3940.7279,0.001086
3941.6598,0.000240
3942.5916,0.001169
3943.5234,0.002414
3944.4553,0.001719
3945.3871,0.001272
3946.3189,0.000977
3947.2508,0.000427
3948.1826,0.000964
3949.1144,0.002170
3950.0463,0.002238
3950.9781,0.001694
3951.9099,0.001556
3952.8418,0.000272
3953.7736,-0.000965
3954.7054,-0.000764
3955.6373,-0.000220
3956.5691,0.000384
3957.5009,0.000827
3958.4328,0.000431
3959.3646,0.000617
3960.2965,0.001235
3961.2283,0.001004
3962.1601,0.001414
3963.0920,0.001858
3964.0238,0.001748
3964.9556,0.002093
3965.8875,0.002337
3966.8193,0.001913
3967.7511,0.001972
3968.6830,0.001870
3969.6148,0.000587
3970.5466,0.000003
3971.4785,0.000657
3972.4103,0.001102
3973.3421,0.001568
3974.2740,0.001339
3975.2058,0.000275
3976.1376,0.000070
3977.0695,0.000911
3978.0013,0.001401
3978.9331,0.000981
3979.8650,0.000972
3980.7968,0.001285
3981.7286,0.001400
3982.6605,0.001396
3983.5923,0.001713
3984.5241,0.001363
3985.4560,0.000132
3986.3878,-0.000359
3987.3197,-0.000166
3988.2515,0.000521
3989.1833,0.001499
3990.1152,0.001830
3991.0470,0.001340
3991.9788,0.001361
3992.9107,0.001801
3993.8425,0.000562
3994.7743,-0.000146
3995.7062,0.001256
3996.6380,0.001716
3997.5698,0.000974
3998.5017,0.001404
3999.4335,0.001647
4000.3653,0.001276
