Wavenumber,Intensity
650.4205,0.400826
651.3523,0.385074
652.2841,0.388577
653.2160,0.419389
654.1478,0.422754
655.0796,0.401316
656.0115,0.391144
656.9433,0.386853
657.8751,0.388221
658.8070,0.400565
659.7388,0.400455
660.6706,0.394058
661.6025,0.397438
662.5343,0.395079
663.4661,0.389687
664.3980,0.389962
665.3298,0.378388
666.2616,0.367944
667.1935,0.371159
668.1253,0.395869
669.0571,0.399205
669.9890,0.376401
670.9208,0.367106
671.8526,0.369066
672.7845,0.371523
673.7163,0.369188
674.6481,0.369729
675.5800,0.374234
676.5118,0.368718
677.4437,0.364076
678.3755,0.361252
679.3073,0.360656
680.2392,0.359792
681.1710,0.358701
682.1028,0.357949
683.0347,0.352302
683.9665,0.347900
684.8983,0.355220
685.8302,0.359979
686.7620,0.357508
687.6938,0.351740
688.6257,0.348755
689.5575,0.349836
690.4893,0.352367
691.4212,0.348528
692.3530,0.342497
693.2848,0.339805
694.2167,0.339027
695.1485,0.340029
696.0803,0.342641
697.0122,0.344077
697.9440,0.341391
698.8758,0.334759
699.8077,0.333432
700.7395,0.335241
701.6713,0.332981
702.6032,0.331105
703.5350,0.332197
704.4669,0.328405
705.3987,0.323654
706.3305,0.323448
707.2624,0.324896
708.1942,0.323539
709.1260,0.321384
710.0579,0.320589
710.9897,0.318728
711.9215,0.316165
712.8534,0.315720
713.7852,0.312195
714.7170,0.309137
715.6489,0.311361
716.5807,0.312618
717.5125,0.308363
718.4444,0.305735
719.3762,0.305850
720.3080,0.306150
721.2399,0.304745
722.1717,0.302269
723.1035,0.298267
724.0354,0.296260
724.9672,0.296097
725.8990,0.296665
726.8309,0.294064
727.7627,0.292634
728.6945,0.292885
729.6264,0.293762
730.5582,0.292805
731.4901,0.290594
732.4219,0.288372
733.3537,0.288093
734.2856,0.286636
735.2174,0.283560
736.1492,0.280564
737.0811,0.281551
738.0129,0.281671
738.9447,0.280462
739.8766,0.279975
740.8084,0.277286
741.7402,0.273820
742.6721,0.273043
743.6039,0.274206
744.5357,0.274308
745.4676,0.271271
746.3994,0.267567
747.3312,0.264435
748.2631,0.264549
749.1949,0.264739
750.1267,0.263769
751.0586,0.261230
751.9904,0.259797
752.9222,0.259417
753.8541,0.256913
754.7859,0.254872
755.7177,0.255497
756.6496,0.254843
757.5814,0.253842
758.5132,0.252562
759.4451,0.250907
760.3769,0.249157
761.3088,0.247251
762.2406,0.245345
763.1724,0.245284
764.1043,0.243267
765.0361,0.240777
765.9679,0.240968
766.8998,0.240234
767.8316,0.238516
768.7634,0.237443
769.6953,0.236406
770.6271,0.236319
771.5589,0.235380
772.4908,0.232987
773.4226,0.230795
774.3544,0.229825
775.2863,0.230155
776.2181,0.229285
777.1499,0.225543
778.0818,0.224674
779.0136,0.225219
779.9454,0.223808
780.8773,0.223203
781.8091,0.221431
782.7409,0.218057
783.6728,0.217545
784.6046,0.218013
785.5364,0.216850
786.4683,0.215989
787.4001,0.214668
788.3320,0.210770
789.2638,0.209043
790.1956,0.209081
791.1275,0.207440
792.0593,0.206031
792.9911,0.205858
793.9230,0.205016
794.8548,0.204464
795.7866,0.203739
796.7185,0.201748
797.6503,0.199699
798.5821,0.199035
799.5140,0.198232
800.4458,0.197278
801.3776,0.196952
802.3095,0.196864
803.2413,0.194739
804.1731,0.192843
805.1050,0.192698
806.0368,0.190964
806.9686,0.187675
807.9005,0.186351
808.8323,0.187242
809.7641,0.186217
810.6960,0.183567
811.6278,0.182760
812.5596,0.181822
813.4915,0.180815
814.4233,0.180105
815.3552,0.180179
816.2870,0.178180
817.2188,0.176289
818.1507,0.175526
819.0825,0.174531
820.0143,0.173586
820.9462,0.172198
821.8780,0.170806
822.8098,0.170358
823.7417,0.168772
824.6735,0.167056
825.6053,0.166936
826.5372,0.167080
827.4690,0.165313
828.4008,0.163553
829.3327,0.162675
830.2645,0.162143
831.1963,0.161663
832.1282,0.160751
833.0600,0.158937
833.9918,0.157174
834.9237,0.155872
835.8555,0.155850
836.7873,0.154960
837.7192,0.153351
838.6510,0.152324
839.5828,0.151203
840.5147,0.150272
841.4465,0.149005
842.3784,0.147542
843.3102,0.146725
844.2420,0.145387
845.1739,0.143839
846.1057,0.143447
847.0375,0.143066
847.9694,0.141832
848.9012,0.141470
849.8330,0.140725
850.7649,0.139289
851.6967,0.138108
852.6285,0.137425
853.5604,0.137297
854.4922,0.137142
855.4240,0.135616
856.3559,0.134305
857.2877,0.133782
858.2195,0.133188
859.1514,0.133279
860.0832,0.133096
861.0150,0.132075
861.9469,0.130995
862.8787,0.129928
863.8105,0.129063
864.7424,0.128997
865.6742,0.129580
866.6060,0.129535
867.5379,0.129283
868.4697,0.129279
869.4016,0.129626
870.3334,0.130361
871.2652,0.131416
872.1971,0.132510
873.1289,0.134332
874.0607,0.135708
874.9926,0.136467
875.9244,0.137084
876.8562,0.138520
877.7881,0.138454
878.7199,0.136964
879.6517,0.135424
880.5836,0.133150
881.5154,0.129546
882.4472,0.125466
883.3791,0.121494
884.3109,0.118234
885.2427,0.115373
886.1746,0.112707
887.1064,0.110536
888.0382,0.108526
888.9701,0.106363
889.9019,0.104990
890.8337,0.103685
891.7656,0.101941
892.6974,0.100837
893.6292,0.100050
894.5611,0.098920
895.4929,0.097961
896.4247,0.097319
897.3566,0.096525
898.2884,0.096142
899.2203,0.095579
900.1521,0.095150
901.0839,0.095027
902.0158,0.094289
902.9476,0.093631
903.8794,0.093316
904.8113,0.092945
905.7431,0.092269
906.6749,0.091871
907.6068,0.091678
908.5386,0.090886
909.4704,0.089982
910.4023,0.089694
911.3341,0.089631
912.2659,0.089855
913.1978,0.089891
914.1296,0.089549
915.0614,0.089328
915.9933,0.089348
916.9251,0.089654
917.8569,0.089938
918.7888,0.089772
919.7206,0.090031
920.6524,0.090259
921.5843,0.090201
922.5161,0.090252
923.4479,0.090080
924.3798,0.089745
925.3116,0.089214
926.2435,0.089305
927.1753,0.089299
928.1071,0.088895
929.0390,0.087997
929.9708,0.086847
930.9026,0.086082
931.8345,0.085330
932.7663,0.084607
933.6981,0.083748
934.6300,0.083232
935.5618,0.082708
936.4936,0.082017
937.4255,0.081136
938.3573,0.080420
939.2891,0.079803
940.2210,0.079328
941.1528,0.078746
942.0846,0.078039
943.0165,0.077694
943.9483,0.077379
944.8801,0.076998
945.8120,0.076496
946.7438,0.075711
947.6756,0.075048
948.6075,0.074562
949.5393,0.074136
950.4711,0.073849
951.4030,0.073701
952.3348,0.072968
953.2667,0.071970
954.1985,0.071505
955.1303,0.071058
956.0622,0.070544
956.9940,0.070116
957.9258,0.069738
958.8577,0.069821
959.7895,0.069633
960.7213,0.069385
961.6532,0.068958
962.5850,0.068507
963.5168,0.068589
964.4487,0.068734
965.3805,0.068896
966.3123,0.069059
967.2442,0.069305
968.1760,0.069356
969.1078,0.069023
970.0397,0.068994
970.9715,0.069875
971.9033,0.070583
972.8352,0.070410
973.7670,0.070248
974.6988,0.070576
975.6307,0.071611
976.5625,0.072354
977.4943,0.072698
978.4262,0.073257
979.3580,0.074392
980.2899,0.075609
981.2217,0.077027
982.1535,0.078401
983.0854,0.079947
984.0172,0.082013
984.9490,0.084525
985.8809,0.087263
986.8127,0.089640
987.7445,0.091711
988.6764,0.094002
989.6082,0.096174
990.5400,0.097964
991.4719,0.099546
992.4037,0.100673
993.3355,0.101323
994.2674,0.102238
995.1992,0.103273
996.1310,0.103667
997.0629,0.103802
997.9947,0.103790
998.9265,0.103892
999.8584,0.104164
1000.7902,0.103908
1001.7220,0.103069
1002.6539,0.102063
1003.5857,0.100629
1004.5175,0.099080
1005.4494,0.097632
1006.3812,0.096097
1007.3131,0.094705
1008.2449,0.093582
1009.1767,0.092825
1010.1086,0.092340
1011.0404,0.092080
1011.9722,0.092247
1012.9041,0.092880
1013.8359,0.093445
1014.7677,0.093711
1015.6996,0.094323
1016.6314,0.095159
1017.5632,0.095507
1018.4951,0.095277
1019.4269,0.095377
1020.3587,0.095532
1021.2906,0.095518
1022.2224,0.095745
1023.1542,0.096345
1024.0861,0.097185
1025.0179,0.098184
1025.9497,0.099794
1026.8816,0.101627
1027.8134,0.103245
1028.7452,0.105192
1029.6771,0.107718
1030.6089,0.110333
1031.5407,0.112926
1032.4726,0.115719
1033.4044,0.119151
1034.3362,0.122837
1035.2681,0.126812
1036.1999,0.131535
1037.1318,0.137052
1038.0636,0.142918
1038.9954,0.148986
1039.9273,0.155398
1040.8591,0.161624
1041.7909,0.167047
1042.7228,0.171114
1043.6546,0.173470
1044.5864,0.174340
1045.5183,0.172934
1046.4501,0.169184
1047.3819,0.163979
1048.3138,0.157729
1049.2456,0.150669
1050.1774,0.143670
1051.1093,0.137212
1052.0411,0.131383
1052.9729,0.126058
1053.9048,0.121657
1054.8366,0.117943
1055.7684,0.114591
1056.7003,0.111682
1057.6321,0.109114
1058.5639,0.106800
1059.4958,0.104698
1060.4276,0.102866
1061.3594,0.101379
1062.2913,0.099726
1063.2231,0.098143
1064.1550,0.096945
1065.0868,0.095728
1066.0186,0.094632
1066.9505,0.093977
1067.8823,0.093170
1068.8141,0.092495
1069.7460,0.092238
1070.6778,0.091698
1071.6096,0.090919
1072.5415,0.090569
1073.4733,0.090510
1074.4051,0.090548
1075.3370,0.090650
1076.2688,0.090747
1077.2006,0.091118
1078.1325,0.091431
1079.0643,0.091568
1079.9961,0.091693
1080.9280,0.091677
1081.8598,0.091336
1082.7916,0.091039
1083.7235,0.090414
1084.6553,0.089335
1085.5871,0.087973
1086.5190,0.086477
1087.4508,0.084802
1088.3826,0.082546
1089.3145,0.080363
1090.2463,0.078201
1091.1782,0.076020
1092.1100,0.074154
1093.0418,0.072496
1093.9737,0.070782
1094.9055,0.069367
1095.8373,0.068424
1096.7692,0.067588
1097.7010,0.066698
1098.6328,0.066256
1099.5647,0.066226
1100.4965,0.065638
1101.4283,0.065215
1102.3602,0.065356
1103.2920,0.065431
1104.2238,0.065431
1105.1557,0.065373
1106.0875,0.065463
1107.0193,0.065383
1107.9512,0.065311
1108.8830,0.065350
1109.8148,0.065316
1110.7467,0.065187
1111.6785,0.065055
1112.6103,0.065002
1113.5422,0.064633
1114.4740,0.064359
1115.4058,0.064108
1116.3377,0.063917
1117.2695,0.063916
1118.2014,0.063683
1119.1332,0.063440
1120.0650,0.063477
1120.9969,0.063421
1121.9287,0.063192
1122.8605,0.063010
1123.7924,0.063172
1124.7242,0.063345
1125.6560,0.063438
1126.5879,0.063343
1127.5197,0.063445
1128.4515,0.063818
1129.3834,0.063885
1130.3152,0.063890
1131.2470,0.064246
1132.1789,0.064686
1133.1107,0.064957
1134.0425,0.065331
1134.9744,0.065363
1135.9062,0.065259
1136.8380,0.065479
1137.7699,0.065555
1138.7017,0.065596
1139.6335,0.065237
1140.5654,0.064564
1141.4972,0.064135
1142.4290,0.063549
1143.3609,0.062631
1144.2927,0.061802
1145.2246,0.060845
1146.1564,0.059840
1147.0882,0.059059
1148.0201,0.058104
1148.9519,0.057107
1149.8837,0.056186
1150.8156,0.055262
1151.7474,0.054734
1152.6792,0.054305
1153.6111,0.053541
1154.5429,0.052921
1155.4747,0.052601
1156.4066,0.052422
1157.3384,0.052241
1158.2702,0.052161
1159.2021,0.051951
1160.1339,0.051667
1161.0657,0.051349
1161.9976,0.051055
1162.9294,0.050771
1163.8612,0.050278
1164.7931,0.049738
1165.7249,0.049047
1166.6567,0.048437
1167.5886,0.048066
1168.5204,0.047674
1169.4522,0.047293
1170.3841,0.046934
1171.3159,0.046698
1172.2477,0.046508
1173.1796,0.046272
1174.1114,0.045786
1175.0433,0.045474
1175.9751,0.045599
1176.9069,0.045659
1177.8388,0.045273
1178.7706,0.045199
1179.7024,0.045412
1180.6343,0.045305
1181.5661,0.045236
1182.4979,0.045361
1183.4298,0.045438
1184.3616,0.045456
1185.2934,0.045523
1186.2253,0.045488
1187.1571,0.045472
1188.0889,0.045559
1189.0208,0.045734
1189.9526,0.045630
1190.8844,0.045523
1191.8163,0.045501
1192.7481,0.045460
1193.6799,0.045499
1194.6118,0.045549
1195.5436,0.045622
1196.4754,0.045771
1197.4073,0.045700
1198.3391,0.045723
1199.2709,0.045743
1200.2028,0.045927
1201.1346,0.046072
1202.0665,0.046027
1202.9983,0.046265
1203.9301,0.046566
1204.8620,0.046606
1205.7938,0.046537
1206.7256,0.046514
1207.6575,0.046704
1208.5893,0.046837
1209.5211,0.046832
1210.4530,0.046881
1211.3848,0.047026
1212.3166,0.047176
1213.2485,0.047242
1214.1803,0.047230
1215.1121,0.047136
1216.0440,0.047078
1216.9758,0.047022
1217.9076,0.046959
1218.8395,0.047131
1219.7713,0.047091
1220.7031,0.046955
1221.6350,0.047040
1222.5668,0.046933
1223.4986,0.046769
1224.4305,0.046791
1225.3623,0.046825
1226.2941,0.046941
1227.2260,0.047083
1228.1578,0.047278
1229.0897,0.047304
1230.0215,0.047326
1230.9533,0.047415
1231.8852,0.047468
1232.8170,0.047824
1233.7488,0.047951
1234.6807,0.047913
1235.6125,0.047948
1236.5443,0.047978
1237.4762,0.048085
1238.4080,0.048049
1239.3398,0.048148
1240.2717,0.048449
1241.2035,0.048312
1242.1353,0.048182
1243.0672,0.048233
1243.9990,0.048323
1244.9308,0.048543
1245.8627,0.048878
1246.7945,0.048941
1247.7263,0.049125
1248.6582,0.049409
1249.5900,0.049511
1250.5218,0.049553
1251.4537,0.049596
1252.3855,0.049849
1253.3173,0.049972
1254.2492,0.050136
1255.1810,0.050265
1256.1129,0.050129
1257.0447,0.050204
1257.9765,0.050448
1258.9084,0.050789
1259.8402,0.051185
1260.7720,0.051533
1261.7039,0.051783
1262.6357,0.052038
1263.5675,0.052197
1264.4994,0.052449
1265.4312,0.052777
1266.3630,0.053043
1267.2949,0.053269
1268.2267,0.053320
1269.1585,0.053485
1270.0904,0.054080
1271.0222,0.054235
1271.9540,0.054119
1272.8859,0.054455
1273.8177,0.054635
1274.7495,0.054410
1275.6814,0.054140
1276.6132,0.053945
1277.5450,0.053709
1278.4769,0.053344
1279.4087,0.053015
1280.3405,0.052784
1281.2724,0.052611
1282.2042,0.052486
1283.1361,0.052142
1284.0679,0.051823
1284.9997,0.051657
1285.9316,0.051570
1286.8634,0.051462
1287.7952,0.051327
1288.7271,0.051275
1289.6589,0.051378
1290.5907,0.051153
1291.5226,0.050818
1292.4544,0.050875
1293.3862,0.050840
1294.3181,0.051072
1295.2499,0.051338
1296.1817,0.051361
1297.1136,0.051456
1298.0454,0.051361
1298.9772,0.051383
1299.9091,0.051652
1300.8409,0.051606
1301.7727,0.051657
1302.7046,0.051811
1303.6364,0.051771
1304.5682,0.051863
1305.5001,0.052317
1306.4319,0.052866
1307.3637,0.053118
1308.2956,0.053259
1309.2274,0.053339
1310.1592,0.053632
1311.0911,0.053726
1312.0229,0.053809
1312.9548,0.054096
1313.8866,0.054559
1314.8184,0.054489
1315.7503,0.054356
1316.6821,0.054459
1317.6139,0.054780
1318.5458,0.055211
1319.4776,0.055706
1320.4094,0.056001
1321.3413,0.055910
1322.2731,0.055774
1323.2049,0.055828
1324.1368,0.055960
1325.0686,0.056005
1326.0004,0.056110
1326.9323,0.056127
1327.8641,0.056012
1328.7959,0.056082
1329.7278,0.056112
1330.6596,0.056309
1331.5914,0.056395
1332.5233,0.056195
1333.4551,0.055723
1334.3869,0.055262
1335.3188,0.055108
1336.2506,0.055104
1337.1824,0.055163
1338.1143,0.055221
1339.0461,0.055027
1339.9780,0.055296
1340.9098,0.055835
1341.8416,0.055596
1342.7735,0.055034
1343.7053,0.054590
1344.6371,0.054361
1345.5690,0.054412
1346.5008,0.054462
1347.4326,0.054220
1348.3645,0.053828
1349.2963,0.053684
1350.2281,0.053851
1351.1600,0.053872
1352.0918,0.053484
1353.0236,0.053335
1353.9555,0.053341
1354.8873,0.053525
1355.8191,0.054081
1356.7510,0.054142
1357.6828,0.053590
1358.6146,0.053279
1359.5465,0.053220
1360.4783,0.053109
1361.4101,0.053139
1362.3420,0.053477
1363.2738,0.054012
1364.2056,0.055156
1365.1375,0.055284
1366.0693,0.054621
1367.0012,0.054494
1367.9330,0.054611
1368.8648,0.054991
1369.7967,0.055529
1370.7285,0.055603
1371.6603,0.055435
1372.5922,0.055521
1373.5240,0.055931
1374.4558,0.056991
1375.3877,0.058256
1376.3195,0.058880
1377.2513,0.058786
1378.1832,0.058575
1379.1150,0.058827
1380.0468,0.058920
1380.9787,0.058952
1381.9105,0.059158
1382.8423,0.059192
1383.7742,0.058906
1384.7060,0.058692
1385.6378,0.058544
1386.5697,0.058582
1387.5015,0.059148
1388.4333,0.060474
1389.3652,0.060205
1390.2970,0.058624
1391.2288,0.057804
1392.1607,0.057167
1393.0925,0.056694
1394.0244,0.056668
1394.9562,0.057162
1395.8880,0.058221
1396.8199,0.058413
1397.7517,0.057647
1398.6835,0.057539
1399.6154,0.058772
1400.5472,0.059418
1401.4790,0.058215
1402.4109,0.057608
1403.3427,0.058083
1404.2745,0.058511
1405.2064,0.058714
1406.1382,0.059749
1407.0700,0.060195
1408.0019,0.059505
1408.9337,0.059270
1409.8655,0.059677
1410.7974,0.059999
1411.7292,0.060133
1412.6610,0.060407
1413.5929,0.059908
1414.5247,0.059294
1415.4565,0.058814
1416.3884,0.058614
1417.3202,0.058659
1418.2520,0.059401
1419.1839,0.060581
1420.1157,0.062542
1421.0476,0.063056
1421.9794,0.060937
1422.9112,0.059955
1423.8431,0.060127
1424.7749,0.060800
1425.7067,0.060488
1426.6386,0.059386
1427.5704,0.058872
1428.5022,0.058302
1429.4341,0.058037
1430.3659,0.058544
1431.2977,0.059034
1432.2296,0.058344
1433.1614,0.057475
1434.0932,0.057133
1435.0251,0.056788
1435.9569,0.056218
1436.8887,0.056886
1437.8206,0.059531
1438.7524,0.059114
1439.6842,0.057012
1440.6161,0.056154
1441.5479,0.056121
1442.4797,0.056037
1443.4116,0.055767
1444.3434,0.055548
1445.2752,0.055562
1446.2071,0.055929
1447.1389,0.056309
1448.0707,0.056656
1449.0026,0.058085
1449.9344,0.058977
1450.8663,0.058678
1451.7981,0.057973
1452.7299,0.057487
1453.6618,0.057242
1454.5936,0.056458
1455.5254,0.056120
1456.4573,0.057000
1457.3891,0.059234
1458.3209,0.060803
1459.2528,0.058983
1460.1846,0.056490
1461.1164,0.054439
1462.0483,0.052729
1462.9801,0.051459
1463.9119,0.050699
1464.8438,0.050674
1465.7756,0.051012
1466.7074,0.050427
1467.6393,0.049080
1468.5711,0.047793
1469.5029,0.046845
1470.4348,0.046304
1471.3666,0.045715
1472.2984,0.045392
1473.2303,0.046673
1474.1621,0.048146
1475.0939,0.047608
1476.0258,0.046673
1476.9576,0.046772
1477.8895,0.047440
1478.8213,0.046993
1479.7531,0.046481
1480.6850,0.046178
1481.6168,0.045977
1482.5486,0.046247
1483.4805,0.046393
1484.4123,0.045926
1485.3441,0.045123
1486.2760,0.044441
1487.2078,0.044239
1488.1396,0.045069
1489.0715,0.045642
1490.0033,0.045485
1490.9351,0.046137
1491.8670,0.046500
1492.7988,0.045639
1493.7306,0.044499
1494.6625,0.043760
1495.5943,0.043633
1496.5261,0.044433
1497.4580,0.045711
1498.3898,0.045212
1499.3216,0.045023
1500.2535,0.045492
1501.1853,0.044527
1502.1171,0.043384
1503.0490,0.043110
1503.9808,0.042642
1504.9127,0.041687
1505.8445,0.041328
1506.7763,0.042919
1507.7082,0.046224
1508.6400,0.046873
1509.5718,0.046513
1510.5037,0.045631
1511.4355,0.044810
1512.3673,0.044596
1513.2992,0.044913
1514.2310,0.044325
1515.1628,0.043231
1516.0947,0.043136
1517.0265,0.044547
1517.9583,0.046423
1518.8902,0.046095
1519.8220,0.044309
1520.7538,0.043297
1521.6857,0.044538
1522.6175,0.046979
1523.5493,0.046736
1524.4812,0.045970
1525.4130,0.045505
1526.3448,0.045896
1527.2767,0.046689
1528.2085,0.046910
1529.1403,0.046766
1530.0722,0.046256
1531.0040,0.045619
1531.9359,0.045277
1532.8677,0.045659
1533.7995,0.046818
1534.7314,0.048097
1535.6632,0.047818
1536.5950,0.046384
1537.5269,0.045354
1538.4587,0.044526
1539.3905,0.044715
1540.3224,0.048545
1541.2542,0.050826
1542.1860,0.049249
1543.1179,0.049765
1544.0497,0.050771
1544.9815,0.050333
1545.9134,0.050181
1546.8452,0.050563
1547.7770,0.049637
1548.7089,0.048644
1549.6407,0.048897
1550.5725,0.050328
1551.5044,0.051311
1552.4362,0.050737
1553.3680,0.049927
1554.2999,0.049409
1555.2317,0.049929
1556.1635,0.050705
1557.0954,0.050075
1558.0272,0.050219
1558.9591,0.053855
1559.8909,0.060147
1560.8227,0.060878
1561.7546,0.058190
1562.6864,0.055510
1563.6182,0.054371
1564.5501,0.054425
1565.4819,0.054817
1566.4137,0.055412
1567.3456,0.055748
1568.2774,0.055450
1569.2092,0.056003
1570.1411,0.058849
1571.0729,0.061213
1572.0047,0.059747
1572.9366,0.058353
1573.8684,0.058229
1574.8002,0.058873
1575.7321,0.060112
1576.6639,0.062916
1577.5957,0.066756
1578.5276,0.066415
1579.4594,0.065172
1580.3912,0.065167
1581.3231,0.065646
1582.2549,0.066294
1583.1867,0.066929
1584.1186,0.067780
1585.0504,0.068635
1585.9822,0.069598
1586.9141,0.070360
1587.8459,0.071137
1588.7778,0.072137
1589.7096,0.073368
1590.6414,0.074925
1591.5733,0.076321
1592.5051,0.077329
1593.4369,0.078254
1594.3688,0.079658
1595.3006,0.081853
1596.2324,0.083677
1597.1643,0.084668
1598.0961,0.085457
1599.0279,0.086608
1599.9598,0.088249
1600.8916,0.089827
1601.8234,0.091473
1602.7553,0.093444
1603.6871,0.095412
1604.6189,0.097255
1605.5508,0.098504
1606.4826,0.100245
1607.4144,0.102555
1608.3463,0.105012
1609.2781,0.107275
1610.2099,0.109493
1611.1418,0.111822
1612.0736,0.112857
1613.0054,0.113335
1613.9373,0.114828
1614.8691,0.117338
1615.8010,0.120227
1616.7328,0.124310
1617.6646,0.131889
1618.5965,0.136467
1619.5283,0.134277
1620.4601,0.132565
1621.3920,0.133760
1622.3238,0.136816
1623.2556,0.140296
1624.1875,0.144911
1625.1193,0.149080
1626.0511,0.149010
1626.9830,0.148399
1627.9148,0.149599
1628.8466,0.152247
1629.7785,0.153947
1630.7103,0.154035
1631.6421,0.153826
1632.5740,0.153401
1633.5058,0.152713
1634.4376,0.152492
1635.3695,0.155171
1636.3013,0.163502
1637.2331,0.169170
1638.1650,0.166999
1639.0968,0.164214
1640.0286,0.161032
1640.9605,0.158511
1641.8923,0.157273
1642.8242,0.156133
1643.7560,0.154496
1644.6878,0.152374
1645.6197,0.151039
1646.5515,0.151959
1647.4833,0.154633
1648.4152,0.155420
1649.3470,0.152850
1650.2788,0.147975
1651.2107,0.143994
1652.1425,0.142304
1653.0743,0.145063
1654.0062,0.155908
1654.9380,0.157686
1655.8698,0.148014
1656.8017,0.141189
1657.7335,0.137144
1658.6653,0.134614
1659.5972,0.132652
1660.5290,0.130708
1661.4608,0.128666
1662.3927,0.127372
1663.3245,0.127048
1664.2563,0.125653
1665.1882,0.122429
1666.1200,0.119707
1667.0518,0.117186
1667.9837,0.114500
1668.9155,0.112731
1669.8474,0.112171
1670.7792,0.111693
1671.7110,0.110123
1672.6429,0.108150
1673.5747,0.105273
1674.5065,0.102203
1675.4384,0.100904
1676.3702,0.100977
1677.3020,0.099036
1678.2339,0.095547
1679.1657,0.092874
1680.0975,0.090732
1681.0294,0.088927
1681.9612,0.087029
1682.8930,0.085010
1683.8249,0.083613
1684.7567,0.083938
1685.6885,0.084351
1686.6204,0.080426
1687.5522,0.077419
1688.4840,0.076136
1689.4159,0.074691
1690.3477,0.072759
1691.2795,0.070703
1692.2114,0.068710
1693.1432,0.067121
1694.0750,0.065728
1695.0069,0.064207
1695.9387,0.062865
1696.8706,0.061822
1697.8024,0.060439
1698.7342,0.058812
1699.6661,0.057570
1700.5979,0.057291
1701.5297,0.058004
1702.4616,0.056578
1703.3934,0.053951
1704.3252,0.051973
1705.2571,0.050648
1706.1889,0.050139
1707.1207,0.049536
1708.0526,0.047889
1708.9844,0.046519
1709.9162,0.045681
1710.8481,0.044557
1711.7799,0.043374
1712.7117,0.042339
1713.6436,0.041353
1714.5754,0.040373
1715.5072,0.039817
1716.4391,0.039648
1717.3709,0.039439
1718.3027,0.039681
1719.2346,0.039016
1720.1664,0.036978
1721.0982,0.035588
1722.0301,0.034922
1722.9619,0.034519
1723.8937,0.033976
1724.8256,0.033396
1725.7574,0.032752
1726.6893,0.031876
1727.6211,0.031391
1728.5529,0.030995
1729.4848,0.030136
1730.4166,0.029627
1731.3484,0.029461
1732.2803,0.028783
1733.2121,0.028095
1734.1439,0.027837
1735.0758,0.027678
1736.0076,0.027087
1736.9394,0.026367
1737.8713,0.026097
1738.8031,0.025935
1739.7349,0.025801
1740.6668,0.025696
1741.5986,0.025421
1742.5304,0.025099
1743.4623,0.024499
1744.3941,0.023960
1745.3259,0.023689
1746.2578,0.023441
1747.1896,0.023193
1748.1214,0.022979
1749.0533,0.022471
1749.9851,0.021785
1750.9169,0.021719
1751.8488,0.021956
1752.7806,0.022327
1753.7125,0.022123
1754.6443,0.021327
1755.5761,0.020737
1756.5080,0.020475
1757.4398,0.020042
1758.3716,0.019688
1759.3035,0.019605
1760.2353,0.019543
1761.1671,0.019555
1762.0990,0.019198
1763.0308,0.019054
1763.9626,0.019484
1764.8945,0.019244
1765.8263,0.018728
1766.7581,0.018243
1767.6900,0.018080
1768.6218,0.018212
1769.5536,0.017831
1770.4855,0.017505
1771.4173,0.017488
1772.3491,0.017403
1773.2810,0.017353
1774.2128,0.017284
1775.1446,0.016881
1776.0765,0.016506
1777.0083,0.016884
1777.9401,0.017300
1778.8720,0.016825
1779.8038,0.015868
1780.7357,0.015557
1781.6675,0.015539
1782.5993,0.015144
1783.5312,0.015105
1784.4630,0.015423
1785.3948,0.015404
1786.3267,0.015102
1787.2585,0.015238
1788.1903,0.015366
1789.1222,0.014892
1790.0540,0.014300
1790.9858,0.014150
1791.9177,0.014160
1792.8495,0.013741
1793.7813,0.013640
1794.7132,0.014133
1795.6450,0.014357
1796.5768,0.014430
1797.5087,0.014236
1798.4405,0.013945
1799.3723,0.013903
1800.3042,0.013805
1801.2360,0.013862
1802.1678,0.014448
1803.0997,0.014525
1804.0315,0.013979
1804.9633,0.013710
1805.8952,0.013333
1806.8270,0.012867
1807.7589,0.012829
1808.6907,0.013169
1809.6225,0.013653
1810.5544,0.013456
1811.4862,0.013020
1812.4180,0.012831
1813.3499,0.012672
1814.2817,0.012798
1815.2135,0.012556
1816.1454,0.012474
1817.0772,0.012785
1818.0090,0.012698
1818.9409,0.012470
1819.8727,0.012422
1820.8045,0.012465
1821.7364,0.012126
1822.6682,0.011891
1823.6000,0.011754
1824.5319,0.011311
1825.4637,0.011476
1826.3955,0.012061
1827.3274,0.011880
1828.2592,0.011553
1829.1910,0.011632
1830.1229,0.011919
1831.0547,0.012614
1831.9865,0.012782
1832.9184,0.012310
1833.8502,0.011631
1834.7821,0.011369
1835.7139,0.011591
1836.6457,0.011543
1837.5776,0.011497
1838.5094,0.012060
1839.4412,0.012243
1840.3731,0.011440
1841.3049,0.010864
1842.2367,0.010601
1843.1686,0.011074
1844.1004,0.011719
1845.0322,0.011802
1845.9641,0.010879
1846.8959,0.010402
1847.8277,0.010587
1848.7596,0.010088
1849.6914,0.009793
1850.6232,0.010549
1851.5551,0.010840
1852.4869,0.010065
1853.4187,0.010140
1854.3506,0.011085
1855.2824,0.011451
1856.2142,0.010977
1857.1461,0.010245
1858.0779,0.010387
1859.0097,0.011232
1859.9416,0.011497
1860.8734,0.011069
1861.8052,0.010694
1862.7371,0.010383
1863.6689,0.010730
1864.6008,0.011024
1865.5326,0.010348
1866.4644,0.009780
1867.3963,0.010425
1868.3281,0.010711
1869.2599,0.009742
1870.1918,0.009368
1871.1236,0.010323
1872.0554,0.011001
1872.9873,0.010819
1873.9191,0.010329
1874.8509,0.009777
1875.7828,0.009394
1876.7146,0.009630
1877.6464,0.009803
1878.5783,0.009476
1879.5101,0.009224
1880.4419,0.009787
1881.3738,0.010276
1882.3056,0.010302
1883.2374,0.009841
1884.1693,0.009773
1885.1011,0.009919
1886.0329,0.009507
1886.9648,0.009258
1887.8966,0.009238
1888.8284,0.009189
1889.7603,0.009532
1890.6921,0.010022
1891.6240,0.010235
1892.5558,0.009622
1893.4876,0.009791
1894.4195,0.011116
1895.3513,0.011375
1896.2831,0.010233
1897.2150,0.008821
1898.1468,0.008338
1899.0786,0.008971
1900.0105,0.009919
1900.9423,0.009555
1901.8741,0.008992
1902.8060,0.010019
1903.7378,0.010596
1904.6696,0.010837
1905.6015,0.010874
1906.5333,0.009806
1907.4651,0.009225
1908.3970,0.009349
1909.3288,0.009152
1910.2606,0.008495
1911.1925,0.008861
1912.1243,0.008221
1913.0561,0.007971
1913.9880,0.009247
1914.9198,0.009361
1915.8516,0.009307
1916.7835,0.010164
1917.7153,0.010834
1918.6472,0.010681
1919.5790,0.010615
1920.5108,0.009597
1921.4427,0.009663
1922.3745,0.011279
1923.3063,0.011350
1924.2382,0.011060
1925.1700,0.011320
1926.1018,0.009996
1927.0337,0.008735
1927.9655,0.008292
1928.8973,0.008520
1929.8292,0.008527
1930.7610,0.008321
1931.6928,0.009238
1932.6247,0.009579
1933.5565,0.010252
1934.4883,0.010970
1935.4202,0.010213
1936.3520,0.008536
1937.2838,0.008484
1938.2157,0.009800
1939.1475,0.009370
1940.0793,0.009249
1941.0112,0.010402
1941.9430,0.009647
1942.8748,0.008604
1943.8067,0.008669
1944.7385,0.008840
1945.6704,0.007842
1946.6022,0.007972
1947.5340,0.008759
1948.4659,0.008423
1949.3977,0.007246
1950.3295,0.007520
1951.2614,0.007762
1952.1932,0.007278
1953.1250,0.007294
1954.0569,0.007955
1954.9887,0.008318
1955.9205,0.008203
1956.8524,0.007869
1957.7842,0.008906
1958.7160,0.008219
1959.6479,0.007226
1960.5797,0.005820
1961.5115,0.004328
1962.4434,0.005405
1963.3752,0.007307
1964.3070,0.007904
1965.2389,0.008228
1966.1707,0.009358
1967.1025,0.008570
1968.0344,0.007259
1968.9662,0.006090
1969.8980,0.005492
1970.8299,0.005544
1971.7617,0.005222
1972.6936,0.004962
1973.6254,0.007928
1974.5572,0.007492
1975.4891,0.006267
1976.4209,0.007730
1977.3527,0.007150
1978.2846,0.006126
1979.2164,0.005165
1980.1482,0.004789
1981.0801,0.004633
1982.0119,0.004503
1982.9437,0.003703
1983.8756,0.003955
1984.8074,0.006206
1985.7392,0.006313
1986.6711,0.004314
1987.6029,0.003001
1988.5347,0.005037
1989.4666,0.008056
1990.3984,0.007934
1991.3302,0.005746
1992.2621,0.007081
1993.1939,0.008602
1994.1257,0.006856
1995.0576,0.008359
1995.9894,0.010336
1996.9212,0.008918
1997.8531,0.007002
1998.7849,0.006445
1999.7167,0.008197
2000.6486,0.008848
2001.5804,0.005977
2002.5123,0.005834
2003.4441,0.009184
2004.3759,0.007510
2005.3078,0.006387
2006.2396,0.008010
2007.1714,0.005978
2008.1033,0.004600
2009.0351,0.003474
2009.9669,0.004588
2010.8988,0.005249
2011.8306,0.002477
2012.7624,0.001317
2013.6943,0.004490
2014.6261,0.008326
2015.5579,0.012493
2016.4898,0.013870
2017.4216,0.008679
2018.3534,0.005045
2019.2853,0.005336
2020.2171,0.004442
2021.1489,0.003670
2022.0808,0.003166
2023.0126,0.004989
2023.9444,0.006738
2024.8763,0.005290
2025.8081,0.003768
2026.7399,0.007042
2027.6718,0.008877
2028.6036,0.008822
2029.5355,0.007261
2030.4673,0.005579
2031.3991,0.006679
2032.3310,0.008536
2033.2628,0.004942
2034.1946,0.002642
2035.1265,0.004775
2036.0583,0.005959
2036.9901,0.006890
2037.9220,0.009727
2038.8538,0.010359
2039.7856,0.009891
2040.7175,0.010712
2041.6493,0.009672
2042.5811,0.009165
2043.5130,0.009495
2044.4448,0.009056
2045.3766,0.007290
2046.3085,0.006984
2047.2403,0.008696
2048.1721,0.010559
2049.1040,0.009909
2050.0358,0.009099
2050.9676,0.010796
2051.8995,0.012501
2052.8313,0.014150
2053.7631,0.013853
2054.6950,0.011803
2055.6268,0.011610
2056.5587,0.012195
2057.4905,0.010855
2058.4223,0.011269
2059.3542,0.012760
2060.2860,0.011964
2061.2178,0.012135
2062.1497,0.014229
2063.0815,0.013925
2064.0133,0.013223
2064.9452,0.013330
2065.8770,0.012796
2066.8088,0.012172
2067.7407,0.011520
2068.6725,0.011672
2069.6043,0.012285
2070.5362,0.012866
2071.4680,0.013917
2072.3998,0.014281
2073.3317,0.015576
2074.2635,0.016836
2075.1953,0.016546
2076.1272,0.015840
2077.0590,0.015014
2077.9908,0.013702
2078.9227,0.013027
2079.8545,0.013700
2080.7863,0.014380
2081.7182,0.015443
2082.6500,0.015683
2083.5819,0.015593
2084.5137,0.015330
2085.4455,0.014994
2086.3774,0.015391
2087.3092,0.015158
2088.2410,0.016309
2089.1729,0.015883
2090.1047,0.015586
2091.0365,0.015524
2091.9684,0.015426
2092.9002,0.015228
2093.8320,0.014908
2094.7639,0.014378
2095.6957,0.013692
2096.6275,0.013580
2097.5594,0.015010
2098.4912,0.016042
2099.4230,0.016055
2100.3549,0.015906
2101.2867,0.014949
2102.2185,0.014394
2103.1504,0.013202
2104.0822,0.012409
2105.0140,0.013247
2105.9459,0.014172
2106.8777,0.015195
2107.8095,0.014640
2108.7414,0.014692
2109.6732,0.016604
2110.6051,0.016486
2111.5369,0.015399
2112.4687,0.016229
2113.4006,0.015892
2114.3324,0.014718
2115.2642,0.014804
2116.1961,0.016381
2117.1279,0.017339
2118.0597,0.017217
2118.9916,0.016967
2119.9234,0.017106
2120.8552,0.016241
2121.7871,0.015433
2122.7189,0.014667
2123.6507,0.015366
2124.5826,0.015697
2125.5144,0.014587
2126.4462,0.015461
2127.3781,0.016294
2128.3099,0.015744
2129.2417,0.017075
2130.1736,0.017471
2131.1054,0.015492
2132.0372,0.014120
2132.9691,0.012851
2133.9009,0.012971
2134.8327,0.014005
2135.7646,0.013645
2136.6964,0.013991
2137.6282,0.013678
2138.5601,0.011634
2139.4919,0.010483
2140.4238,0.012804
2141.3556,0.013618
2142.2874,0.015101
2143.2193,0.014605
2144.1511,0.012834
2145.0829,0.014082
2146.0148,0.011660
2146.9466,0.009406
2147.8784,0.008163
2148.8103,0.007334
2149.7421,0.007492
2150.6739,0.008698
2151.6058,0.011959
2152.5376,0.011063
2153.4694,0.009336
2154.4013,0.010023
2155.3331,0.008002
2156.2649,0.008612
2157.1968,0.010745
2158.1286,0.006474
2159.0604,0.003383
2159.9923,0.008457
2160.9241,0.011390
2161.8559,0.006222
2162.7878,0.006933
2163.7196,0.012086
2164.6514,0.012892
2165.5833,0.012029
2166.5151,0.010659
2167.4470,0.009622
2168.3788,0.009908
2169.3106,0.011334
2170.2425,0.012540
2171.1743,0.010415
2172.1061,0.006720
2173.0380,0.006294
2173.9698,0.007370
2174.9016,0.009281
2175.8335,0.008810
2176.7653,0.006017
2177.6971,0.006184
2178.6290,0.008513
2179.5608,0.007615
2180.4926,0.007009
2181.4245,0.008542
2182.3563,0.009755
2183.2881,0.008753
2184.2200,0.009129
2185.1518,0.007315
2186.0836,0.007772
2187.0155,0.008649
2187.9473,0.009054
2188.8791,0.009153
2189.8110,0.007848
2190.7428,0.009089
2191.6746,0.011026
2192.6065,0.010887
2193.5383,0.009933
2194.4702,0.010580
2195.4020,0.010567
2196.3338,0.011505
2197.2657,0.012471
2198.1975,0.010669
2199.1293,0.008683
2200.0612,0.009594
2200.9930,0.011057
2201.9248,0.011491
2202.8567,0.011204
2203.7885,0.010932
2204.7203,0.008823
2205.6522,0.009169
2206.5840,0.010110
2207.5158,0.010773
2208.4477,0.011221
2209.3795,0.009303
2210.3113,0.008182
2211.2432,0.011759
2212.1750,0.013284
2213.1068,0.009367
2214.0387,0.008035
2214.9705,0.008190
2215.9023,0.008172
2216.8342,0.009301
2217.7660,0.011679
2218.6978,0.009593
2219.6297,0.006650
2220.5615,0.007071
2221.4934,0.007890
2222.4252,0.009354
2223.3570,0.012213
2224.2889,0.012443
2225.2207,0.009363
2226.1525,0.008648
2227.0844,0.009146
2228.0162,0.009276
2228.9480,0.009605
2229.8799,0.011214
2230.8117,0.011789
2231.7435,0.009317
2232.6754,0.007759
2233.6072,0.008486
2234.5390,0.009614
2235.4709,0.009172
2236.4027,0.009543
2237.3345,0.011106
2238.2664,0.011304
2239.1982,0.009384
2240.1300,0.008465
2241.0619,0.010662
2241.9937,0.012147
2242.9255,0.010465
2243.8574,0.010743
2244.7892,0.011158
2245.7210,0.009438
2246.6529,0.010384
2247.5847,0.010837
2248.5166,0.011194
2249.4484,0.011734
2250.3802,0.010502
2251.3121,0.010279
2252.2439,0.010238
2253.1757,0.011340
2254.1076,0.011925
2255.0394,0.011402
2255.9712,0.010538
2256.9031,0.009452
2257.8349,0.007686
2258.7667,0.008032
2259.6986,0.009983
2260.6304,0.010301
2261.5622,0.009562
2262.4941,0.009315
2263.4259,0.009102
2264.3577,0.008139
2265.2896,0.008228
2266.2214,0.009220
2267.1532,0.009322
2268.0851,0.009449
2269.0169,0.010170
2269.9487,0.010541
2270.8806,0.010887
2271.8124,0.011933
2272.7442,0.011760
2273.6761,0.010991
2274.6079,0.009785
2275.5397,0.009385
2276.4716,0.009529
2277.4034,0.008881
2278.3353,0.008349
2279.2671,0.009194
2280.1989,0.009891
2281.1308,0.010140
2282.0626,0.010479
2282.9944,0.011071
2283.9263,0.010972
2284.8581,0.010229
2285.7899,0.009276
2286.7218,0.009919
2287.6536,0.011004
2288.5854,0.010936
2289.5173,0.010118
2290.4491,0.010183
2291.3809,0.010203
2292.3128,0.010010
2293.2446,0.010526
2294.1764,0.009854
2295.1083,0.009240
2296.0401,0.010097
2296.9719,0.010452
2297.9038,0.010683
2298.8356,0.010850
2299.7674,0.010597
2300.6993,0.010047
2301.6311,0.009256
2302.5629,0.009071
2303.4948,0.010130
2304.4266,0.010659
2305.3585,0.010034
2306.2903,0.010356
2307.2221,0.011048
2308.1540,0.010706
2309.0858,0.009187
2310.0176,0.008950
2310.9495,0.009496
2311.8813,0.009978
2312.8131,0.010122
2313.7450,0.009255
2314.6768,0.008557
2315.6086,0.008391
2316.5405,0.009279
2317.4723,0.009361
2318.4041,0.009891
2319.3360,0.009790
2320.2678,0.009804
2321.1996,0.010070
2322.1315,0.009899
2323.0633,0.009971
2323.9951,0.009520
2324.9270,0.009884
2325.8588,0.010630
2326.7906,0.010626
2327.7225,0.010235
2328.6543,0.010169
2329.5861,0.009525
2330.5180,0.008807
2331.4498,0.009133
2332.3817,0.009880
2333.3135,0.010105
2334.2453,0.010365
2335.1772,0.009735
2336.1090,0.009043
2337.0408,0.009199
2337.9727,0.009785
2338.9045,0.009523
2339.8363,0.008560
2340.7682,0.008219
2341.7000,0.007975
2342.6318,0.008120
2343.5637,0.008413
2344.4955,0.008796
2345.4273,0.008801
2346.3592,0.008776
2347.2910,0.008563
2348.2228,0.008319
2349.1547,0.008673
2350.0865,0.009494
2351.0183,0.010212
2351.9502,0.010168
2352.8820,0.009124
2353.8138,0.008522
2354.7457,0.008594
2355.6775,0.008935
2356.6093,0.008591
2357.5412,0.007981
2358.4730,0.007882
2359.4049,0.009722
2360.3367,0.009890
2361.2685,0.007506
2362.2004,0.007218
2363.1322,0.006764
2364.0640,0.005515
2364.9959,0.006087
2365.9277,0.006987
2366.8595,0.007806
2367.7914,0.008982
2368.7232,0.008178
2369.6550,0.007111
2370.5869,0.008307
2371.5187,0.008199
2372.4505,0.006892
2373.3824,0.006658
2374.3142,0.006797
2375.2460,0.006727
2376.1779,0.007113
2377.1097,0.008092
2378.0415,0.008581
2378.9734,0.008308
2379.9052,0.007432
2380.8370,0.007664
2381.7689,0.008098
2382.7007,0.007648
2383.6325,0.007329
2384.5644,0.007176
2385.4962,0.006979
2386.4281,0.007400
2387.3599,0.007719
2388.2917,0.007211
2389.2236,0.007437
2390.1554,0.007595
2391.0872,0.007501
2392.0191,0.008195
2392.9509,0.008495
2393.8827,0.007878
2394.8146,0.007103
2395.7464,0.006828
2396.6782,0.007540
2397.6101,0.007687
2398.5419,0.006798
2399.4737,0.005774
2400.4056,0.006259
2401.3374,0.007161
2402.2692,0.007096
2403.2011,0.006885
2404.1329,0.007804
2405.0647,0.007547
2405.9966,0.006815
2406.9284,0.007100
2407.8602,0.007621
2408.7921,0.007167
2409.7239,0.007514
2410.6557,0.007322
2411.5876,0.006376
2412.5194,0.006390
2413.4512,0.006741
2414.3831,0.006926
2415.3149,0.006980
2416.2468,0.006865
2417.1786,0.006863
2418.1104,0.005791
2419.0423,0.005957
2419.9741,0.006946
2420.9059,0.007089
2421.8378,0.006768
2422.7696,0.006216
2423.7014,0.006105
2424.6333,0.006314
2425.5651,0.006782
2426.4969,0.006862
2427.4288,0.006314
2428.3606,0.006387
2429.2924,0.006044
2430.2243,0.006035
2431.1561,0.006456
2432.0879,0.006224
2433.0198,0.006470
2433.9516,0.007288
2434.8834,0.006115
2435.8153,0.005072
2436.7471,0.005907
2437.6789,0.006442
2438.6108,0.005833
2439.5426,0.006345
2440.4744,0.006498
2441.4063,0.005422
2442.3381,0.005325
2443.2700,0.006063
2444.2018,0.006673
2445.1336,0.006315
2446.0655,0.005757
2446.9973,0.005935
2447.9291,0.005896
2448.8610,0.006208
2449.7928,0.006764
2450.7246,0.006457
2451.6565,0.005570
2452.5883,0.005222
2453.5201,0.005970
2454.4520,0.005522
2455.3838,0.004984
2456.3156,0.005238
2457.2475,0.004895
2458.1793,0.004042
2459.1111,0.004292
2460.0430,0.005785
2460.9748,0.005989
2461.9066,0.005785
2462.8385,0.005746
2463.7703,0.005869
2464.7021,0.006258
2465.6340,0.005492
2466.5658,0.004770
2467.4976,0.005241
2468.4295,0.005667
2469.3613,0.005245
2470.2932,0.004945
2471.2250,0.004768
2472.1568,0.005522
2473.0887,0.006193
2474.0205,0.006352
2474.9523,0.006353
2475.8842,0.006101
2476.8160,0.006388
2477.7478,0.006159
2478.6797,0.004685
2479.6115,0.005100
2480.5433,0.006496
2481.4752,0.006012
2482.4070,0.004995
2483.3388,0.004827
2484.2707,0.004673
2485.2025,0.004857
2486.1343,0.005083
2487.0662,0.005238
2487.9980,0.005299
2488.9298,0.005803
2489.8617,0.006332
2490.7935,0.005735
2491.7253,0.005244
2492.6572,0.005778
2493.5890,0.004956
2494.5208,0.004651
2495.4527,0.005308
2496.3845,0.005585
2497.3164,0.004942
2498.2482,0.004711
2499.1800,0.004880
2500.1119,0.004872
2501.0437,0.005466
2501.9755,0.005715
2502.9074,0.005131
2503.8392,0.005119
2504.7710,0.005300
2505.7029,0.005623
2506.6347,0.006303
2507.5665,0.006407
2508.4984,0.005337
2509.4302,0.005284
2510.3620,0.005915
2511.2939,0.006257
2512.2257,0.005716
2513.1575,0.005371
2514.0894,0.004894
2515.0212,0.004818
2515.9530,0.004645
2516.8849,0.004916
2517.8167,0.006134
2518.7485,0.007147
2519.6804,0.006720
2520.6122,0.004940
2521.5440,0.003952
2522.4759,0.005267
2523.4077,0.005503
2524.3396,0.004118
2525.2714,0.003781
2526.2032,0.004890
2527.1351,0.005297
2528.0669,0.005047
2528.9987,0.004193
2529.9306,0.004343
2530.8624,0.004525
2531.7942,0.005328
2532.7261,0.006297
2533.6579,0.005782
2534.5897,0.004132
2535.5216,0.003359
2536.4534,0.003928
2537.3852,0.004621
2538.3171,0.004784
2539.2489,0.004931
2540.1807,0.004605
2541.1126,0.004067
2542.0444,0.004603
2542.9762,0.004601
2543.9081,0.004290
2544.8399,0.005045
2545.7717,0.005582
2546.7036,0.004979
2547.6354,0.004382
2548.5672,0.004484
2549.4991,0.003833
2550.4309,0.004371
2551.3627,0.005126
2552.2946,0.005281
2553.2264,0.005054
2554.1583,0.004845
2555.0901,0.004272
2556.0219,0.004370
2556.9538,0.004543
2557.8856,0.004149
2558.8174,0.004948
2559.7493,0.005325
2560.6811,0.004609
2561.6129,0.004015
2562.5448,0.004100
2563.4766,0.004067
2564.4084,0.003778
2565.3403,0.003670
2566.2721,0.004036
2567.2039,0.004755
2568.1358,0.005206
2569.0676,0.005317
2569.9994,0.005563
2570.9313,0.005331
2571.8631,0.004932
2572.7949,0.005132
2573.7268,0.005574
2574.6586,0.005818
2575.5904,0.005747
2576.5223,0.005198
2577.4541,0.005215
2578.3859,0.005042
2579.3178,0.004926
2580.2496,0.004901
2581.1815,0.004472
2582.1133,0.004539
2583.0451,0.004551
2583.9770,0.004663
2584.9088,0.005527
2585.8406,0.005245
2586.7725,0.004084
2587.7043,0.003758
2588.6361,0.004629
2589.5680,0.005180
2590.4998,0.005031
2591.4316,0.004423
2592.3635,0.004210
2593.2953,0.004654
2594.2271,0.005122
2595.1590,0.005548
2596.0908,0.004976
2597.0226,0.004052
2597.9545,0.003969
2598.8863,0.003963
2599.8181,0.004040
2600.7500,0.004411
2601.6818,0.004938
2602.6136,0.005499
2603.5455,0.005772
2604.4773,0.005769
2605.4091,0.005511
2606.3410,0.005060
2607.2728,0.005109
2608.2047,0.005440
2609.1365,0.005016
2610.0683,0.004959
2611.0002,0.005021
2611.9320,0.004181
2612.8638,0.004128
2613.7957,0.004217
2614.7275,0.004377
2615.6593,0.004708
2616.5912,0.004124
2617.5230,0.004395
2618.4548,0.004767
2619.3867,0.004549
2620.3185,0.004484
2621.2503,0.004679
2622.1822,0.005483
2623.1140,0.005545
2624.0458,0.005215
2624.9777,0.005274
2625.9095,0.005235
2626.8413,0.005278
2627.7732,0.005589
2628.7050,0.005850
2629.6368,0.005828
2630.5687,0.005637
2631.5005,0.005541
2632.4323,0.005787
2633.3642,0.006238
2634.2960,0.006205
2635.2279,0.006106
2636.1597,0.005689
2637.0915,0.005221
2638.0234,0.005383
2638.9552,0.005748
2639.8870,0.005918
2640.8189,0.006262
2641.7507,0.006372
2642.6825,0.006793
2643.6144,0.006882
2644.5462,0.005948
2645.4780,0.005597
2646.4099,0.005753
2647.3417,0.005708
2648.2735,0.006543
2649.2054,0.007330
2650.1372,0.007174
2651.0690,0.006844
2652.0009,0.006670
2652.9327,0.006562
2653.8645,0.006509
2654.7964,0.006251
2655.7282,0.005952
2656.6600,0.006216
2657.5919,0.006487
2658.5237,0.006570
2659.4555,0.006577
2660.3874,0.006484
2661.3192,0.006609
2662.2511,0.007118
2663.1829,0.007359
2664.1147,0.006976
2665.0466,0.006666
2665.9784,0.006599
2666.9102,0.006331
2667.8421,0.006350
2668.7739,0.006753
2669.7057,0.006842
2670.6376,0.006842
2671.5694,0.006849
2672.5012,0.006961
2673.4331,0.007162
2674.3649,0.007240
2675.2967,0.007124
2676.2286,0.007363
2677.1604,0.007793
2678.0922,0.007418
2679.0241,0.007310
2679.9559,0.007608
2680.8877,0.007845
2681.8196,0.007881
2682.7514,0.007770
2683.6832,0.007776
2684.6151,0.007892
2685.5469,0.007760
2686.4787,0.007655
2687.4106,0.008162
2688.3424,0.008602
2689.2742,0.008163
2690.2061,0.007882
2691.1379,0.008084
2692.0698,0.008108
2693.0016,0.007699
2693.9334,0.007686
2694.8653,0.008144
2695.7971,0.008449
2696.7289,0.008276
2697.6608,0.008360
2698.5926,0.008735
2699.5244,0.008726
2700.4563,0.008532
2701.3881,0.008691
2702.3199,0.008799
2703.2518,0.008301
2704.1836,0.008539
2705.1154,0.008765
2706.0473,0.008705
2706.9791,0.008731
2707.9109,0.008628
2708.8428,0.008772
2709.7746,0.009019
2710.7064,0.009052
2711.6383,0.008619
2712.5701,0.008432
2713.5019,0.008944
2714.4338,0.009612
2715.3656,0.009286
2716.2974,0.008664
2717.2293,0.008718
2718.1611,0.009276
2719.0930,0.009670
2720.0248,0.009325
2720.9566,0.009254
2721.8885,0.009693
2722.8203,0.009756
2723.7521,0.009627
2724.6840,0.009760
2725.6158,0.010005
2726.5476,0.010155
2727.4795,0.009922
2728.4113,0.009380
2729.3431,0.009678
2730.2750,0.010184
2731.2068,0.010295
2732.1386,0.010377
2733.0705,0.010615
2734.0023,0.010219
2734.9341,0.009503
2735.8660,0.009707
2736.7978,0.010373
2737.7296,0.010510
2738.6615,0.010605
2739.5933,0.010409
2740.5251,0.009785
2741.4570,0.009571
2742.3888,0.009885
2743.3206,0.010399
2744.2525,0.010912
2745.1843,0.011114
2746.1162,0.010953
2747.0480,0.011211
2747.9798,0.011570
2748.9117,0.011556
2749.8435,0.011309
2750.7753,0.011146
2751.7072,0.011304
2752.6390,0.011747
2753.5708,0.012078
2754.5027,0.011767
2755.4345,0.011015
2756.3663,0.010779
2757.2982,0.011155
2758.2300,0.011647
2759.1618,0.012337
2760.0937,0.012475
2761.0255,0.011762
2761.9573,0.011160
2762.8892,0.011261
2763.8210,0.011563
2764.7528,0.011926
2765.6847,0.011995
2766.6165,0.012003
2767.5483,0.012336
2768.4802,0.012182
2769.4120,0.012066
2770.3438,0.012682
2771.2757,0.012998
2772.2075,0.012574
2773.1394,0.012257
2774.0712,0.012550
2775.0030,0.012919
2775.9349,0.012720
2776.8667,0.012664
2777.7985,0.012989
2778.7304,0.013141
2779.6622,0.012872
2780.5940,0.012703
2781.5259,0.013118
2782.4577,0.013435
2783.3895,0.013339
2784.3214,0.012802
2785.2532,0.012708
2786.1850,0.013043
2787.1169,0.013276
2788.0487,0.013633
2788.9805,0.013739
2789.9124,0.013728
2790.8442,0.014094
2791.7760,0.014141
2792.7079,0.013759
2793.6397,0.013939
2794.5715,0.014427
2795.5034,0.014896
2796.4352,0.015433
2797.3670,0.015588
2798.2989,0.015559
2799.2307,0.015639
2800.1626,0.015702
2801.0944,0.015184
2802.0262,0.015029
2802.9581,0.015714
2803.8899,0.015625
2804.8217,0.015523
2805.7536,0.016242
2806.6854,0.016840
2807.6172,0.016851
2808.5491,0.016169
2809.4809,0.015938
2810.4127,0.016587
2811.3446,0.017018
2812.2764,0.016816
2813.2082,0.016747
2814.1401,0.016987
2815.0719,0.017529
2816.0037,0.017662
2816.9356,0.017220
2817.8674,0.017094
2818.7992,0.017336
2819.7311,0.017712
2820.6629,0.018173
2821.5947,0.018347
2822.5266,0.017945
2823.4584,0.017788
2824.3902,0.018594
2825.3221,0.019340
2826.2539,0.019086
2827.1857,0.018864
2828.1176,0.019358
2829.0494,0.019471
2829.9813,0.018977
2830.9131,0.019210
2831.8449,0.019833
2832.7768,0.019807
2833.7086,0.019872
2834.6404,0.020186
2835.5723,0.019995
2836.5041,0.019980
2837.4359,0.020553
2838.3678,0.021175
2839.2996,0.021649
2840.2314,0.021536
2841.1633,0.021162
2842.0951,0.021406
2843.0269,0.021810
2843.9588,0.021984
2844.8906,0.022509
2845.8224,0.022873
2846.7543,0.022414
2847.6861,0.021725
2848.6179,0.021656
2849.5498,0.021973
2850.4816,0.022200
2851.4134,0.022721
2852.3453,0.023297
2853.2771,0.023735
2854.2089,0.023942
2855.1408,0.023925
2856.0726,0.024223
2857.0045,0.024624
2857.9363,0.024634
2858.8681,0.024624
2859.8000,0.025133
2860.7318,0.025191
2861.6636,0.025443
2862.5955,0.026332
2863.5273,0.026596
2864.4591,0.026580
2865.3910,0.026939
2866.3228,0.027300
2867.2546,0.027264
2868.1865,0.027149
2869.1183,0.027226
2870.0501,0.027895
2870.9820,0.029202
2871.9138,0.029779
2872.8456,0.029415
2873.7775,0.029629
2874.7093,0.030124
2875.6411,0.030240
2876.5730,0.030347
2877.5048,0.030973
2878.4366,0.031795
2879.3685,0.032109
2880.3003,0.032566
2881.2321,0.033131
2882.1640,0.033107
2883.0958,0.033252
2884.0277,0.033630
2884.9595,0.033758
2885.8913,0.034060
2886.8232,0.034233
2887.7550,0.034295
2888.6868,0.034437
2889.6187,0.034472
2890.5505,0.034688
2891.4823,0.034631
2892.4142,0.035112
2893.3460,0.035841
2894.2778,0.035721
2895.2097,0.036049
2896.1415,0.036876
2897.0733,0.037325
2898.0052,0.037477
2898.9370,0.037639
2899.8688,0.038129
2900.8007,0.038478
2901.7325,0.038635
2902.6643,0.039234
2903.5962,0.039690
2904.5280,0.039864
2905.4598,0.039750
2906.3917,0.039092
2907.3235,0.038806
2908.2553,0.039302
2909.1872,0.039846
2910.1190,0.039533
2911.0509,0.038887
2911.9827,0.039463
2912.9145,0.040257
2913.8464,0.039928
2914.7782,0.038864
2915.7100,0.038023
2916.6419,0.038317
2917.5737,0.038786
2918.5055,0.038610
2919.4374,0.038725
2920.3692,0.039246
2921.3010,0.039805
2922.2329,0.039725
2923.1647,0.039639
2924.0965,0.040228
2925.0284,0.040479
2925.9602,0.040702
2926.8920,0.041537
2927.8239,0.042238
2928.7557,0.043017
2929.6875,0.043243
2930.6194,0.042360
2931.5512,0.042173
2932.4830,0.042907
2933.4149,0.043638
2934.3467,0.043863
2935.2785,0.043920
2936.2104,0.043874
2937.1422,0.044170
2938.0741,0.044811
2939.0059,0.045633
2939.9377,0.046165
2940.8696,0.046325
2941.8014,0.046359
2942.7332,0.046518
2943.6651,0.046434
2944.5969,0.045991
2945.5287,0.046473
2946.4606,0.047233
2947.3924,0.047397
2948.3242,0.047440
2949.2561,0.047522
2950.1879,0.047591
2951.1197,0.047703
2952.0516,0.047884
2952.9834,0.047793
2953.9152,0.047937
2954.8471,0.047747
2955.7789,0.047918
2956.7107,0.048556
2957.6426,0.048693
2958.5744,0.049187
2959.5062,0.050201
2960.4381,0.050527
2961.3699,0.050762
2962.3017,0.052069
2963.2336,0.052557
2964.1654,0.052197
2965.0972,0.053243
2966.0291,0.054709
2966.9609,0.055646
2967.8928,0.056581
2968.8246,0.057518
2969.7564,0.058190
2970.6883,0.058977
2971.6201,0.060091
2972.5519,0.061060
2973.4838,0.063343
2974.4156,0.065629
2975.3474,0.066390
2976.2793,0.067309
2977.2111,0.068603
2978.1429,0.069818
2979.0748,0.070239
2980.0066,0.070407
2980.9384,0.071117
2981.8703,0.072204
2982.8021,0.072990
2983.7339,0.073727
2984.6658,0.073712
2985.5976,0.072894
2986.5294,0.071703
2987.4613,0.070370
2988.3931,0.069808
2989.3249,0.069527
2990.2568,0.068317
2991.1886,0.067377
2992.1204,0.067489
2993.0523,0.067454
2993.9841,0.066190
2994.9160,0.065115
2995.8478,0.065104
2996.7796,0.064891
2997.7115,0.064229
2998.6433,0.064200
2999.5751,0.064196
3000.5070,0.063902
3001.4388,0.064764
3002.3706,0.065365
3003.3025,0.064280
3004.2343,0.063815
3005.1661,0.064568
3006.0980,0.064363
3007.0298,0.064155
3007.9616,0.064884
3008.8935,0.065268
3009.8253,0.065514
3010.7571,0.065500
3011.6890,0.065861
3012.6208,0.067324
3013.5526,0.068262
3014.4845,0.068961
3015.4163,0.069762
3016.3481,0.070312
3017.2800,0.071387
3018.2118,0.071902
3019.1436,0.071410
3020.0755,0.071438
3021.0073,0.071843
3021.9392,0.071648
3022.8710,0.073136
3023.8028,0.074622
3024.7347,0.074092
3025.6665,0.074625
3026.5983,0.075860
3027.5302,0.076377
3028.4620,0.076665
3029.3938,0.076799
3030.3257,0.077669
3031.2575,0.079024
3032.1893,0.079721
3033.1212,0.080361
3034.0530,0.081432
3034.9848,0.081872
3035.9167,0.082394
3036.8485,0.083328
3037.7803,0.083976
3038.7122,0.084608
3039.6440,0.085580
3040.5758,0.086110
3041.5077,0.086740
3042.4395,0.087238
3043.3713,0.088502
3044.3032,0.090204
3045.2350,0.090451
3046.1668,0.090476
3047.0987,0.090520
3048.0305,0.091497
3048.9624,0.093404
3049.8942,0.094604
3050.8260,0.095195
3051.7579,0.095871
3052.6897,0.096827
3053.6215,0.097598
3054.5534,0.097438
3055.4852,0.097960
3056.4170,0.100024
3057.3489,0.100716
3058.2807,0.100736
3059.2125,0.101643
3060.1444,0.103189
3061.0762,0.104239
3062.0080,0.104767
3062.9399,0.105219
3063.8717,0.106548
3064.8035,0.107943
3065.7354,0.108946
3066.6672,0.110569
3067.5990,0.111818
3068.5309,0.111322
3069.4627,0.111687
3070.3945,0.112898
3071.3264,0.114223
3072.2582,0.115459
3073.1900,0.116431
3074.1219,0.117305
3075.0537,0.118331
3075.9856,0.119555
3076.9174,0.120964
3077.8492,0.121184
3078.7811,0.121734
3079.7129,0.123082
3080.6447,0.123906
3081.5766,0.124268
3082.5084,0.125925
3083.4402,0.127638
3084.3721,0.128434
3085.3039,0.128901
3086.2357,0.129298
3087.1676,0.130354
3088.0994,0.131879
3089.0312,0.132915
3089.9631,0.134073
3090.8949,0.134867
3091.8267,0.135615
3092.7586,0.136877
3093.6904,0.137933
3094.6222,0.139156
3095.5541,0.141703
3096.4859,0.143457
3097.4177,0.144196
3098.3496,0.144722
3099.2814,0.145683
3100.2132,0.146262
3101.1451,0.147632
3102.0769,0.149127
3103.0087,0.150432
3103.9406,0.151724
3104.8724,0.154002
3105.8043,0.154344
3106.7361,0.155003
3107.6679,0.157454
3108.5998,0.158545
3109.5316,0.158621
3110.4634,0.159952
3111.3953,0.161145
3112.3271,0.161854
3113.2589,0.162903
3114.1908,0.164168
3115.1226,0.165332
3116.0544,0.167041
3116.9863,0.168464
3117.9181,0.168724
3118.8499,0.169426
3119.7818,0.172121
3120.7136,0.173581
3121.6454,0.174245
3122.5773,0.174431
3123.5091,0.175135
3124.4409,0.176932
3125.3728,0.179110
3126.3046,0.180767
3127.2364,0.181600
3128.1683,0.182695
3129.1001,0.185033
3130.0319,0.186599
3130.9638,0.188384
3131.8956,0.188791
3132.8275,0.189977
3133.7593,0.191751
3134.6911,0.192647
3135.6230,0.192132
3136.5548,0.193692
3137.4866,0.196551
3138.4185,0.198583
3139.3503,0.199316
3140.2821,0.199785
3141.2140,0.200615
3142.1458,0.201941
3143.0776,0.201872
3144.0095,0.203697
3144.9413,0.207228
3145.8731,0.209478
3146.8050,0.210350
3147.7368,0.211296
3148.6686,0.212022
3149.6005,0.212116
3150.5323,0.212979
3151.4641,0.215533
3152.3960,0.216077
3153.3278,0.217035
3154.2596,0.219682
3155.1915,0.221303
3156.1233,0.220929
3157.0551,0.221416
3157.9870,0.221851
3158.9188,0.223619
3159.8507,0.224992
3160.7825,0.226273
3161.7143,0.228564
3162.6462,0.230622
3163.5780,0.231708
3164.5098,0.233315
3165.4417,0.234803
3166.3735,0.236143
3167.3053,0.237250
3168.2372,0.239824
3169.1690,0.240404
3170.1008,0.239774
3171.0327,0.242126
3171.9645,0.244603
3172.8963,0.245385
3173.8282,0.245584
3174.7600,0.246616
3175.6918,0.247550
3176.6237,0.247573
3177.5555,0.248462
3178.4873,0.251365
3179.4192,0.253341
3180.3510,0.252574
3181.2828,0.254273
3182.2147,0.256361
3183.1465,0.257045
3184.0783,0.256934
3185.0102,0.257970
3185.9420,0.258992
3186.8739,0.261409
3187.8057,0.264268
3188.7375,0.265391
3189.6694,0.265369
3190.6012,0.266820
3191.5330,0.267645
3192.4649,0.268117
3193.3967,0.267948
3194.3285,0.268221
3195.2604,0.269137
3196.1922,0.272466
3197.1240,0.273801
3198.0559,0.273476
3198.9877,0.273160
3199.9195,0.273769
3200.8514,0.274847
3201.7832,0.276148
3202.7150,0.278015
3203.6469,0.280344
3204.5787,0.281008
3205.5105,0.280452
3206.4424,0.279686
3207.3742,0.281489
3208.3060,0.282405
3209.2379,0.284075
3210.1697,0.285774
3211.1015,0.287623
3212.0334,0.286420
3212.9652,0.285854
3213.8971,0.286991
3214.8289,0.288090
3215.7607,0.288928
3216.6926,0.289161
3217.6244,0.289316
3218.5562,0.290274
3219.4881,0.293031
3220.4199,0.294554
3221.3517,0.291183
3222.2836,0.289488
3223.2154,0.291884
3224.1472,0.294559
3225.0791,0.295119
3226.0109,0.295317
3226.9427,0.294755
3227.8746,0.294651
3228.8064,0.295908
3229.7382,0.296910
3230.6701,0.297714
3231.6019,0.299963
3232.5337,0.299345
3233.4656,0.297540
3234.3974,0.297734
3235.3292,0.298451
3236.2611,0.298398
3237.1929,0.299422
3238.1247,0.298367
3239.0566,0.298192
3239.9884,0.298889
3240.9202,0.300763
3241.8521,0.301081
3242.7839,0.302701
3243.7158,0.302865
3244.6476,0.300826
3245.5794,0.298342
3246.5113,0.298400
3247.4431,0.298828
3248.3749,0.301417
3249.3068,0.302779
3250.2386,0.301909
3251.1704,0.299574
3252.1023,0.298993
3253.0341,0.298270
3253.9659,0.298636
3254.8978,0.299845
3255.8296,0.301229
3256.7614,0.300968
3257.6933,0.302012
3258.6251,0.302706
3259.5569,0.300715
3260.4888,0.298052
3261.4206,0.299706
3262.3524,0.301194
3263.2843,0.302722
3264.2161,0.302012
3265.1479,0.300487
3266.0798,0.300614
3267.0116,0.302246
3267.9434,0.300521
3268.8753,0.298655
3269.8071,0.299074
3270.7390,0.299069
3271.6708,0.298607
3272.6026,0.300735
3273.5345,0.300692
3274.4663,0.300003
3275.3981,0.297984
3276.3300,0.299356
3277.2618,0.300688
3278.1936,0.300206
3279.1255,0.300087
3280.0573,0.301129
3280.9891,0.299893
3281.9210,0.297975
3282.8528,0.298159
3283.7846,0.299856
3284.7165,0.299801
3285.6483,0.299268
3286.5801,0.297778
3287.5120,0.299389
3288.4438,0.300455
3289.3756,0.299254
3290.3075,0.297203
3291.2393,0.298383
3292.1711,0.299078
3293.1030,0.300465
3294.0348,0.299739
3294.9666,0.298548
3295.8985,0.298233
3296.8303,0.299388
3297.7622,0.298040
3298.6940,0.296459
3299.6258,0.296314
3300.5577,0.294475
3301.4895,0.294046
3302.4213,0.298155
3303.3532,0.299419
3304.2850,0.297821
3305.2168,0.298319
3306.1487,0.298462
3307.0805,0.294580
3308.0123,0.293247
3308.9442,0.294311
3309.8760,0.297223
3310.8078,0.297782
3311.7397,0.295197
3312.6715,0.295001
3313.6033,0.296492
3314.5352,0.295896
3315.4670,0.299122
3316.3988,0.297821
3317.3307,0.295338
3318.2625,0.295792
3319.1943,0.296395
3320.1262,0.297913
3321.0580,0.296518
3321.9898,0.293719
3322.9217,0.295045
3323.8535,0.294660
3324.7854,0.294241
3325.7172,0.294815
3326.6490,0.294220
3327.5809,0.292739
3328.5127,0.293434
3329.4445,0.293966
3330.3764,0.294897
3331.3082,0.294514
3332.2400,0.295664
3333.1719,0.293329
3334.1037,0.293439
3335.0355,0.295020
3335.9674,0.297045
3336.8992,0.296094
3337.8310,0.294926
3338.7629,0.292883
3339.6947,0.293622
3340.6265,0.293792
3341.5584,0.293878
3342.4902,0.291856
3343.4220,0.291318
3344.3539,0.291311
3345.2857,0.292416
3346.2175,0.291587
3347.1494,0.293813
3348.0812,0.293707
3349.0130,0.293488
3349.9449,0.292222
3350.8767,0.291593
3351.8086,0.289401
3352.7404,0.287568
3353.6722,0.287717
3354.6041,0.288422
3355.5359,0.288282
3356.4677,0.289405
3357.3996,0.290997
3358.3314,0.293798
3359.2632,0.292748
3360.1951,0.292455
3361.1269,0.288192
3362.0587,0.287343
3362.9906,0.288278
3363.9224,0.289127
3364.8542,0.289438
3365.7861,0.289454
3366.7179,0.288858
3367.6497,0.287978
3368.5816,0.286470
3369.5134,0.288027
3370.4452,0.288393
3371.3771,0.287981
3372.3089,0.286104
3373.2407,0.284060
3374.1726,0.280870
3375.1044,0.282720
3376.0362,0.282858
3376.9681,0.282729
3377.8999,0.282441
3378.8317,0.281981
3379.7636,0.280517
3380.6954,0.282436
3381.6273,0.281976
3382.5591,0.281527
3383.4909,0.279178
3384.4228,0.279584
3385.3546,0.278979
3386.2864,0.276203
3387.2183,0.275904
3388.1501,0.277378
3389.0819,0.275831
3390.0138,0.273902
3390.9456,0.272714
3391.8774,0.274299
3392.8093,0.272941
3393.7411,0.275445
3394.6729,0.276156
3395.6048,0.273494
3396.5366,0.268032
3397.4684,0.268143
3398.4003,0.271343
3399.3321,0.271433
3400.2639,0.266857
3401.1958,0.266970
3402.1276,0.266642
3403.0594,0.263020
3403.9913,0.260321
3404.9231,0.262040
3405.8549,0.261073
3406.7868,0.260317
3407.7186,0.260316
3408.6505,0.260690
3409.5823,0.259677
3410.5141,0.263340
3411.4460,0.260978
3412.3778,0.258591
3413.3096,0.258682
3414.2415,0.255873
3415.1733,0.251902
3416.1051,0.255046
3417.0370,0.253343
3417.9688,0.250078
3418.9006,0.249501
3419.8325,0.250017
3420.7643,0.251056
3421.6961,0.249335
3422.6280,0.247341
3423.5598,0.249600
3424.4916,0.248679
3425.4235,0.250295
3426.3553,0.245785
3427.2871,0.243019
3428.2190,0.244675
3429.1508,0.246140
3430.0826,0.243152
3431.0145,0.238745
3431.9463,0.236427
3432.8781,0.237365
3433.8100,0.236340
3434.7418,0.236329
3435.6737,0.234428
3436.6055,0.234297
3437.5373,0.233725
3438.4692,0.232495
3439.4010,0.229977
3440.3328,0.228114
3441.2647,0.229299
3442.1965,0.231253
3443.1283,0.227568
3444.0602,0.224485
3444.9920,0.225632
3445.9238,0.226427
3446.8557,0.222142
3447.7875,0.224758
3448.7193,0.225596
3449.6512,0.225325
3450.5830,0.223745
3451.5148,0.220882
3452.4467,0.217635
3453.3785,0.218269
3454.3103,0.219580
3455.2422,0.217697
3456.1740,0.214419
3457.1058,0.212932
3458.0377,0.210612
3458.9695,0.211114
3459.9013,0.210930
3460.8332,0.210925
3461.7650,0.209594
3462.6969,0.209050
3463.6287,0.208741
3464.5605,0.211341
3465.4924,0.211324
3466.4242,0.208874
3467.3560,0.206742
3468.2879,0.206761
3469.2197,0.201888
3470.1515,0.199029
3471.0834,0.198365
3472.0152,0.199380
3472.9470,0.198751
3473.8789,0.197295
3474.8107,0.196854
3475.7425,0.195047
3476.6744,0.189059
3477.6062,0.188162
3478.5380,0.190539
3479.4699,0.191078
3480.4017,0.188951
3481.3335,0.187060
3482.2654,0.187018
3483.1972,0.187125
3484.1290,0.186402
3485.0609,0.187152
3485.9927,0.184872
3486.9245,0.186526
3487.8564,0.186002
3488.7882,0.184239
3489.7201,0.181448
3490.6519,0.177885
3491.5837,0.177768
3492.5156,0.179286
3493.4474,0.179417
3494.3792,0.179053
3495.3111,0.178688
3496.2429,0.180318
3497.1747,0.178067
3498.1066,0.175828
3499.0384,0.172439
3499.9702,0.170350
3500.9021,0.168015
3501.8339,0.168317
3502.7657,0.170691
3503.6976,0.170454
3504.6294,0.166291
3505.5612,0.164267
3506.4931,0.163574
3507.4249,0.165449
3508.3567,0.165075
3509.2886,0.163446
3510.2204,0.162679
3511.1522,0.164076
3512.0841,0.161706
3513.0159,0.157204
3513.9477,0.155713
3514.8796,0.156675
3515.8114,0.157708
3516.7432,0.159109
3517.6751,0.156545
3518.6069,0.155003
3519.5388,0.153754
3520.4706,0.154864
3521.4024,0.155512
3522.3343,0.152957
3523.2661,0.149265
3524.1979,0.149068
3525.1298,0.150803
3526.0616,0.148970
3526.9934,0.146381
3527.9253,0.147867
3528.8571,0.146245
3529.7889,0.143381
3530.7208,0.142852
3531.6526,0.143328
3532.5844,0.141543
3533.5163,0.138396
3534.4481,0.138253
3535.3799,0.139510
3536.3118,0.139933
3537.2436,0.139991
3538.1754,0.136356
3539.1073,0.135278
3540.0391,0.135112
3540.9709,0.134413
3541.9028,0.134462
3542.8346,0.134243
3543.7664,0.133164
3544.6983,0.131224
3545.6301,0.130936
3546.5620,0.132535
3547.4938,0.131406
3548.4256,0.127868
3549.3575,0.127933
3550.2893,0.126213
3551.2211,0.123315
3552.1530,0.123873
3553.0848,0.122631
3554.0166,0.122883
3554.9485,0.122009
3555.8803,0.120033
3556.8121,0.119206
3557.7440,0.118713
3558.6758,0.117226
3559.6076,0.119955
3560.5395,0.118782
3561.4713,0.115342
3562.4031,0.113461
3563.3350,0.114764
3564.2668,0.114262
3565.1986,0.111010
3566.1305,0.108418
3567.0623,0.108691
3567.9941,0.109065
3568.9260,0.109721
3569.8578,0.110732
3570.7896,0.110229
3571.7215,0.108640
3572.6533,0.108312
3573.5852,0.107047
3574.5170,0.103359
3575.4488,0.100613
3576.3807,0.100658
3577.3125,0.100224
3578.2443,0.100849
3579.1762,0.101669
3580.1080,0.101190
3581.0398,0.099822
3581.9717,0.098024
3582.9035,0.096006
3583.8353,0.095243
3584.7672,0.096048
3585.6990,0.097401
3586.6308,0.096896
3587.5627,0.096157
3588.4945,0.096423
3589.4263,0.092847
3590.3582,0.089804
3591.2900,0.092158
3592.2218,0.091549
3593.1537,0.089322
3594.0855,0.087095
3595.0173,0.084769
3595.9492,0.084793
3596.8810,0.086802
3597.8128,0.085271
3598.7447,0.082954
3599.6765,0.083002
3600.6084,0.082505
3601.5402,0.083289
3602.4720,0.082555
3603.4039,0.080948
3604.3357,0.080842
3605.2675,0.079454
3606.1994,0.077163
3607.1312,0.076995
3608.0630,0.076515
3608.9949,0.076730
3609.9267,0.077310
3610.8585,0.074468
3611.7904,0.073057
3612.7222,0.072728
3613.6540,0.072771
3614.5859,0.072095
3615.5177,0.071877
3616.4495,0.071647
3617.3814,0.070013
3618.3132,0.066821
3619.2450,0.066231
3620.1769,0.068548
3621.1087,0.067630
3622.0405,0.065014
3622.9724,0.065076
3623.9042,0.064978
3624.8360,0.062610
3625.7679,0.060814
3626.6997,0.061268
3627.6316,0.062070
3628.5634,0.061954
3629.4952,0.061430
3630.4271,0.059233
3631.3589,0.057524
3632.2907,0.059347
3633.2226,0.059518
3634.1544,0.057676
3635.0862,0.055688
3636.0181,0.054661
3636.9499,0.053467
3637.8817,0.053429
3638.8136,0.053111
3639.7454,0.051652
3640.6772,0.050984
3641.6091,0.051311
3642.5409,0.050780
3643.4727,0.048908
3644.4046,0.047448
3645.3364,0.046407
3646.2682,0.045122
3647.2001,0.044864
3648.1319,0.044572
3649.0637,0.043225
3649.9956,0.042603
3650.9274,0.040542
3651.8592,0.040074
3652.7911,0.038817
3653.7229,0.038469
3654.6547,0.039485
3655.5866,0.038927
3656.5184,0.037024
3657.4503,0.037472
3658.3821,0.037899
3659.3139,0.035871
3660.2458,0.033149
3661.1776,0.032757
3662.1094,0.032241
3663.0413,0.030927
3663.9731,0.030992
3664.9049,0.030510
3665.8368,0.029304
3666.7686,0.029413
3667.7004,0.029450
3668.6323,0.028615
3669.5641,0.027981
3670.4959,0.026920
3671.4278,0.024563
3672.3596,0.022148
3673.2914,0.023193
3674.2233,0.023288
3675.1551,0.021984
3676.0869,0.020241
3677.0188,0.018603
3677.9506,0.017600
3678.8824,0.017067
3679.8143,0.017474
3680.7461,0.017376
3681.6779,0.017329
3682.6098,0.016276
3683.5416,0.015193
3684.4735,0.015462
3685.4053,0.015384
3686.3371,0.015491
3687.2690,0.015407
3688.2008,0.015495
3689.1326,0.013725
3690.0645,0.013114
3690.9963,0.014710
3691.9281,0.013025
3692.8600,0.010968
3693.7918,0.010841
3694.7236,0.010951
3695.6555,0.010849
3696.5873,0.010411
3697.5191,0.009852
3698.4510,0.008204
3699.3828,0.007681
3700.3146,0.007557
3701.2465,0.007746
3702.1783,0.007392
3703.1101,0.007426
3704.0420,0.007570
3704.9738,0.008269
3705.9056,0.008785
3706.8375,0.008581
3707.7693,0.007941
3708.7011,0.007798
3709.6330,0.007294
3710.5648,0.005763
3711.4967,0.004854
3712.4285,0.004998
3713.3603,0.004385
3714.2922,0.003621
3715.2240,0.003169
3716.1558,0.003530
3717.0877,0.003507
3718.0195,0.003678
3718.9513,0.004545
3719.8832,0.005745
3720.8150,0.005597
3721.7468,0.004625
3722.6787,0.004680
3723.6105,0.005025
3724.5423,0.005144
3725.4742,0.005147
3726.4060,0.004331
3727.3378,0.003684
3728.2697,0.002457
3729.2015,0.002456
3730.1333,0.004228
3731.0652,0.005044
3731.9970,0.004793
3732.9288,0.003984
3733.8607,0.003524
3734.7925,0.003285
3735.7243,0.002278
3736.6562,0.002237
3737.5880,0.003154
3738.5199,0.002154
3739.4517,0.001003
3740.3835,0.002356
3741.3154,0.004188
3742.2472,0.003119
3743.1790,0.002330
3744.1109,0.002745
3745.0427,0.001992
3745.9745,0.002766
3746.9064,0.003406
3747.8382,0.000876
3748.7700,0.000261
3749.7019,0.001153
3750.6337,0.001193
3751.5655,0.000743
3752.4974,-0.001506
3753.4292,0.000315
3754.3610,0.001868
3755.2929,-0.000246
3756.2247,0.000290
3757.1565,0.001347
3758.0884,0.000637
3759.0202,0.000372
3759.9520,0.000281
3760.8839,0.000629
3761.8157,0.001751
3762.7475,0.001773
3763.6794,0.001665
3764.6112,0.001887
3765.5431,0.002320
3766.4749,0.002543
3767.4067,0.002832
3768.3386,0.002929
3769.2704,0.002712
3770.2022,0.002392
3771.1341,0.002110
3772.0659,0.001652
3772.9977,0.000817
3773.9296,0.001084
3774.8614,0.002512
3775.7932,0.002505
3776.7251,0.001243
3777.6569,0.001622
3778.5887,0.002118
3779.5206,0.001948
3780.4524,0.001734
3781.3842,0.001121
3782.3161,0.000819
3783.2479,0.001046
3784.1797,0.001103
3785.1116,0.001397
3786.0434,0.002168
3786.9752,0.002318
3787.9071,0.002174
3788.8389,0.002379
3789.7707,0.002296
3790.7026,0.002334
3791.6344,0.002163
3792.5662,0.001673
3793.4981,0.002161
3794.4299,0.002659
3795.3618,0.002247
3796.2936,0.001917
3797.2254,0.001772
3798.1573,0.001421
3799.0891,0.000363
3800.0209,-0.000352
3800.9528,0.000683
3801.8846,0.001589
3802.8164,0.001722
3803.7483,0.000120
3804.6801,-0.001155
3805.6119,0.000593
3806.5438,0.001431
3807.4756,0.000504
3808.4074,0.000858
3809.3393,0.000621
3810.2711,-0.000097
3811.2029,0.000216
3812.1348,-0.000094
3813.0666,-0.000195
3813.9984,0.001467
3814.9303,0.002233
3815.8621,0.001538
3816.7939,0.001055
3817.7258,0.001075
3818.6576,0.001084
3819.5894,0.000035
3820.5213,-0.000948
3821.4531,-0.000676
3822.3850,-0.000173
3823.3168,0.000776
3824.2486,0.000450
3825.1805,-0.001116
3826.1123,-0.001480
3827.0441,-0.000356
3827.9760,0.001146
3828.9078,0.000978
3829.8396,0.000298
3830.7715,0.001306
3831.7033,0.002529
3832.6351,0.001986
3833.5670,0.001052
3834.4988,0.000144
3835.4306,-0.000819
3836.3625,-0.001376
3837.2943,-0.000956
3838.2261,-0.000563
3839.1580,0.000256
3840.0898,0.000699
3841.0216,0.000048
3841.9535,0.000080
3842.8853,0.000656
3843.8171,0.000592
3844.7490,-0.000191
3845.6808,-0.000866
3846.6126,-0.000753
3847.5445,0.000778
3848.4763,0.002728
3849.4082,0.003269
3850.3400,0.001898
3851.2718,0.000608
3852.2037,-0.000435
3853.1355,-0.001335
3854.0673,-0.001093
3854.9992,0.000262
3855.9310,0.001343
3856.8628,0.000308
3857.7947,0.000550
3858.7265,0.001433
3859.6583,0.001375
3860.5902,0.001760
3861.5220,0.001358
3862.4538,0.001007
3863.3857,0.001091
3864.3175,0.000208
3865.2493,-0.000246
3866.1812,0.000037
3867.1130,0.000378
3868.0448,0.001343
3868.9767,0.002607
3869.9085,0.003004
3870.8403,0.001924
3871.7722,0.000059
3872.7040,0.000322
3873.6358,0.001060
3874.5677,0.001101
3875.4995,0.001290
3876.4314,0.000782
3877.3632,0.000145
3878.2950,-0.000085
3879.2269,-0.000016
3880.1587,0.000435
3881.0905,0.000504
3882.0224,0.000215
3882.9542,0.000690
3883.8860,0.000834
3884.8179,0.000236
3885.7497,0.000701
3886.6815,0.001818
3887.6134,0.001244
3888.5452,0.000733
3889.4770,0.001263
3890.4089,0.001571
3891.3407,0.002269
3892.2725,0.001541
3893.2044,0.000327
3894.1362,-0.000274
3895.0680,0.000014
3895.9999,0.001165
3896.9317,0.001320
3897.8635,0.001411
3898.7954,0.002177
3899.7272,0.001816
3900.6590,0.000188
3901.5909,-0.001440
3902.5227,-0.000979
3903.4546,0.000195
3904.3864,-0.000472
3905.3182,-0.000011
3906.2501,0.001569
3907.1819,0.001244
3908.1137,0.001377
3909.0456,0.001613
3909.9774,0.000961
3910.9092,0.001226
3911.8411,0.001739
3912.7729,0.001858
3913.7047,0.000928
3914.6366,0.000409
3915.5684,0.001319
3916.5002,0.001959
3917.4321,0.001480
3918.3639,0.000844
3919.2957,0.000843
3920.2276,0.000980
3921.1594,0.001109
3922.0912,0.000971
3923.0231,0.000722
3923.9549,0.000743
3924.8867,0.001576
3925.8186,0.001629
3926.7504,0.000513
3927.6822,-0.000096
3928.6141,0.000165
3929.5459,0.001078
3930.4777,0.002271
3931.4096,0.002205
3932.3414,0.000433
3933.2733,-0.000560
3934.2051,-0.000125
3935.1369,0.000954
3936.0688,0.001810
3937.0006,0.001736
3937.9324,0.001115
3938.8643,0.000516
3939.7961,0.000625
3940.7279,0.001089
3941.6598,0.001412
3942.5916,0.000836
3943.5234,-0.000085
3944.4553,-0.000154
3945.3871,0.000819
3946.3189,0.001180
3947.2508,0.000139
3948.1826,0.000449
3949.1144,0.001491
3950.0463,0.001366
3950.9781,0.000975
3951.9099,0.001387
3952.8418,0.002010
3953.7736,0.001561
3954.7054,0.000713
3955.6373,0.001089
3956.5691,0.001523
3957.5009,0.001082
3958.4328,0.001417
3959.3646,0.002048
3960.2965,0.001993
3961.2283,0.001208
3962.1601,0.000527
3963.0920,0.000801
3964.0238,0.000988
3964.9556,0.001278
3965.8875,0.001896
3966.8193,0.002464
3967.7511,0.002845
3968.6830,0.002378
3969.6148,0.002232
3970.5466,0.002741
3971.4785,0.001929
3972.4103,0.000550
3973.3421,0.000379
3974.2740,0.000415
3975.2058,0.000722
3976.1376,0.000957
3977.0695,0.000283
3978.0013,-0.000317
3978.9331,-0.000531
3979.8650,-0.000039
3980.7968,0.000733
3981.7286,0.001206
3982.6605,0.001085
3983.5923,0.000450
3984.5241,0.000252
3985.4560,0.000976
3986.3878,0.001635
3987.3197,0.001693
3988.2515,0.001429
3989.1833,0.000919
3990.1152,0.001166
3991.0470,0.001837
3991.9788,0.001633
3992.9107,0.000691
3993.8425,-0.000062
3994.7743,-0.000040
3995.7062,0.000171
3996.6380,0.000276
3997.5698,0.000863
3998.5017,0.001315
3999.4335,0.001421
4000.3653,0.001688
